File: host_upload/11-13-2023/BHVO/ps_0240/ps__0240_0688241128_000rfs_shot_8.msa
#FORMAT      : EMSA/MAS spectral data file
#VERSION     : TC202v2.0 PIXL
#TITLE       : N/A
#DATE        :       Date in the format DD-MMM-YYYY, for example 07-JUL-2010
#TIME        :             The time of day at which the spectrum was recorded, in 24-hour format
#OWNER       : PIXL Flight Model       (PIXL will use this to indicate which instrument took the data.)
#NPOINTS     : 4096     Number of data points in the spectrum (This can be zero for configuration only files)
#NCOLUMNS    : 2     Number of data columns in the spectrum (This can be zero for configuration only files)
#XUNITS      : eV
#YUNITS      : COUNTS
#DATATYPE    : YY
#XPERCHAN    : 7.862, 7.881   eV per channel (separate by commas if more than one detector)
#OFFSET      : 18.5, -22.4         eV of first channel  (separate by commas if more than one detector
#SIGNALTYPE  : XRF
#YP_TEMP     : 0.953
#LIVETIME    : 36.6142, 36.6188   seconds (separate by commas if more than one detector)
#REALTIME    : 40, 40   seconds (separate by commas if more than one detector)
#SPECTRUM    : start of spectrum data
0, 0
0, 0
0, 0
0, 0
0, 0
0, 0
0, 0
0, 0
6, 4
10, 8
10, 14
42, 52
67, 67
214, 205
348, 373
637, 618
3329, 3436
573, 563
81, 85
33, 27
18, 22
59, 70
30, 30
30, 33
214, 190
308, 277
205, 242
109, 105
52, 38
43, 43
136, 138
56, 49
98, 145
1774, 1947
2591, 2505
270, 228
338, 348
361, 353
52, 63
25, 37
215, 284
803, 868
282, 235
64, 68
94, 98
175, 196
67, 79
41, 54
45, 44
63, 75
64, 62
40, 40
53, 52
101, 88
115, 107
58, 45
95, 106
1110, 1392
4743, 5179
2608, 2283
219, 159
67, 68
66, 71
274, 317
799, 839
403, 315
57, 54
43, 37
37, 33
34, 29
30, 31
34, 28
38, 34
41, 40
35, 34
32, 34
23, 32
29, 24
27, 53
33, 32
19, 30
28, 35
28, 20
27, 18
20, 20
23, 26
22, 31
14, 17
19, 15
29, 16
31, 21
18, 23
18, 19
18, 20
20, 21
12, 15
16, 21
18, 15
15, 13
15, 19
20, 14
17, 21
10, 12
13, 14
9, 10
16, 11
14, 12
19, 7
14, 14
14, 16
10, 10
14, 10
12, 5
6, 11
12, 7
4, 7
11, 3
8, 12
6, 11
16, 6
14, 8
10, 5
11, 9
5, 5
9, 9
10, 15
8, 5
8, 5
11, 7
8, 9
9, 3
10, 8
4, 6
5, 6
8, 4
4, 5
0, 3
6, 6
4, 3
5, 2
3, 3
3, 2
2, 3
2, 4
4, 3
3, 3
2, 4
1, 1
2, 3
1, 5
2, 5
4, 3
2, 1
3, 1
0, 3
0, 3
3, 0
0, 0
1, 1
1, 0
1, 2
2, 1
0, 2
2, 0
1, 1
2, 1
1, 1
1, 1
2, 0
1, 1
3, 1
4, 1
2, 2
2, 1
0, 2
0, 0
0, 0
0, 0
0, 0
0, 0
1, 0
0, 0
1, 0
1, 2
0, 4
0, 0
0, 1
0, 0
1, 1
2, 1
0, 0
2, 2
0, 0
0, 0
1, 0
0, 0
0, 0
0, 1
0, 0
0, 0
1, 0
0, 0
0, 0
1, 0
0, 0
0, 0
0, 1
0, 0
0, 0
0, 0
0, 0
0, 0
0, 0
0, 0
0, 0
0, 1
0, 0
0, 0
0, 0
0, 0
0, 0
0, 0
0, 0
0, 0
0, 0
0, 0
0, 0
0, 0
0, 0
0, 0
0, 0
0, 0
0, 0
0, 0
0, 0
0, 0
0, 0
0, 0
0, 0
0, 0
0, 0
0, 0
0, 0
0, 0
0, 0
0, 0
0, 0
0, 0
0, 0
0, 0
0, 0
0, 0
0, 0
0, 0
0, 0
0, 0
0, 0
0, 0
0, 0
0, 0
0, 0
0, 0
0, 0
0, 0
0, 0
0, 0
0, 0
0, 0
0, 0
0, 0
0, 0
0, 0
0, 0
0, 0
0, 0
0, 0
0, 0
0, 0
0, 0
0, 0
0, 0
0, 0
0, 0
0, 0
0, 0
0, 0
0, 0
0, 0
0, 0
0, 0
0, 0
0, 0
0, 0
0, 0
#ENDOFDATA     end of spectrum data