File: host_upload/11-13-2023/BHVO/ps_0240/ps__0240_0688241128_000rfs_shot_21.msa
#FORMAT      : EMSA/MAS spectral data file
#VERSION     : TC202v2.0 PIXL
#TITLE       : N/A
#DATE        :       Date in the format DD-MMM-YYYY, for example 07-JUL-2010
#TIME        :             The time of day at which the spectrum was recorded, in 24-hour format
#OWNER       : PIXL Flight Model       (PIXL will use this to indicate which instrument took the data.)
#NPOINTS     : 4096     Number of data points in the spectrum (This can be zero for configuration only files)
#NCOLUMNS    : 2     Number of data columns in the spectrum (This can be zero for configuration only files)
#XUNITS      : eV
#YUNITS      : COUNTS
#DATATYPE    : YY
#XPERCHAN    : 7.862, 7.881   eV per channel (separate by commas if more than one detector)
#OFFSET      : 18.5, -22.4         eV of first channel  (separate by commas if more than one detector
#SIGNALTYPE  : XRF
#YP_TEMP     : 0.728
#LIVETIME    : 36.5994, 36.5922   seconds (separate by commas if more than one detector)
#REALTIME    : 40, 40   seconds (separate by commas if more than one detector)
#SPECTRUM    : start of spectrum data
0, 0
0, 0
0, 0
0, 0
0, 0
0, 0
0, 0
1, 1
4, 3
8, 6
11, 10
58, 54
58, 54
205, 181
359, 374
620, 569
3314, 3304
598, 509
66, 71
31, 22
18, 16
60, 65
39, 18
31, 37
187, 203
327, 271
208, 219
106, 112
43, 41
43, 40
148, 133
68, 62
116, 130
1745, 1903
2561, 2502
284, 241
319, 362
358, 335
50, 53
47, 40
193, 244
808, 863
284, 273
60, 35
96, 109
168, 181
75, 65
50, 59
47, 36
54, 54
50, 40
45, 34
44, 66
98, 96
137, 119
55, 63
82, 97
1095, 1311
4898, 5318
2654, 2243
251, 160
52, 56
71, 76
294, 305
797, 815
393, 344
64, 55
30, 40
44, 41
21, 32
28, 35
35, 28
34, 44
33, 33
39, 42
31, 27
25, 27
28, 32
26, 24
37, 27
32, 33
19, 24
22, 20
29, 29
24, 30
30, 22
24, 23
19, 20
19, 14
22, 19
16, 29
25, 28
20, 21
22, 20
16, 22
20, 18
18, 15
22, 11
17, 13
18, 10
17, 13
13, 12
18, 21
12, 16
21, 14
14, 6
13, 5
13, 12
10, 13
9, 12
15, 7
9, 10
8, 10
8, 8
11, 7
12, 12
14, 15
5, 16
13, 16
11, 2
8, 8
6, 11
14, 6
4, 3
5, 5
4, 11
4, 4
5, 10
5, 9
7, 8
6, 4
4, 5
1, 3
3, 2
3, 3
3, 3
9, 7
6, 6
4, 2
5, 4
1, 4
3, 3
3, 4
4, 2
0, 5
2, 4
2, 5
1, 2
4, 1
3, 3
3, 1
4, 2
1, 2
1, 2
0, 2
2, 0
1, 2
0, 1
3, 0
1, 4
0, 3
3, 1
1, 0
2, 1
3, 4
3, 1
1, 3
0, 1
1, 0
2, 0
1, 1
1, 2
1, 0
0, 1
1, 0
0, 3
2, 0
1, 0
0, 1
0, 0
0, 0
0, 1
0, 1
0, 0
1, 1
0, 0
1, 0
0, 1
0, 0
0, 1
0, 0
0, 0
0, 0
0, 1
0, 0
0, 0
0, 1
1, 0
0, 0
0, 0
0, 0
0, 0
0, 1
2, 0
0, 0
0, 0
0, 0
1, 0
0, 0
0, 1
0, 0
0, 0
0, 0
0, 0
0, 0
0, 0
0, 0
0, 0
0, 0
0, 0
0, 0
0, 0
0, 0
0, 0
0, 0
0, 0
0, 0
0, 1
0, 0
0, 0
0, 0
0, 0
0, 0
0, 0
0, 0
0, 0
0, 0
0, 0
0, 0
0, 0
0, 0
0, 0
0, 0
0, 0
0, 0
0, 0
0, 0
0, 0
0, 0
0, 0
0, 0
0, 0
0, 0
0, 0
0, 0
0, 0
0, 0
0, 0
0, 0
0, 0
0, 0
0, 0
0, 0
0, 0
0, 0
0, 0
0, 0
0, 0
0, 0
0, 0
0, 0
0, 0
0, 0
0, 0
0, 0
0, 0
0, 0
0, 0
0, 0
0, 0
0, 0
0, 0
0, 0
0, 0
0, 0
0, 0
0, 0
0, 0
0, 0
0, 0
0, 0
0, 0
0, 0
0, 0
#ENDOFDATA     end of spectrum data