File: host_upload/11-13-2023/BHVO/ps_0240/ps__0240_0688241128_000rfs_shot_24.msa
#FORMAT      : EMSA/MAS spectral data file
#VERSION     : TC202v2.0 PIXL
#TITLE       : N/A
#DATE        :       Date in the format DD-MMM-YYYY, for example 07-JUL-2010
#TIME        :             The time of day at which the spectrum was recorded, in 24-hour format
#OWNER       : PIXL Flight Model       (PIXL will use this to indicate which instrument took the data.)
#NPOINTS     : 4096     Number of data points in the spectrum (This can be zero for configuration only files)
#NCOLUMNS    : 2     Number of data columns in the spectrum (This can be zero for configuration only files)
#XUNITS      : eV
#YUNITS      : COUNTS
#DATATYPE    : YY
#XPERCHAN    : 7.862, 7.881   eV per channel (separate by commas if more than one detector)
#OFFSET      : 18.5, -22.4         eV of first channel  (separate by commas if more than one detector
#SIGNALTYPE  : XRF
#YP_TEMP     : 0.792
#LIVETIME    : 36.6122, 36.6123   seconds (separate by commas if more than one detector)
#REALTIME    : 40, 40   seconds (separate by commas if more than one detector)
#SPECTRUM    : start of spectrum data
0, 0
0, 0
0, 0
0, 0
0, 0
0, 0
0, 0
1, 1
1, 4
8, 11
8, 14
51, 51
58, 57
211, 189
392, 382
685, 644
3337, 3315
556, 563
78, 70
39, 27
14, 13
54, 75
30, 28
29, 33
201, 193
275, 276
200, 212
112, 97
42, 36
52, 37
123, 157
73, 67
98, 123
1798, 1997
2526, 2505
281, 211
320, 346
388, 347
47, 56
41, 20
220, 236
838, 828
290, 240
69, 62
96, 110
189, 165
67, 67
43, 45
47, 52
69, 57
57, 63
38, 44
41, 46
86, 91
130, 124
76, 60
80, 88
1074, 1316
4745, 5227
2629, 2251
222, 166
45, 60
63, 80
272, 307
760, 834
393, 353
43, 52
39, 42
42, 46
33, 23
35, 38
36, 27
27, 28
27, 43
43, 36
26, 38
26, 32
35, 39
22, 32
32, 35
30, 24
29, 30
29, 23
22, 31
31, 26
20, 23
21, 24
25, 19
16, 24
28, 11
18, 19
20, 18
23, 22
24, 17
11, 18
15, 20
19, 17
27, 17
12, 11
9, 17
15, 10
16, 11
20, 14
17, 21
16, 11
11, 9
15, 6
15, 12
10, 8
10, 5
17, 14
6, 6
5, 10
10, 6
15, 13
14, 7
8, 5
11, 16
10, 7
5, 6
9, 9
7, 8
9, 13
6, 4
9, 17
4, 2
7, 1
5, 5
7, 11
4, 3
2, 4
5, 6
6, 2
5, 6
3, 4
4, 3
7, 3
1, 6
5, 4
4, 4
1, 2
3, 3
8, 5
5, 2
4, 5
3, 3
3, 2
3, 3
0, 4
2, 1
2, 1
2, 1
4, 1
2, 1
2, 3
2, 0
3, 2
1, 3
1, 1
0, 1
0, 1
2, 3
1, 0
2, 1
2, 2
1, 0
2, 0
1, 2
1, 1
2, 1
2, 1
0, 0
2, 0
1, 1
1, 1
1, 1
1, 0
0, 3
1, 3
0, 0
0, 0
1, 0
2, 1
0, 1
0, 0
0, 0
0, 0
0, 0
0, 0
0, 0
0, 0
1, 0
0, 0
0, 0
0, 0
0, 0
0, 0
0, 0
0, 0
0, 0
0, 0
0, 0
1, 0
0, 0
0, 1
0, 1
0, 0
1, 0
0, 0
0, 0
0, 0
0, 0
0, 0
0, 0
0, 0
1, 1
0, 0
0, 0
0, 0
0, 0
0, 0
0, 0
0, 0
0, 0
0, 0
0, 0
0, 0
0, 0
0, 0
0, 0
0, 0
0, 0
0, 0
0, 0
0, 0
0, 0
0, 0
0, 0
0, 0
0, 0
0, 0
0, 0
0, 0
0, 0
0, 0
0, 0
0, 0
0, 0
0, 0
0, 0
0, 0
0, 0
0, 0
0, 0
0, 0
0, 0
0, 0
0, 0
0, 0
0, 0
0, 0
0, 0
0, 0
0, 0
0, 0
0, 0
0, 0
0, 0
0, 0
0, 0
0, 0
0, 0
0, 0
0, 0
0, 0
0, 0
0, 0
0, 0
0, 0
0, 0
0, 0
0, 0
0, 0
0, 0
0, 0
0, 0
0, 0
0, 0
0, 0
0, 0
0, 0
0, 0
0, 0
0, 0
#ENDOFDATA     end of spectrum data