File: host_upload/11-13-2023/BHVO/ps_0240/ps__0240_0688241128_000rfs_shot_6.msa
#FORMAT      : EMSA/MAS spectral data file
#VERSION     : TC202v2.0 PIXL
#TITLE       : N/A
#DATE        :       Date in the format DD-MMM-YYYY, for example 07-JUL-2010
#TIME        :             The time of day at which the spectrum was recorded, in 24-hour format
#OWNER       : PIXL Flight Model       (PIXL will use this to indicate which instrument took the data.)
#NPOINTS     : 4096     Number of data points in the spectrum (This can be zero for configuration only files)
#NCOLUMNS    : 2     Number of data columns in the spectrum (This can be zero for configuration only files)
#XUNITS      : eV
#YUNITS      : COUNTS
#DATATYPE    : YY
#XPERCHAN    : 7.862, 7.881   eV per channel (separate by commas if more than one detector)
#OFFSET      : 18.5, -22.4         eV of first channel  (separate by commas if more than one detector
#SIGNALTYPE  : XRF
#YP_TEMP     : 0.728
#LIVETIME    : 36.6253, 36.6152   seconds (separate by commas if more than one detector)
#REALTIME    : 40, 40   seconds (separate by commas if more than one detector)
#SPECTRUM    : start of spectrum data
0, 0
0, 0
0, 0
0, 0
0, 0
0, 0
0, 0
0, 1
2, 3
7, 7
12, 18
59, 62
64, 61
212, 182
348, 370
674, 644
3201, 3438
568, 535
79, 85
34, 30
18, 14
62, 60
33, 27
38, 34
221, 207
284, 282
217, 218
116, 104
46, 36
41, 37
128, 133
88, 54
119, 110
1786, 2074
2458, 2487
295, 238
305, 375
346, 376
68, 53
35, 30
222, 244
846, 806
269, 282
52, 52
89, 125
188, 184
60, 75
38, 38
39, 46
64, 56
58, 51
49, 54
42, 44
99, 114
127, 120
57, 62
89, 98
1228, 1384
4874, 5215
2642, 2133
221, 163
68, 63
84, 76
262, 325
786, 802
415, 318
52, 48
31, 30
32, 39
40, 37
32, 34
35, 36
31, 40
46, 36
37, 36
34, 34
19, 27
26, 35
40, 35
30, 33
24, 34
21, 39
20, 29
32, 18
13, 21
23, 22
24, 20
27, 17
25, 15
20, 15
16, 27
20, 24
28, 21
24, 12
14, 17
20, 19
21, 22
24, 15
17, 17
10, 13
17, 22
19, 27
9, 6
13, 18
9, 19
15, 17
13, 12
12, 14
10, 12
10, 9
9, 10
8, 12
9, 16
10, 7
14, 8
9, 6
14, 8
7, 7
9, 4
11, 8
10, 10
8, 7
5, 10
4, 4
6, 6
6, 6
7, 3
4, 6
8, 10
8, 8
3, 3
8, 8
7, 3
5, 3
1, 3
4, 2
6, 5
3, 5
1, 6
2, 5
5, 2
4, 2
2, 5
3, 5
5, 4
2, 3
2, 4
1, 1
0, 5
0, 1
0, 2
2, 2
1, 2
1, 3
2, 1
2, 1
3, 2
3, 3
0, 6
1, 2
1, 4
1, 1
1, 0
2, 0
1, 1
1, 0
0, 1
1, 2
0, 2
4, 5
4, 4
2, 0
0, 0
1, 0
0, 0
0, 0
0, 1
0, 1
2, 0
0, 1
1, 0
0, 0
1, 0
0, 0
0, 0
0, 1
0, 1
0, 0
0, 1
0, 0
0, 0
0, 1
2, 0
0, 0
0, 0
0, 0
0, 0
0, 0
0, 0
0, 0
1, 0
0, 0
0, 0
0, 0
0, 0
1, 0
0, 0
0, 0
0, 0
0, 0
0, 0
0, 0
0, 0
0, 0
0, 0
0, 0
0, 0
0, 0
0, 0
0, 0
0, 0
0, 0
0, 0
0, 0
0, 0
0, 0
0, 0
0, 0
0, 0
0, 0
0, 0
0, 0
0, 0
0, 0
0, 0
0, 0
0, 0
0, 0
0, 0
0, 0
0, 0
0, 0
0, 0
0, 0
0, 0
0, 0
0, 0
0, 0
0, 0
0, 0
0, 0
0, 0
0, 0
0, 0
0, 0
0, 0
0, 0
0, 0
0, 0
1, 0
0, 0
0, 0
0, 0
0, 0
0, 0
0, 0
0, 0
0, 0
0, 0
0, 0
0, 0
0, 0
0, 0
0, 0
0, 0
0, 0
0, 0
0, 0
0, 0
0, 0
0, 0
0, 0
0, 0
0, 0
0, 0
0, 0
0, 0
0, 0
0, 0
0, 0
0, 0
0, 0
0, 0
0, 0
#ENDOFDATA     end of spectrum data