File: host_upload/11-13-2023/BHVO/ps_0240/ps__0240_0688241128_000rfs_shot_20.msa
#FORMAT      : EMSA/MAS spectral data file
#VERSION     : TC202v2.0 PIXL
#TITLE       : N/A
#DATE        :       Date in the format DD-MMM-YYYY, for example 07-JUL-2010
#TIME        :             The time of day at which the spectrum was recorded, in 24-hour format
#OWNER       : PIXL Flight Model       (PIXL will use this to indicate which instrument took the data.)
#NPOINTS     : 4096     Number of data points in the spectrum (This can be zero for configuration only files)
#NCOLUMNS    : 2     Number of data columns in the spectrum (This can be zero for configuration only files)
#XUNITS      : eV
#YUNITS      : COUNTS
#DATATYPE    : YY
#XPERCHAN    : 7.862, 7.881   eV per channel (separate by commas if more than one detector)
#OFFSET      : 18.5, -22.4         eV of first channel  (separate by commas if more than one detector
#SIGNALTYPE  : XRF
#YP_TEMP     : 0.76
#LIVETIME    : 36.6277, 36.6034   seconds (separate by commas if more than one detector)
#REALTIME    : 40, 40   seconds (separate by commas if more than one detector)
#SPECTRUM    : start of spectrum data
0, 0
0, 0
0, 0
0, 0
0, 0
0, 0
0, 0
2, 0
5, 2
8, 7
11, 13
53, 52
83, 68
228, 180
387, 345
653, 642
3232, 3410
581, 612
77, 68
27, 24
25, 17
62, 57
33, 30
34, 31
183, 202
284, 264
209, 224
114, 101
48, 35
38, 51
134, 129
79, 62
100, 143
1765, 1945
2475, 2428
266, 224
326, 341
377, 357
49, 48
41, 23
200, 228
805, 844
292, 275
50, 52
101, 120
168, 199
73, 76
51, 52
43, 49
63, 66
47, 59
42, 50
48, 56
95, 93
126, 119
61, 53
78, 108
1161, 1328
4835, 5225
2703, 2274
225, 139
59, 59
69, 76
254, 310
775, 778
406, 344
64, 41
36, 20
37, 34
39, 32
39, 36
38, 31
30, 31
31, 48
38, 47
33, 33
36, 34
32, 34
33, 36
27, 36
33, 28
21, 27
30, 21
23, 19
18, 28
29, 31
22, 20
28, 20
22, 19
23, 21
17, 26
23, 19
22, 24
20, 14
13, 24
6, 22
14, 19
15, 13
16, 12
18, 9
18, 10
9, 12
17, 13
13, 19
9, 9
10, 13
12, 12
15, 6
15, 11
5, 14
13, 7
11, 11
5, 17
10, 7
6, 16
10, 13
16, 11
17, 14
7, 8
6, 8
10, 4
5, 5
6, 10
4, 9
8, 5
4, 3
6, 5
8, 3
12, 5
5, 3
4, 6
4, 2
3, 7
5, 4
3, 2
5, 4
3, 1
3, 4
5, 2
2, 3
3, 4
1, 4
4, 1
5, 3
0, 4
3, 3
4, 3
2, 3
2, 2
1, 4
2, 6
1, 3
1, 5
1, 3
4, 2
0, 1
3, 4
3, 3
1, 1
0, 1
2, 1
2, 1
1, 5
1, 2
0, 0
0, 2
2, 0
0, 1
2, 1
0, 4
1, 2
2, 3
0, 0
1, 0
0, 1
1, 0
0, 0
2, 2
1, 1
1, 1
1, 0
0, 1
1, 0
1, 0
0, 0
2, 1
0, 1
0, 0
0, 0
0, 0
0, 0
0, 0
0, 0
0, 1
2, 0
0, 0
1, 0
0, 0
0, 0
1, 0
0, 1
1, 0
0, 0
1, 0
0, 0
0, 1
1, 0
0, 0
0, 0
0, 0
0, 0
0, 0
0, 0
0, 0
0, 0
0, 0
0, 0
0, 0
0, 0
0, 0
1, 0
0, 0
0, 0
0, 0
0, 0
0, 0
0, 0
0, 0
0, 0
0, 0
0, 0
0, 0
1, 0
0, 0
0, 0
0, 0
0, 0
0, 0
0, 0
0, 0
0, 0
0, 0
0, 0
0, 0
0, 0
0, 0
0, 0
0, 0
0, 0
0, 0
0, 0
0, 0
0, 0
0, 0
0, 0
0, 0
0, 0
0, 0
0, 0
0, 0
0, 0
0, 0
0, 0
0, 0
0, 0
0, 0
0, 0
0, 0
0, 0
0, 0
0, 0
0, 0
0, 0
0, 0
0, 0
0, 0
0, 0
0, 0
0, 0
0, 0
0, 0
0, 0
0, 0
0, 0
0, 0
0, 0
0, 0
0, 0
0, 0
0, 0
0, 0
0, 0
0, 0
0, 0
#ENDOFDATA     end of spectrum data