File: host_upload/11-13-2023/BHVO/ps_0240/ps__0240_0688241128_000rfs_shot_18.msa
#FORMAT      : EMSA/MAS spectral data file
#VERSION     : TC202v2.0 PIXL
#TITLE       : N/A
#DATE        :       Date in the format DD-MMM-YYYY, for example 07-JUL-2010
#TIME        :             The time of day at which the spectrum was recorded, in 24-hour format
#OWNER       : PIXL Flight Model       (PIXL will use this to indicate which instrument took the data.)
#NPOINTS     : 4096     Number of data points in the spectrum (This can be zero for configuration only files)
#NCOLUMNS    : 2     Number of data columns in the spectrum (This can be zero for configuration only files)
#XUNITS      : eV
#YUNITS      : COUNTS
#DATATYPE    : YY
#XPERCHAN    : 7.862, 7.881   eV per channel (separate by commas if more than one detector)
#OFFSET      : 18.5, -22.4         eV of first channel  (separate by commas if more than one detector
#SIGNALTYPE  : XRF
#YP_TEMP     : 1.113
#LIVETIME    : 36.6245, 36.5897   seconds (separate by commas if more than one detector)
#REALTIME    : 40, 40   seconds (separate by commas if more than one detector)
#SPECTRUM    : start of spectrum data
0, 0
0, 0
0, 0
0, 0
0, 0
0, 0
0, 0
1, 0
2, 2
8, 8
9, 12
46, 52
81, 71
184, 197
371, 376
617, 581
3276, 3250
610, 561
81, 79
36, 28
14, 12
58, 76
33, 28
35, 37
179, 198
295, 277
180, 210
106, 115
42, 38
38, 37
131, 139
71, 74
121, 124
1769, 1926
2489, 2445
254, 236
311, 323
339, 375
48, 46
24, 60
232, 256
785, 842
298, 310
61, 57
85, 92
171, 176
80, 79
39, 44
52, 46
63, 72
57, 56
44, 37
51, 40
76, 114
119, 121
72, 73
85, 120
1112, 1380
4831, 5274
2657, 2191
223, 162
54, 45
71, 90
279, 329
773, 807
420, 340
54, 46
41, 36
23, 23
34, 31
26, 26
34, 41
23, 38
45, 33
32, 37
43, 51
29, 23
20, 37
40, 28
25, 30
24, 19
28, 24
36, 28
30, 32
30, 22
26, 22
29, 24
21, 26
24, 22
22, 21
28, 24
26, 34
13, 18
15, 21
15, 22
18, 14
20, 14
19, 11
17, 22
21, 17
12, 19
14, 15
10, 13
12, 11
16, 7
9, 12
14, 9
14, 9
11, 13
11, 11
10, 16
11, 9
8, 13
12, 12
12, 6
9, 1
14, 13
11, 8
10, 1
13, 6
10, 6
10, 8
7, 4
10, 6
9, 6
6, 6
13, 4
8, 9
8, 6
9, 7
3, 8
4, 5
2, 6
3, 6
4, 4
3, 3
5, 2
3, 4
3, 1
6, 8
1, 5
1, 4
4, 3
2, 6
5, 3
4, 1
2, 0
1, 1
2, 0
1, 3
4, 3
4, 4
2, 2
0, 0
2, 1
4, 1
3, 1
2, 0
2, 1
3, 1
1, 2
2, 1
1, 2
5, 2
1, 0
2, 0
3, 3
2, 2
1, 1
0, 0
1, 0
2, 1
2, 0
2, 1
1, 2
1, 2
2, 0
0, 1
1, 1
0, 0
1, 1
0, 2
0, 2
0, 3
2, 2
0, 0
0, 1
0, 1
0, 0
1, 0
1, 0
0, 1
1, 0
0, 1
0, 0
0, 0
0, 1
1, 0
1, 0
0, 1
0, 0
0, 0
0, 0
0, 0
1, 0
0, 1
1, 0
0, 0
0, 1
0, 0
0, 0
0, 0
0, 0
0, 0
0, 0
0, 1
0, 0
0, 0
0, 0
0, 0
0, 0
0, 0
0, 0
0, 0
0, 0
0, 0
0, 0
0, 0
0, 0
0, 0
0, 0
0, 0
0, 0
0, 0
0, 0
0, 0
0, 0
0, 0
0, 0
0, 0
0, 0
0, 0
0, 0
0, 0
0, 0
0, 0
0, 0
0, 0
0, 0
0, 0
0, 0
0, 0
0, 0
0, 0
0, 0
0, 0
0, 0
0, 0
0, 0
0, 0
0, 0
0, 0
0, 0
0, 0
0, 0
0, 0
0, 0
0, 0
0, 0
0, 0
0, 0
0, 0
0, 0
0, 0
0, 0
0, 0
0, 0
0, 0
0, 0
0, 0
0, 0
0, 0
0, 0
0, 0
0, 0
0, 0
0, 0
0, 0
0, 0
0, 0
0, 0
0, 0
0, 0
0, 0
#ENDOFDATA     end of spectrum data