File: host_upload/11-13-2023/BHVO/ps_0240/ps__0240_0688241128_000rfs_shot_1.msa
#FORMAT      : EMSA/MAS spectral data file
#VERSION     : TC202v2.0 PIXL
#TITLE       : N/A
#DATE        :       Date in the format DD-MMM-YYYY, for example 07-JUL-2010
#TIME        :             The time of day at which the spectrum was recorded, in 24-hour format
#OWNER       : PIXL Flight Model       (PIXL will use this to indicate which instrument took the data.)
#NPOINTS     : 4096     Number of data points in the spectrum (This can be zero for configuration only files)
#NCOLUMNS    : 2     Number of data columns in the spectrum (This can be zero for configuration only files)
#XUNITS      : eV
#YUNITS      : COUNTS
#DATATYPE    : YY
#XPERCHAN    : 7.862, 7.881   eV per channel (separate by commas if more than one detector)
#OFFSET      : 18.5, -22.4         eV of first channel  (separate by commas if more than one detector
#SIGNALTYPE  : XRF
#YP_TEMP     : 0.76
#LIVETIME    : 36.6266, 36.605   seconds (separate by commas if more than one detector)
#REALTIME    : 40, 40   seconds (separate by commas if more than one detector)
#SPECTRUM    : start of spectrum data
0, 0
0, 0
0, 0
0, 0
0, 0
0, 0
0, 0
1, 1
3, 1
7, 9
5, 7
55, 57
62, 55
199, 209
362, 396
616, 590
3260, 3301
590, 594
77, 77
35, 26
18, 10
66, 47
27, 28
29, 39
177, 199
290, 304
216, 223
103, 72
45, 48
37, 41
135, 149
84, 56
122, 127
1760, 1970
2528, 2445
268, 219
347, 383
371, 357
49, 45
40, 35
251, 260
880, 821
322, 254
77, 76
83, 103
166, 174
79, 73
65, 45
54, 47
62, 63
42, 49
39, 37
45, 45
98, 104
128, 124
62, 56
94, 114
1180, 1373
4724, 5124
2575, 2171
200, 135
61, 49
63, 64
284, 322
814, 827
372, 318
59, 62
33, 40
34, 33
28, 38
41, 30
28, 37
35, 34
35, 50
37, 31
36, 27
37, 41
22, 25
33, 28
26, 36
23, 21
35, 24
18, 23
28, 29
23, 19
21, 29
31, 24
14, 27
12, 17
20, 18
25, 22
15, 18
27, 26
15, 19
17, 24
14, 17
14, 11
19, 11
13, 24
10, 18
12, 10
11, 17
18, 16
11, 15
8, 13
16, 9
9, 14
13, 14
8, 3
8, 11
15, 11
9, 7
15, 14
7, 7
10, 7
11, 7
9, 8
8, 11
10, 11
10, 5
10, 7
8, 5
9, 5
7, 2
3, 8
5, 5
4, 2
10, 8
4, 7
3, 5
6, 3
4, 9
5, 4
8, 5
3, 1
7, 3
4, 5
2, 8
3, 6
1, 3
4, 1
4, 1
0, 7
6, 2
4, 2
1, 2
3, 0
2, 4
1, 1
4, 2
2, 1
4, 2
2, 4
0, 4
0, 1
2, 1
0, 1
1, 2
4, 2
2, 1
1, 5
3, 1
0, 1
1, 2
1, 2
3, 0
2, 1
1, 0
2, 1
0, 3
0, 1
0, 1
2, 1
0, 3
0, 1
1, 0
1, 1
0, 2
0, 0
1, 0
2, 0
1, 2
0, 0
1, 0
0, 1
1, 0
0, 0
0, 0
0, 0
1, 0
0, 1
0, 0
1, 1
1, 0
0, 0
0, 0
0, 0
0, 0
0, 0
1, 0
1, 0
0, 0
0, 0
1, 0
0, 0
0, 1
0, 0
1, 0
1, 0
1, 0
0, 0
1, 0
0, 0
0, 0
0, 0
0, 0
1, 0
0, 0
0, 0
0, 0
0, 0
0, 0
0, 0
0, 0
0, 0
0, 0
0, 0
0, 0
0, 0
0, 0
0, 0
0, 0
0, 0
0, 0
0, 0
0, 0
0, 0
0, 0
0, 0
0, 0
0, 0
0, 0
0, 0
0, 0
0, 1
0, 0
0, 0
0, 0
0, 0
0, 0
0, 0
0, 0
0, 0
0, 0
0, 0
0, 0
0, 0
0, 0
0, 0
0, 0
0, 0
0, 0
0, 0
0, 0
0, 0
0, 0
0, 0
0, 0
0, 0
0, 0
0, 0
0, 0
0, 0
0, 0
0, 0
0, 0
0, 0
0, 0
0, 0
0, 0
0, 0
0, 0
0, 0
0, 0
0, 0
0, 0
0, 0
0, 0
0, 0
0, 0
0, 0
0, 0
0, 0
0, 0
#ENDOFDATA     end of spectrum data