File: host_upload/11-13-2023/BHVO/ps_0240/ps__0240_0688241128_000rfs_shot_9.msa
#FORMAT      : EMSA/MAS spectral data file
#VERSION     : TC202v2.0 PIXL
#TITLE       : N/A
#DATE        :       Date in the format DD-MMM-YYYY, for example 07-JUL-2010
#TIME        :             The time of day at which the spectrum was recorded, in 24-hour format
#OWNER       : PIXL Flight Model       (PIXL will use this to indicate which instrument took the data.)
#NPOINTS     : 4096     Number of data points in the spectrum (This can be zero for configuration only files)
#NCOLUMNS    : 2     Number of data columns in the spectrum (This can be zero for configuration only files)
#XUNITS      : eV
#YUNITS      : COUNTS
#DATATYPE    : YY
#XPERCHAN    : 7.862, 7.881   eV per channel (separate by commas if more than one detector)
#OFFSET      : 18.5, -22.4         eV of first channel  (separate by commas if more than one detector
#SIGNALTYPE  : XRF
#YP_TEMP     : 0.632
#LIVETIME    : 36.6247, 36.5986   seconds (separate by commas if more than one detector)
#REALTIME    : 40, 40   seconds (separate by commas if more than one detector)
#SPECTRUM    : start of spectrum data
0, 0
0, 0
0, 0
0, 0
0, 0
0, 0
0, 0
1, 1
4, 5
10, 8
9, 3
48, 52
62, 65
177, 183
413, 383
632, 634
3245, 3225
598, 541
79, 72
20, 31
16, 15
58, 52
28, 32
28, 36
180, 188
292, 330
210, 194
81, 110
41, 36
45, 38
118, 125
75, 60
111, 122
1761, 2004
2538, 2336
268, 220
336, 350
371, 345
54, 53
32, 35
203, 254
803, 806
303, 235
57, 51
107, 99
195, 185
79, 91
48, 51
44, 53
65, 79
59, 54
48, 37
50, 50
95, 98
116, 123
56, 55
77, 100
1157, 1400
4639, 5024
2592, 2263
223, 144
54, 50
57, 70
273, 328
740, 777
391, 314
53, 50
34, 40
29, 37
24, 41
25, 37
38, 31
39, 38
36, 32
32, 28
42, 24
43, 35
29, 27
34, 29
44, 31
36, 22
24, 37
21, 28
33, 24
25, 28
18, 20
22, 23
21, 20
26, 17
18, 20
25, 21
27, 25
24, 19
24, 14
20, 21
13, 20
20, 21
21, 10
16, 9
11, 17
17, 14
12, 18
13, 10
12, 12
8, 15
7, 15
16, 12
11, 7
9, 11
12, 8
11, 13
8, 13
5, 7
9, 13
13, 10
10, 13
8, 13
12, 6
4, 9
4, 4
7, 2
10, 2
7, 6
6, 5
3, 5
9, 11
8, 6
7, 11
4, 4
7, 8
4, 4
5, 5
6, 7
1, 6
5, 4
2, 2
3, 2
5, 4
3, 4
5, 2
2, 2
1, 2
2, 5
1, 3
1, 1
2, 2
2, 2
3, 4
1, 2
4, 3
3, 1
0, 3
6, 0
2, 2
2, 1
0, 1
1, 1
3, 0
4, 0
1, 3
0, 1
3, 5
3, 1
0, 1
1, 1
2, 1
1, 1
1, 1
2, 3
0, 2
0, 0
1, 1
0, 1
2, 0
1, 2
1, 1
2, 1
0, 1
2, 0
0, 0
0, 1
4, 1
1, 0
1, 2
1, 1
1, 0
0, 0
0, 0
0, 0
1, 0
2, 0
1, 1
0, 0
1, 0
0, 0
0, 1
0, 0
0, 0
0, 2
0, 1
0, 0
0, 0
0, 0
0, 0
0, 0
1, 0
0, 0
1, 0
0, 0
0, 0
1, 0
0, 1
0, 0
0, 0
0, 0
0, 0
0, 0
1, 0
0, 0
0, 0
0, 0
0, 0
0, 0
0, 0
0, 0
0, 0
0, 0
0, 0
0, 0
0, 0
0, 0
0, 0
0, 0
0, 0
0, 0
0, 0
0, 0
1, 0
0, 0
0, 0
0, 0
0, 0
0, 0
0, 0
0, 0
0, 0
0, 0
0, 0
0, 0
0, 0
0, 0
0, 0
0, 0
0, 0
0, 0
0, 0
0, 0
0, 0
0, 0
0, 0
0, 0
0, 0
0, 0
0, 0
0, 0
0, 0
0, 0
0, 0
0, 0
0, 0
0, 0
0, 0
0, 0
0, 0
0, 0
0, 0
0, 0
0, 0
0, 0
0, 0
0, 0
0, 0
0, 0
0, 0
0, 0
0, 0
0, 0
0, 0
0, 0
0, 0
0, 0
0, 0
0, 0
0, 0
#ENDOFDATA     end of spectrum data