File: host_upload/11-13-2023/BHVO/ps_0240/ps__0240_0688241128_000rfs_shot_4.msa
#FORMAT      : EMSA/MAS spectral data file
#VERSION     : TC202v2.0 PIXL
#TITLE       : N/A
#DATE        :       Date in the format DD-MMM-YYYY, for example 07-JUL-2010
#TIME        :             The time of day at which the spectrum was recorded, in 24-hour format
#OWNER       : PIXL Flight Model       (PIXL will use this to indicate which instrument took the data.)
#NPOINTS     : 4096     Number of data points in the spectrum (This can be zero for configuration only files)
#NCOLUMNS    : 2     Number of data columns in the spectrum (This can be zero for configuration only files)
#XUNITS      : eV
#YUNITS      : COUNTS
#DATATYPE    : YY
#XPERCHAN    : 7.862, 7.881   eV per channel (separate by commas if more than one detector)
#OFFSET      : 18.5, -22.4         eV of first channel  (separate by commas if more than one detector
#SIGNALTYPE  : XRF
#YP_TEMP     : 0.536
#LIVETIME    : 36.6341, 36.6276   seconds (separate by commas if more than one detector)
#REALTIME    : 40, 40   seconds (separate by commas if more than one detector)
#SPECTRUM    : start of spectrum data
0, 0
0, 0
0, 0
0, 0
0, 0
0, 0
0, 0
0, 0
1, 3
7, 4
11, 15
47, 45
64, 44
222, 191
371, 367
628, 587
3217, 3277
599, 542
70, 78
27, 37
16, 21
70, 70
26, 32
22, 44
176, 245
294, 280
198, 205
100, 90
33, 34
37, 40
150, 151
61, 59
122, 142
1825, 1907
2566, 2328
253, 191
332, 356
353, 341
49, 55
40, 26
247, 251
799, 872
320, 254
75, 53
105, 81
179, 193
87, 69
38, 41
49, 43
65, 72
54, 44
40, 54
51, 39
98, 114
114, 105
74, 71
78, 113
1091, 1385
5084, 5531
2676, 2340
221, 161
56, 53
73, 85
264, 348
772, 827
406, 346
49, 45
36, 28
37, 41
43, 23
26, 34
36, 33
34, 33
42, 23
25, 28
30, 35
19, 28
27, 32
32, 30
29, 42
17, 31
35, 26
26, 31
31, 30
25, 19
16, 15
26, 29
30, 20
26, 21
24, 13
16, 19
13, 21
22, 23
25, 21
10, 16
19, 12
22, 20
19, 26
14, 22
17, 12
16, 22
16, 8
19, 9
10, 17
7, 13
16, 14
20, 11
14, 14
16, 10
20, 13
8, 11
7, 10
8, 12
9, 8
11, 12
18, 12
8, 11
10, 9
9, 6
7, 6
5, 7
8, 8
11, 4
6, 11
10, 5
6, 5
8, 2
5, 3
4, 4
3, 8
4, 8
2, 2
6, 2
5, 4
3, 4
2, 4
5, 5
6, 4
1, 1
3, 4
3, 3
3, 2
4, 7
3, 7
3, 1
1, 1
1, 4
2, 0
1, 3
2, 1
0, 2
2, 4
2, 3
3, 1
0, 4
0, 4
0, 0
3, 1
0, 0
1, 0
0, 1
2, 2
0, 3
2, 1
1, 1
1, 0
0, 2
1, 1
1, 1
0, 3
1, 1
1, 4
1, 1
0, 0
1, 1
2, 1
0, 0
2, 0
0, 0
0, 1
0, 1
0, 2
1, 0
0, 1
1, 2
0, 0
0, 1
0, 0
0, 0
0, 0
0, 0
0, 2
0, 0
0, 0
1, 0
0, 0
0, 0
0, 0
2, 0
0, 1
0, 1
1, 1
0, 0
0, 0
0, 0
0, 0
0, 0
0, 0
2, 0
0, 0
0, 0
0, 0
0, 0
0, 0
0, 0
0, 0
0, 0
0, 0
0, 0
0, 0
0, 0
0, 0
0, 0
0, 1
0, 0
0, 1
0, 0
0, 0
0, 0
0, 0
0, 0
0, 0
0, 0
0, 0
0, 0
0, 0
0, 0
0, 0
0, 0
0, 0
0, 0
0, 0
0, 0
0, 0
0, 0
0, 0
0, 0
0, 0
0, 0
0, 0
0, 0
0, 0
0, 0
0, 0
0, 0
0, 0
0, 0
0, 0
0, 0
0, 0
0, 0
0, 0
0, 0
0, 0
0, 0
0, 0
0, 0
0, 0
0, 0
0, 0
0, 0
0, 0
0, 0
0, 0
0, 0
0, 0
0, 0
0, 0
0, 0
0, 0
0, 0
0, 0
0, 0
0, 0
0, 0
0, 0
0, 0
0, 0
0, 0
0, 0
0, 0
0, 0
0, 0
0, 0
#ENDOFDATA     end of spectrum data