File: host_upload/11-13-2023/BHVO/ps_0240/ps__0240_0688241128_000rfs_shot_13.msa
#FORMAT      : EMSA/MAS spectral data file
#VERSION     : TC202v2.0 PIXL
#TITLE       : N/A
#DATE        :       Date in the format DD-MMM-YYYY, for example 07-JUL-2010
#TIME        :             The time of day at which the spectrum was recorded, in 24-hour format
#OWNER       : PIXL Flight Model       (PIXL will use this to indicate which instrument took the data.)
#NPOINTS     : 4096     Number of data points in the spectrum (This can be zero for configuration only files)
#NCOLUMNS    : 2     Number of data columns in the spectrum (This can be zero for configuration only files)
#XUNITS      : eV
#YUNITS      : COUNTS
#DATATYPE    : YY
#XPERCHAN    : 7.862, 7.881   eV per channel (separate by commas if more than one detector)
#OFFSET      : 18.5, -22.4         eV of first channel  (separate by commas if more than one detector
#SIGNALTYPE  : XRF
#YP_TEMP     : 0.888
#LIVETIME    : 36.6168, 36.616   seconds (separate by commas if more than one detector)
#REALTIME    : 40, 40   seconds (separate by commas if more than one detector)
#SPECTRUM    : start of spectrum data
0, 0
0, 0
0, 0
0, 0
0, 0
0, 0
0, 0
0, 1
1, 5
9, 6
8, 11
53, 46
76, 66
184, 169
378, 371
680, 579
3391, 3478
564, 575
74, 67
38, 24
16, 20
65, 66
30, 34
27, 30
172, 172
281, 258
218, 201
98, 85
48, 39
36, 40
147, 147
91, 89
128, 100
1808, 1892
2555, 2463
281, 241
289, 374
365, 334
38, 58
38, 32
217, 251
754, 810
291, 235
45, 46
105, 105
163, 189
86, 66
44, 43
45, 51
49, 66
53, 56
37, 44
40, 52
107, 81
121, 108
68, 72
90, 109
1122, 1375
4769, 5202
2664, 2223
216, 160
58, 53
68, 66
245, 329
799, 826
391, 376
52, 47
40, 37
24, 41
39, 32
30, 27
36, 29
24, 45
38, 35
43, 48
38, 36
35, 27
23, 28
29, 30
35, 31
24, 24
24, 19
24, 22
20, 27
24, 27
23, 23
28, 20
26, 27
25, 18
18, 24
23, 15
21, 15
18, 20
16, 16
15, 19
20, 18
13, 15
25, 16
15, 12
15, 12
18, 16
14, 16
15, 12
12, 13
14, 11
11, 15
7, 10
19, 12
11, 7
16, 8
8, 13
11, 10
9, 7
16, 5
12, 9
10, 14
13, 11
12, 8
6, 6
10, 13
4, 5
4, 6
6, 9
5, 7
5, 11
3, 7
3, 4
3, 4
7, 9
5, 6
6, 2
4, 4
5, 3
12, 1
6, 3
4, 4
1, 3
6, 2
4, 2
4, 3
2, 4
2, 6
1, 2
4, 1
5, 1
6, 2
3, 4
2, 1
1, 2
3, 3
1, 2
1, 2
0, 1
4, 0
2, 3
1, 1
2, 0
1, 1
0, 1
3, 1
2, 4
2, 0
0, 0
1, 3
3, 0
1, 0
1, 2
1, 1
3, 1
2, 2
1, 1
2, 2
0, 2
0, 0
1, 0
2, 1
1, 0
1, 1
0, 2
0, 4
0, 1
0, 1
1, 1
2, 0
0, 0
0, 0
1, 1
1, 0
0, 0
1, 1
0, 1
3, 1
0, 0
1, 0
0, 0
0, 0
0, 0
0, 0
0, 0
0, 1
1, 0
0, 0
0, 0
0, 0
0, 0
0, 0
1, 0
0, 0
0, 0
0, 0
0, 0
0, 1
0, 0
0, 0
0, 0
0, 0
0, 0
0, 0
0, 0
1, 0
0, 0
0, 0
0, 0
0, 0
0, 0
0, 0
0, 0
0, 0
0, 0
0, 0
0, 0
0, 0
0, 0
0, 0
0, 0
0, 0
0, 0
0, 0
0, 0
0, 0
0, 0
0, 0
0, 0
0, 0
0, 0
0, 0
0, 0
0, 0
0, 0
0, 0
0, 0
0, 0
0, 0
0, 0
0, 0
0, 0
0, 0
0, 0
0, 0
0, 0
0, 0
0, 0
0, 0
0, 0
0, 0
0, 0
0, 0
0, 0
0, 0
0, 0
0, 0
0, 0
0, 0
0, 0
0, 0
0, 0
0, 0
0, 0
0, 0
0, 0
0, 0
0, 0
0, 0
0, 0
0, 0
0, 0
0, 0
0, 0
0, 0
0, 0
0, 0
0, 0
0, 0
0, 0
#ENDOFDATA     end of spectrum data