File: host_upload/11-13-2023/BHVO/ps_0240/ps__0240_0688241128_000rfs_shot_23.msa
#FORMAT      : EMSA/MAS spectral data file
#VERSION     : TC202v2.0 PIXL
#TITLE       : N/A
#DATE        :       Date in the format DD-MMM-YYYY, for example 07-JUL-2010
#TIME        :             The time of day at which the spectrum was recorded, in 24-hour format
#OWNER       : PIXL Flight Model       (PIXL will use this to indicate which instrument took the data.)
#NPOINTS     : 4096     Number of data points in the spectrum (This can be zero for configuration only files)
#NCOLUMNS    : 2     Number of data columns in the spectrum (This can be zero for configuration only files)
#XUNITS      : eV
#YUNITS      : COUNTS
#DATATYPE    : YY
#XPERCHAN    : 7.862, 7.881   eV per channel (separate by commas if more than one detector)
#OFFSET      : 18.5, -22.4         eV of first channel  (separate by commas if more than one detector
#SIGNALTYPE  : XRF
#YP_TEMP     : 0.888
#LIVETIME    : 36.6359, 36.612   seconds (separate by commas if more than one detector)
#REALTIME    : 40, 40   seconds (separate by commas if more than one detector)
#SPECTRUM    : start of spectrum data
0, 0
0, 0
0, 0
0, 0
0, 0
0, 0
0, 0
2, 1
5, 2
10, 11
11, 18
47, 48
59, 82
217, 189
384, 386
627, 629
3427, 3391
602, 534
91, 67
27, 38
12, 16
70, 79
31, 28
29, 34
198, 212
305, 289
197, 214
85, 102
38, 56
42, 39
145, 142
62, 59
111, 112
1734, 1987
2571, 2502
281, 236
314, 323
350, 338
57, 57
36, 31
225, 270
778, 813
324, 282
47, 68
84, 97
177, 170
84, 76
38, 38
47, 35
60, 51
52, 57
42, 52
42, 48
96, 90
109, 124
61, 59
103, 98
1041, 1395
4824, 5175
2618, 2218
246, 184
45, 45
73, 78
255, 298
766, 816
432, 319
44, 38
39, 45
36, 34
32, 44
30, 35
32, 24
24, 45
41, 34
37, 39
38, 34
32, 28
29, 29
42, 27
28, 22
29, 26
29, 30
20, 34
20, 29
13, 22
15, 25
20, 24
17, 22
28, 30
18, 14
19, 19
22, 19
33, 30
20, 19
25, 12
20, 18
25, 12
12, 13
12, 15
18, 22
20, 18
15, 19
18, 13
11, 16
21, 19
12, 16
9, 6
18, 11
6, 13
12, 11
12, 10
13, 17
14, 7
7, 8
8, 3
7, 9
8, 13
13, 10
2, 8
3, 7
12, 7
4, 10
10, 8
8, 7
5, 8
5, 8
4, 3
6, 4
3, 8
4, 9
5, 5
2, 2
8, 6
3, 6
4, 4
6, 2
3, 2
2, 3
7, 2
2, 2
4, 5
5, 4
6, 1
0, 1
5, 4
2, 3
2, 0
2, 1
8, 2
2, 1
3, 4
2, 2
1, 2
1, 2
2, 2
1, 0
0, 0
0, 0
1, 0
3, 2
2, 1
1, 4
0, 2
4, 0
4, 4
2, 1
3, 4
2, 0
3, 2
2, 1
4, 5
3, 1
1, 3
2, 2
0, 0
1, 1
1, 0
1, 1
0, 1
1, 0
0, 0
0, 0
2, 0
2, 2
1, 1
1, 0
1, 2
0, 0
1, 1
2, 0
0, 0
1, 1
0, 0
0, 0
0, 0
0, 0
0, 1
0, 0
0, 0
0, 0
0, 0
0, 0
0, 0
0, 0
0, 0
0, 0
0, 0
0, 0
0, 0
0, 0
0, 0
1, 0
0, 0
0, 1
1, 0
0, 0
0, 0
0, 1
0, 0
1, 0
1, 0
0, 0
0, 0
0, 0
0, 0
0, 0
0, 0
0, 0
0, 0
0, 0
0, 0
0, 0
0, 0
0, 0
0, 0
0, 0
0, 0
0, 0
0, 0
0, 0
0, 0
0, 0
0, 1
0, 0
0, 0
0, 0
0, 0
0, 0
0, 0
0, 0
0, 0
0, 0
0, 0
0, 0
0, 0
0, 0
0, 0
0, 0
0, 0
0, 0
0, 0
0, 0
0, 0
0, 0
0, 0
0, 0
0, 0
0, 0
0, 0
0, 0
0, 0
0, 0
0, 0
0, 0
0, 0
0, 0
0, 0
0, 0
0, 0
0, 0
0, 0
0, 0
0, 0
0, 0
0, 0
0, 0
0, 0
0, 0
0, 0
0, 0
0, 0
0, 0
0, 0
0, 0
#ENDOFDATA     end of spectrum data