File: host_upload/12-01-2023/Dourbes (shot-by-shot)/upload_4/ps__0257_0689790785_000rfs_shot_3064.msa
#FORMAT      : EMSA/MAS spectral data file
#VERSION     : TC202v2.0 PIXL
#TITLE       : N/A
#DATE        :       Date in the format DD-MMM-YYYY, for example 07-JUL-2010
#TIME        :             The time of day at which the spectrum was recorded, in 24-hour format
#OWNER       : PIXL Flight Model       (PIXL will use this to indicate which instrument took the data.)
#NPOINTS     : 4096     Number of data points in the spectrum (This can be zero for configuration only files)
#NCOLUMNS    : 2     Number of data columns in the spectrum (This can be zero for configuration only files)
#XUNITS      : eV
#YUNITS      : COUNTS
#DATATYPE    : YY
#XPERCHAN    : 7.862, 7.881   eV per channel (separate by commas if more than one detector)
#OFFSET      : 18.5, -22.4         eV of first channel  (separate by commas if more than one detector
#SIGNALTYPE  : XRF
#YP_TEMP     : 3.262
#LIVETIME    : 8.98566, 8.97648   seconds (separate by commas if more than one detector)
#REALTIME    : 10, 10.0   seconds (separate by commas if more than one detector)
#SPECTRUM    : start of spectrum data
0, 0
0, 0
0, 0
0, 0
0, 0
0, 0
0, 0
0, 0
1, 1
0, 3
1, 1
34, 24
36, 24
5, 4
10, 13
72, 60
440, 474
81, 73
3, 8
7, 5
7, 3
17, 23
4, 3
17, 14
51, 90
62, 111
37, 29
19, 13
10, 5
5, 1
10, 9
4, 6
4, 7
48, 48
64, 60
11, 49
9, 30
11, 12
9, 5
3, 11
46, 68
258, 243
107, 88
29, 19
14, 17
46, 42
22, 21
6, 61
40, 65
251, 240
171, 153
13, 20
13, 25
78, 90
118, 118
31, 33
27, 42
556, 747
3114, 3508
2127, 1837
154, 151
56, 23
61, 24
136, 160
500, 557
292, 246
27, 20
5, 7
4, 11
6, 2
0, 5
3, 5
7, 10
10, 3
9, 7
10, 5
10, 6
4, 5
3, 8
5, 12
9, 5
4, 2
3, 4
5, 3
5, 3
3, 4
3, 8
5, 2
4, 1
0, 6
4, 3
3, 4
5, 4
9, 2
2, 7
3, 3
2, 3
0, 1
2, 3
2, 0
6, 4
3, 1
1, 2
4, 6
1, 2
1, 2
1, 6
1, 1
0, 1
1, 3
2, 4
2, 2
1, 6
1, 1
2, 2
2, 9
6, 10
4, 7
1, 1
2, 3
0, 0
1, 1
4, 2
2, 1
2, 2
1, 0
1, 0
0, 2
1, 1
1, 1
1, 0
0, 2
0, 1
2, 1
2, 0
0, 1
1, 0
0, 0
1, 3
0, 0
1, 1
2, 0
1, 0
0, 0
0, 1
0, 0
2, 1
0, 0
1, 0
2, 0
1, 1
0, 1
0, 3
0, 0
0, 0
0, 0
1, 2
0, 0
1, 0
1, 0
0, 0
0, 1
0, 1
0, 0
0, 0
0, 0
0, 0
0, 0
0, 0
0, 0
0, 0
0, 0
0, 0
0, 1
0, 0
0, 0
0, 0
1, 2
0, 0
0, 0
0, 0
0, 0
0, 0
0, 0
0, 1
0, 0
0, 0
0, 0
0, 0
0, 0
0, 0
0, 0
0, 0
0, 0
0, 0
0, 0
0, 1
0, 0
0, 0
0, 0
0, 0
0, 0
0, 0
0, 0
0, 0
0, 0
0, 0
0, 1
0, 0
0, 0
0, 0
0, 0
0, 0
0, 0
0, 0
0, 0
0, 0
0, 0
0, 0
0, 0
0, 0
0, 0
0, 0
0, 0
0, 0
0, 0
0, 0
0, 0
0, 0
0, 0
0, 0
0, 0
0, 0
0, 0
0, 0
0, 0
0, 0
0, 0
0, 0
0, 0
0, 0
0, 0
0, 0
0, 0
0, 0
0, 0
0, 0
0, 0
0, 0
0, 0
0, 0
0, 0
0, 0
0, 0
0, 0
0, 0
0, 0
0, 0
0, 0
0, 0
0, 0
0, 0
0, 0
0, 0
0, 0
0, 0
0, 0
0, 0
0, 0
0, 0
0, 0
0, 0
0, 0
0, 0
0, 0
0, 0
0, 0
0, 0
0, 0
0, 0
0, 0
0, 0
0, 0
0, 0
0, 0
0, 0
0, 0
0, 0
0, 0
0, 0
0, 0
0, 0
0, 0
0, 0
#ENDOFDATA     end of spectrum data