File: host_upload/12-01-2023/Dourbes (shot-by-shot)/upload_4/ps__0257_0689790785_000rfs_shot_3019.msa
#FORMAT      : EMSA/MAS spectral data file
#VERSION     : TC202v2.0 PIXL
#TITLE       : N/A
#DATE        :       Date in the format DD-MMM-YYYY, for example 07-JUL-2010
#TIME        :             The time of day at which the spectrum was recorded, in 24-hour format
#OWNER       : PIXL Flight Model       (PIXL will use this to indicate which instrument took the data.)
#NPOINTS     : 4096     Number of data points in the spectrum (This can be zero for configuration only files)
#NCOLUMNS    : 2     Number of data columns in the spectrum (This can be zero for configuration only files)
#XUNITS      : eV
#YUNITS      : COUNTS
#DATATYPE    : YY
#XPERCHAN    : 7.862, 7.881   eV per channel (separate by commas if more than one detector)
#OFFSET      : 18.5, -22.4         eV of first channel  (separate by commas if more than one detector
#SIGNALTYPE  : XRF
#YP_TEMP     : 2.909
#LIVETIME    : 9.01165, 8.99202   seconds (separate by commas if more than one detector)
#REALTIME    : 10, 10.0   seconds (separate by commas if more than one detector)
#SPECTRUM    : start of spectrum data
0, 0
0, 0
0, 0
0, 0
0, 0
0, 0
0, 0
0, 1
0, 0
1, 0
1, 0
24, 36
34, 38
3, 2
3, 4
75, 77
531, 491
76, 61
3, 7
2, 4
29, 2
63, 11
5, 6
5, 4
29, 21
24, 28
15, 14
11, 12
3, 6
4, 1
1, 1
3, 5
0, 3
19, 26
25, 44
1, 14
9, 5
7, 5
4, 3
2, 4
4, 6
10, 8
17, 13
16, 20
9, 6
5, 5
6, 12
9, 7
6, 19
13, 86
19, 170
10, 61
12, 14
65, 72
104, 105
26, 21
34, 34
590, 799
3444, 3940
2203, 2004
184, 128
36, 18
35, 15
132, 173
525, 558
287, 280
26, 20
5, 3
6, 5
9, 5
1, 6
6, 2
5, 3
3, 7
5, 4
1, 3
1, 3
1, 4
4, 2
7, 3
5, 18
6, 12
8, 5
5, 7
1, 5
3, 3
3, 7
1, 5
1, 1
0, 1
1, 5
2, 1
3, 5
3, 2
1, 3
3, 1
2, 3
2, 2
2, 6
1, 11
2, 13
3, 8
2, 3
3, 3
3, 0
2, 0
3, 1
1, 0
3, 3
0, 2
1, 2
1, 3
2, 6
1, 1
1, 1
2, 5
9, 4
10, 3
1, 0
0, 0
0, 2
2, 3
4, 2
0, 3
1, 0
1, 2
2, 1
0, 2
0, 1
0, 3
0, 0
0, 0
1, 3
0, 2
1, 1
0, 0
1, 0
1, 2
0, 1
0, 3
1, 1
0, 0
1, 0
0, 0
1, 0
1, 1
0, 2
0, 1
1, 0
1, 0
0, 1
3, 0
0, 0
0, 0
1, 0
0, 0
0, 2
0, 0
0, 0
1, 0
0, 0
0, 0
0, 0
1, 0
0, 0
0, 0
0, 0
0, 1
0, 1
0, 0
0, 0
0, 0
0, 0
1, 0
1, 1
0, 0
0, 0
0, 1
0, 1
0, 0
0, 1
0, 0
0, 0
0, 0
0, 0
0, 0
0, 0
0, 0
0, 0
0, 0
0, 0
0, 0
0, 0
0, 0
1, 0
0, 0
0, 0
0, 0
0, 0
0, 0
0, 0
0, 0
0, 0
0, 0
0, 0
0, 0
0, 0
0, 0
0, 0
0, 0
0, 0
0, 0
0, 0
0, 0
0, 1
0, 0
0, 0
0, 0
0, 0
0, 0
0, 0
0, 0
0, 0
0, 0
0, 0
0, 0
0, 0
0, 1
0, 0
0, 0
0, 0
0, 0
0, 0
0, 0
0, 0
0, 0
0, 0
0, 0
0, 0
0, 0
0, 0
0, 0
0, 0
0, 0
0, 0
0, 0
0, 0
0, 0
0, 0
0, 0
0, 0
0, 0
0, 0
0, 0
0, 0
0, 0
0, 0
0, 0
0, 0
0, 0
0, 0
0, 0
0, 0
0, 0
0, 0
0, 0
0, 0
0, 0
0, 0
0, 0
0, 0
0, 0
0, 0
0, 0
0, 0
0, 0
0, 0
0, 0
0, 0
0, 0
0, 0
0, 0
0, 0
0, 0
0, 0
0, 0
0, 0
0, 0
0, 0
0, 0
0, 0
0, 0
0, 0
0, 0
#ENDOFDATA     end of spectrum data