File: host_upload/12-01-2023/Dourbes (shot-by-shot)/upload_4/ps__0257_0689790785_000rfs_shot_3163.msa
#FORMAT      : EMSA/MAS spectral data file
#VERSION     : TC202v2.0 PIXL
#TITLE       : N/A
#DATE        :       Date in the format DD-MMM-YYYY, for example 07-JUL-2010
#TIME        :             The time of day at which the spectrum was recorded, in 24-hour format
#OWNER       : PIXL Flight Model       (PIXL will use this to indicate which instrument took the data.)
#NPOINTS     : 4096     Number of data points in the spectrum (This can be zero for configuration only files)
#NCOLUMNS    : 2     Number of data columns in the spectrum (This can be zero for configuration only files)
#XUNITS      : eV
#YUNITS      : COUNTS
#DATATYPE    : YY
#XPERCHAN    : 7.862, 7.881   eV per channel (separate by commas if more than one detector)
#OFFSET      : 18.5, -22.4         eV of first channel  (separate by commas if more than one detector
#SIGNALTYPE  : XRF
#YP_TEMP     : 3.101
#LIVETIME    : 8.97654, 8.99933   seconds (separate by commas if more than one detector)
#REALTIME    : 10, 10.0   seconds (separate by commas if more than one detector)
#SPECTRUM    : start of spectrum data
0, 0
0, 0
0, 0
0, 0
0, 0
0, 0
0, 0
0, 0
0, 2
2, 2
1, 2
38, 14
45, 29
6, 5
3, 9
82, 64
525, 444
98, 64
5, 3
0, 3
1, 3
5, 11
6, 10
22, 19
56, 65
74, 76
34, 36
18, 13
4, 4
5, 3
6, 7
2, 4
7, 13
46, 37
32, 37
12, 7
17, 13
10, 8
12, 13
10, 8
17, 20
42, 43
34, 35
23, 17
11, 9
23, 19
9, 17
15, 9
24, 14
31, 41
28, 27
11, 11
18, 23
59, 59
111, 75
38, 24
41, 40
735, 747
3788, 3591
2365, 1793
223, 130
32, 28
37, 34
150, 143
551, 558
342, 241
21, 14
7, 8
11, 11
7, 4
5, 0
0, 4
5, 4
4, 2
2, 7
6, 7
7, 6
4, 4
3, 4
3, 2
3, 4
2, 4
3, 3
3, 3
7, 9
8, 2
5, 4
8, 2
8, 5
2, 2
5, 3
4, 1
3, 1
1, 4
0, 2
4, 3
3, 4
2, 2
3, 2
5, 1
1, 2
1, 1
3, 1
2, 1
5, 0
1, 4
1, 2
2, 3
3, 3
0, 1
0, 1
4, 2
1, 1
1, 1
1, 2
7, 6
10, 4
6, 1
0, 2
1, 3
1, 1
5, 0
3, 1
1, 3
0, 2
0, 1
1, 2
0, 0
2, 2
0, 2
0, 1
1, 0
0, 0
0, 1
1, 0
1, 1
2, 2
0, 1
0, 0
1, 0
0, 1
0, 0
0, 0
1, 0
0, 1
0, 1
0, 0
0, 0
0, 0
0, 1
0, 0
2, 0
0, 2
1, 1
0, 0
2, 0
0, 0
0, 0
0, 0
0, 0
0, 0
0, 0
0, 1
0, 0
0, 0
0, 0
0, 0
0, 0
0, 0
0, 0
1, 0
0, 0
0, 0
0, 1
0, 1
0, 0
0, 0
1, 0
0, 0
0, 1
0, 0
0, 0
0, 0
1, 0
0, 0
0, 0
0, 0
0, 0
0, 0
0, 0
0, 0
0, 1
0, 0
0, 0
0, 1
0, 0
0, 0
0, 0
0, 0
0, 0
0, 0
0, 0
0, 0
0, 0
0, 0
0, 0
0, 0
0, 0
0, 0
0, 0
0, 0
0, 0
0, 0
0, 0
0, 0
0, 0
0, 0
0, 0
0, 0
0, 0
0, 0
0, 0
0, 0
0, 0
0, 0
0, 0
0, 0
0, 0
0, 0
0, 0
0, 0
0, 0
0, 0
0, 0
0, 0
0, 0
0, 0
0, 0
0, 0
0, 0
0, 0
0, 0
0, 0
0, 0
0, 0
0, 0
0, 0
0, 0
0, 0
0, 0
0, 0
0, 0
0, 0
0, 0
0, 0
0, 0
0, 0
0, 0
0, 0
0, 0
0, 0
0, 0
0, 0
0, 0
0, 0
0, 0
0, 0
0, 0
0, 0
0, 0
0, 0
0, 0
0, 0
0, 0
0, 0
0, 0
0, 0
0, 0
0, 0
0, 0
0, 0
0, 0
0, 0
0, 0
0, 0
0, 0
0, 0
0, 0
0, 0
0, 0
0, 0
0, 0
0, 0
0, 0
#ENDOFDATA     end of spectrum data