File: host_upload/12-01-2023/Dourbes (shot-by-shot)/upload_4/ps__0257_0689790785_000rfs_shot_3014.msa
#FORMAT      : EMSA/MAS spectral data file
#VERSION     : TC202v2.0 PIXL
#TITLE       : N/A
#DATE        :       Date in the format DD-MMM-YYYY, for example 07-JUL-2010
#TIME        :             The time of day at which the spectrum was recorded, in 24-hour format
#OWNER       : PIXL Flight Model       (PIXL will use this to indicate which instrument took the data.)
#NPOINTS     : 4096     Number of data points in the spectrum (This can be zero for configuration only files)
#NCOLUMNS    : 2     Number of data columns in the spectrum (This can be zero for configuration only files)
#XUNITS      : eV
#YUNITS      : COUNTS
#DATATYPE    : YY
#XPERCHAN    : 7.862, 7.881   eV per channel (separate by commas if more than one detector)
#OFFSET      : 18.5, -22.4         eV of first channel  (separate by commas if more than one detector
#SIGNALTYPE  : XRF
#YP_TEMP     : 3.005
#LIVETIME    : 9.0073, 9.00256   seconds (separate by commas if more than one detector)
#REALTIME    : 10, 10.0   seconds (separate by commas if more than one detector)
#SPECTRUM    : start of spectrum data
0, 0
0, 0
0, 0
0, 0
0, 0
0, 0
0, 0
0, 0
1, 0
0, 1
1, 0
36, 33
45, 38
0, 4
3, 4
65, 73
481, 454
91, 67
6, 7
5, 3
57, 1
79, 8
5, 5
6, 2
12, 20
25, 28
14, 25
11, 8
3, 6
3, 1
4, 0
3, 1
1, 2
18, 20
22, 91
2, 28
6, 8
2, 7
4, 5
2, 3
2, 5
10, 9
21, 20
12, 10
2, 13
10, 4
8, 2
12, 4
9, 11
17, 105
11, 124
9, 41
11, 11
56, 68
91, 103
27, 28
30, 38
620, 744
3558, 3775
2302, 2010
172, 122
40, 13
29, 25
116, 156
522, 516
278, 239
26, 14
4, 8
9, 14
8, 3
3, 5
1, 2
2, 2
5, 6
9, 6
4, 0
2, 1
2, 6
5, 2
4, 4
1, 14
6, 13
4, 2
5, 2
4, 7
1, 3
2, 2
5, 6
3, 3
3, 1
4, 2
1, 0
3, 3
2, 4
3, 1
0, 5
3, 5
3, 2
0, 7
4, 13
2, 9
10, 2
6, 1
2, 2
2, 0
2, 3
1, 1
1, 3
1, 4
2, 3
2, 4
2, 3
2, 3
2, 2
1, 3
2, 4
11, 4
5, 7
2, 2
0, 1
0, 1
0, 2
2, 1
4, 4
0, 1
1, 1
1, 0
2, 2
1, 1
1, 0
0, 0
1, 1
1, 1
1, 0
0, 0
0, 0
0, 2
1, 0
0, 1
0, 0
0, 0
2, 0
0, 0
0, 1
0, 2
0, 1
1, 4
1, 0
1, 0
1, 0
1, 0
0, 0
0, 1
0, 0
0, 0
1, 0
1, 1
0, 0
0, 0
0, 0
0, 0
1, 0
0, 0
0, 0
0, 0
0, 0
0, 0
1, 0
2, 0
0, 0
0, 1
0, 2
1, 0
0, 0
0, 0
0, 0
0, 0
0, 0
1, 0
0, 0
0, 0
0, 0
1, 0
0, 1
1, 0
0, 0
0, 0
0, 0
0, 0
0, 0
0, 0
0, 0
0, 0
0, 0
0, 0
0, 0
0, 0
0, 0
0, 0
0, 0
0, 0
0, 0
1, 0
0, 0
0, 0
0, 1
0, 0
0, 0
0, 0
0, 0
0, 0
0, 1
0, 0
0, 0
0, 0
0, 0
0, 0
0, 0
0, 0
0, 0
0, 0
0, 0
0, 0
0, 0
0, 0
0, 0
0, 0
0, 0
0, 0
0, 0
0, 0
0, 0
0, 0
0, 0
0, 0
0, 0
0, 0
0, 0
0, 0
0, 0
0, 0
0, 0
0, 0
0, 0
0, 0
0, 0
0, 0
0, 0
0, 0
0, 0
0, 0
0, 0
0, 0
0, 0
0, 0
0, 0
0, 0
0, 0
0, 0
0, 0
0, 0
0, 0
0, 0
0, 0
0, 0
0, 0
0, 0
0, 0
0, 0
0, 0
0, 0
0, 0
0, 0
0, 0
0, 0
0, 0
0, 0
0, 0
0, 0
0, 0
0, 0
0, 0
0, 0
0, 0
0, 0
0, 0
0, 0
0, 0
0, 0
0, 0
0, 0
0, 0
0, 0
0, 0
#ENDOFDATA     end of spectrum data