File: host_upload/12-01-2023/Dourbes (shot-by-shot)/upload_4/ps__0257_0689790785_000rfs_shot_3238.msa
#FORMAT      : EMSA/MAS spectral data file
#VERSION     : TC202v2.0 PIXL
#TITLE       : N/A
#DATE        :       Date in the format DD-MMM-YYYY, for example 07-JUL-2010
#TIME        :             The time of day at which the spectrum was recorded, in 24-hour format
#OWNER       : PIXL Flight Model       (PIXL will use this to indicate which instrument took the data.)
#NPOINTS     : 4096     Number of data points in the spectrum (This can be zero for configuration only files)
#NCOLUMNS    : 2     Number of data columns in the spectrum (This can be zero for configuration only files)
#XUNITS      : eV
#YUNITS      : COUNTS
#DATATYPE    : YY
#XPERCHAN    : 7.862, 7.881   eV per channel (separate by commas if more than one detector)
#OFFSET      : 18.5, -22.4         eV of first channel  (separate by commas if more than one detector
#SIGNALTYPE  : XRF
#YP_TEMP     : 3.133
#LIVETIME    : 8.99344, 8.98118   seconds (separate by commas if more than one detector)
#REALTIME    : 10, 10.0   seconds (separate by commas if more than one detector)
#SPECTRUM    : start of spectrum data
0, 0
0, 0
0, 0
0, 0
0, 0
0, 0
0, 0
0, 0
2, 2
3, 0
1, 3
19, 23
43, 52
3, 3
5, 3
8, 10
50, 67
4, 11
6, 6
4, 0
4, 3
20, 17
8, 6
12, 23
134, 239
168, 274
45, 49
36, 37
12, 17
9, 9
9, 10
4, 2
8, 14
162, 151
215, 201
21, 10
29, 26
35, 36
20, 14
7, 5
13, 14
21, 11
42, 30
47, 22
16, 16
13, 14
10, 9
21, 19
9, 14
9, 23
15, 16
21, 12
17, 18
71, 101
124, 122
31, 29
38, 36
649, 749
3604, 3777
2260, 1908
195, 93
28, 27
40, 30
145, 201
526, 507
316, 280
22, 12
10, 3
9, 7
4, 4
5, 3
11, 7
9, 5
5, 4
9, 5
4, 4
8, 4
10, 6
6, 2
6, 6
5, 4
4, 4
3, 5
4, 5
5, 7
3, 4
8, 9
5, 1
11, 5
3, 5
5, 1
5, 3
4, 9
3, 4
4, 1
4, 6
2, 1
3, 4
5, 2
5, 1
2, 4
5, 3
3, 6
5, 2
1, 4
3, 3
3, 2
4, 0
0, 1
1, 2
3, 4
3, 1
1, 2
2, 1
1, 3
4, 6
5, 9
4, 4
4, 2
0, 4
4, 1
2, 2
2, 4
3, 2
1, 2
6, 0
2, 2
1, 2
3, 2
2, 2
3, 0
3, 0
1, 0
1, 1
0, 0
1, 1
0, 0
1, 1
0, 1
0, 1
0, 0
1, 0
0, 2
0, 0
0, 0
0, 0
1, 1
0, 0
0, 1
1, 0
0, 0
0, 1
0, 1
0, 0
0, 0
1, 1
0, 0
0, 0
1, 0
0, 0
1, 0
0, 0
1, 0
0, 0
0, 2
0, 0
1, 0
0, 0
1, 0
0, 0
0, 0
0, 1
0, 1
0, 0
0, 0
0, 0
0, 0
0, 0
0, 0
1, 0
2, 0
0, 0
0, 0
0, 1
0, 2
0, 0
0, 0
0, 0
0, 0
0, 0
0, 0
0, 0
0, 0
0, 0
0, 0
1, 0
0, 0
0, 0
0, 0
0, 0
0, 0
0, 0
0, 0
1, 0
0, 0
0, 0
0, 0
0, 0
0, 0
0, 0
0, 0
0, 0
0, 0
0, 0
0, 0
0, 0
0, 0
0, 0
0, 0
0, 0
0, 0
0, 0
0, 0
0, 0
0, 0
0, 0
0, 0
0, 0
0, 0
0, 0
0, 0
0, 0
0, 0
0, 0
0, 0
0, 0
0, 0
0, 0
0, 0
0, 0
0, 0
0, 0
0, 0
0, 0
0, 0
0, 0
0, 0
0, 0
0, 0
0, 0
0, 0
0, 0
0, 0
0, 0
0, 0
0, 0
0, 0
0, 0
0, 0
0, 0
0, 0
0, 0
0, 0
0, 0
0, 0
0, 0
0, 0
0, 0
0, 0
0, 0
0, 0
0, 0
0, 0
0, 0
0, 0
0, 0
0, 0
0, 0
0, 0
0, 0
0, 0
0, 0
0, 0
0, 0
0, 0
0, 0
0, 0
0, 0
0, 0
0, 0
0, 0
0, 0
0, 0
0, 0
#ENDOFDATA     end of spectrum data