File: host_upload/12-01-2023/Dourbes (shot-by-shot)/upload_4/ps__0257_0689790785_000rfs_shot_3146.msa
#FORMAT      : EMSA/MAS spectral data file
#VERSION     : TC202v2.0 PIXL
#TITLE       : N/A
#DATE        :       Date in the format DD-MMM-YYYY, for example 07-JUL-2010
#TIME        :             The time of day at which the spectrum was recorded, in 24-hour format
#OWNER       : PIXL Flight Model       (PIXL will use this to indicate which instrument took the data.)
#NPOINTS     : 4096     Number of data points in the spectrum (This can be zero for configuration only files)
#NCOLUMNS    : 2     Number of data columns in the spectrum (This can be zero for configuration only files)
#XUNITS      : eV
#YUNITS      : COUNTS
#DATATYPE    : YY
#XPERCHAN    : 7.862, 7.881   eV per channel (separate by commas if more than one detector)
#OFFSET      : 18.5, -22.4         eV of first channel  (separate by commas if more than one detector
#SIGNALTYPE  : XRF
#YP_TEMP     : 3.262
#LIVETIME    : 9.13077, 9.1488   seconds (separate by commas if more than one detector)
#REALTIME    : 10, 10.0   seconds (separate by commas if more than one detector)
#SPECTRUM    : start of spectrum data
0, 0
0, 0
0, 0
0, 0
0, 0
0, 0
0, 0
0, 0
0, 0
0, 2
3, 3
23, 15
30, 34
4, 5
10, 8
151, 114
907, 807
144, 140
22, 19
4, 1
3, 3
3, 0
4, 3
5, 5
21, 32
27, 23
25, 20
16, 16
5, 6
9, 5
4, 3
4, 1
19, 34
647, 632
1059, 921
102, 82
102, 98
158, 123
15, 15
2, 4
5, 10
16, 24
14, 12
9, 9
7, 9
10, 4
9, 4
3, 7
10, 16
51, 51
39, 22
7, 5
9, 9
30, 34
56, 43
19, 14
14, 30
210, 228
1167, 1087
723, 629
95, 45
3, 11
6, 10
50, 81
198, 218
112, 106
12, 23
24, 6
56, 7
23, 5
7, 4
4, 6
4, 3
5, 4
9, 6
9, 5
8, 12
2, 12
6, 6
9, 6
7, 7
5, 6
5, 4
5, 10
5, 7
3, 2
2, 5
2, 11
6, 8
6, 10
4, 9
7, 7
2, 4
4, 7
5, 1
1, 2
5, 5
6, 2
3, 3
5, 0
4, 4
2, 4
3, 5
0, 4
1, 5
1, 6
2, 9
1, 2
2, 3
1, 1
2, 3
5, 3
2, 1
3, 4
1, 1
3, 2
0, 4
2, 1
0, 1
0, 3
2, 1
3, 1
2, 0
1, 3
0, 1
5, 2
1, 0
2, 1
0, 0
1, 2
1, 2
0, 1
1, 0
1, 0
0, 3
2, 2
3, 0
0, 1
1, 0
2, 1
0, 0
0, 0
1, 0
1, 1
0, 0
1, 0
0, 0
1, 0
1, 1
0, 0
1, 1
1, 0
0, 0
0, 0
1, 0
0, 1
0, 0
0, 1
0, 0
0, 0
0, 1
0, 0
0, 0
0, 0
0, 0
0, 1
0, 1
0, 0
0, 0
0, 2
0, 0
1, 0
0, 1
0, 1
0, 0
0, 0
0, 0
0, 0
0, 0
0, 0
0, 0
0, 0
0, 0
0, 0
0, 0
0, 0
0, 0
0, 0
0, 0
0, 0
0, 0
0, 0
0, 0
0, 0
0, 0
0, 0
0, 0
1, 0
0, 0
0, 0
0, 0
0, 0
0, 0
0, 0
0, 0
0, 0
0, 0
0, 0
0, 0
0, 0
0, 0
0, 0
0, 0
0, 0
0, 0
0, 0
0, 0
0, 0
0, 0
0, 0
0, 0
0, 0
0, 0
0, 0
0, 0
0, 0
0, 0
0, 0
0, 0
0, 0
0, 0
0, 0
0, 0
0, 0
0, 0
0, 0
0, 0
0, 0
0, 0
0, 0
0, 0
0, 0
0, 0
0, 0
0, 0
0, 0
0, 0
0, 0
0, 0
0, 0
0, 0
0, 0
0, 0
0, 0
0, 0
0, 0
0, 0
0, 0
0, 0
0, 0
0, 0
0, 0
0, 0
0, 0
0, 0
0, 0
0, 0
0, 0
0, 0
0, 0
0, 0
0, 0
0, 0
0, 0
0, 0
0, 0
0, 0
0, 0
0, 0
0, 0
0, 0
0, 0
0, 0
0, 0
0, 0
0, 0
0, 0
0, 0
0, 0
0, 0
0, 0
0, 0
0, 0
0, 0
#ENDOFDATA     end of spectrum data