File: host_upload/12-01-2023/Dourbes (shot-by-shot)/upload_4/ps__0257_0689790785_000rfs_shot_3243.msa
#FORMAT      : EMSA/MAS spectral data file
#VERSION     : TC202v2.0 PIXL
#TITLE       : N/A
#DATE        :       Date in the format DD-MMM-YYYY, for example 07-JUL-2010
#TIME        :             The time of day at which the spectrum was recorded, in 24-hour format
#OWNER       : PIXL Flight Model       (PIXL will use this to indicate which instrument took the data.)
#NPOINTS     : 4096     Number of data points in the spectrum (This can be zero for configuration only files)
#NCOLUMNS    : 2     Number of data columns in the spectrum (This can be zero for configuration only files)
#XUNITS      : eV
#YUNITS      : COUNTS
#DATATYPE    : YY
#XPERCHAN    : 7.862, 7.881   eV per channel (separate by commas if more than one detector)
#OFFSET      : 18.5, -22.4         eV of first channel  (separate by commas if more than one detector
#SIGNALTYPE  : XRF
#YP_TEMP     : 2.781
#LIVETIME    : 9.05926, 9.07451   seconds (separate by commas if more than one detector)
#REALTIME    : 10, 10.0   seconds (separate by commas if more than one detector)
#SPECTRUM    : start of spectrum data
0, 0
0, 0
0, 0
0, 0
0, 0
0, 0
0, 0
0, 1
1, 1
2, 2
0, 1
18, 17
34, 27
2, 7
11, 7
158, 144
1001, 840
160, 135
5, 5
4, 1
18, 7
76, 49
28, 15
27, 28
123, 129
115, 98
47, 36
25, 22
8, 5
4, 4
9, 8
4, 7
4, 4
26, 23
48, 42
8, 9
4, 14
15, 9
9, 5
6, 4
5, 9
20, 18
19, 22
18, 20
17, 10
11, 8
9, 11
11, 10
10, 14
16, 18
16, 22
11, 12
20, 12
64, 42
85, 44
37, 15
30, 23
515, 498
2746, 2427
1724, 1183
125, 107
20, 11
32, 29
135, 130
413, 386
232, 188
18, 21
8, 9
8, 6
7, 3
5, 6
8, 5
9, 5
7, 5
14, 5
5, 7
9, 6
8, 5
9, 9
12, 13
6, 1
0, 4
6, 7
7, 6
8, 8
3, 7
6, 3
6, 4
10, 3
8, 5
3, 2
5, 7
7, 9
4, 4
5, 3
4, 3
5, 6
10, 2
0, 1
3, 4
3, 5
4, 3
1, 2
4, 4
1, 3
5, 3
1, 5
2, 2
4, 1
3, 0
2, 3
2, 3
4, 1
4, 1
3, 5
3, 2
2, 3
4, 2
0, 0
2, 1
2, 3
1, 2
2, 1
2, 2
2, 2
0, 1
3, 0
1, 2
1, 2
1, 1
1, 2
0, 0
0, 2
1, 1
1, 0
0, 1
1, 2
2, 1
0, 0
0, 0
0, 0
0, 1
2, 0
0, 0
0, 1
1, 3
0, 1
2, 0
1, 2
1, 1
0, 0
1, 0
1, 0
0, 0
0, 0
0, 1
0, 0
0, 2
1, 0
0, 1
0, 0
1, 0
0, 0
0, 0
1, 0
0, 0
1, 0
1, 1
0, 1
0, 0
0, 1
0, 0
0, 0
0, 0
0, 1
0, 0
0, 0
0, 0
0, 0
0, 1
0, 0
0, 0
1, 0
0, 1
1, 0
0, 0
0, 0
0, 0
0, 0
1, 0
0, 0
0, 0
0, 1
0, 0
0, 0
0, 0
0, 0
0, 0
0, 0
0, 0
0, 0
0, 0
0, 0
0, 0
0, 0
0, 0
0, 0
0, 0
0, 0
0, 0
0, 0
0, 0
0, 0
0, 0
0, 0
1, 0
0, 0
0, 0
0, 0
0, 0
0, 0
0, 0
0, 0
0, 0
0, 0
0, 0
0, 0
0, 0
0, 0
0, 0
0, 0
0, 0
0, 0
0, 0
0, 0
0, 0
0, 0
0, 0
0, 0
0, 0
0, 0
0, 0
0, 0
0, 0
0, 0
0, 0
0, 0
0, 0
0, 0
0, 0
0, 0
0, 0
0, 0
0, 0
0, 0
0, 0
0, 0
0, 0
0, 0
0, 0
0, 0
0, 0
0, 0
0, 0
0, 0
0, 0
0, 0
0, 0
0, 0
0, 0
0, 0
0, 0
0, 0
0, 0
0, 0
0, 0
0, 0
0, 0
0, 0
0, 0
0, 0
0, 0
0, 0
0, 0
0, 0
0, 0
0, 0
0, 0
0, 0
0, 0
0, 0
0, 0
0, 0
0, 0
#ENDOFDATA     end of spectrum data