File: host_upload/12-01-2023/Dourbes (shot-by-shot)/upload_4/ps__0257_0689790785_000rfs_shot_3092.msa
#FORMAT      : EMSA/MAS spectral data file
#VERSION     : TC202v2.0 PIXL
#TITLE       : N/A
#DATE        :       Date in the format DD-MMM-YYYY, for example 07-JUL-2010
#TIME        :             The time of day at which the spectrum was recorded, in 24-hour format
#OWNER       : PIXL Flight Model       (PIXL will use this to indicate which instrument took the data.)
#NPOINTS     : 4096     Number of data points in the spectrum (This can be zero for configuration only files)
#NCOLUMNS    : 2     Number of data columns in the spectrum (This can be zero for configuration only files)
#XUNITS      : eV
#YUNITS      : COUNTS
#DATATYPE    : YY
#XPERCHAN    : 7.862, 7.881   eV per channel (separate by commas if more than one detector)
#OFFSET      : 18.5, -22.4         eV of first channel  (separate by commas if more than one detector
#SIGNALTYPE  : XRF
#YP_TEMP     : 2.941
#LIVETIME    : 9.00764, 9.00591   seconds (separate by commas if more than one detector)
#REALTIME    : 10, 10.0   seconds (separate by commas if more than one detector)
#SPECTRUM    : start of spectrum data
0, 0
0, 0
0, 0
0, 0
0, 0
0, 0
0, 0
0, 0
1, 0
3, 2
0, 1
30, 19
40, 37
4, 2
4, 4
78, 81
498, 486
84, 81
8, 8
2, 1
0, 1
8, 3
1, 5
7, 8
20, 19
22, 23
27, 18
15, 11
2, 5
2, 1
3, 2
1, 1
5, 3
13, 18
26, 30
13, 24
62, 28
32, 13
2, 5
2, 2
5, 6
12, 14
22, 16
11, 12
11, 12
5, 25
10, 14
11, 9
8, 10
10, 11
18, 10
10, 6
13, 10
52, 59
99, 85
29, 14
27, 33
693, 733
3514, 3748
2238, 1891
157, 127
7, 14
14, 29
155, 163
531, 558
286, 260
19, 17
4, 7
6, 9
2, 4
4, 4
2, 14
6, 6
6, 5
2, 7
4, 3
2, 4
3, 8
3, 5
6, 4
6, 8
0, 7
3, 5
1, 4
2, 4
3, 5
7, 3
4, 2
5, 4
6, 3
0, 5
2, 6
2, 3
14, 1
8, 1
3, 1
4, 3
2, 3
1, 4
3, 3
6, 4
2, 5
4, 0
0, 2
1, 0
2, 0
2, 2
3, 2
1, 1
6, 1
0, 0
1, 4
3, 2
0, 1
3, 2
4, 3
6, 6
4, 10
1, 1
2, 0
0, 0
1, 2
3, 1
0, 0
0, 2
0, 1
1, 1
3, 0
3, 0
4, 1
2, 0
1, 0
1, 2
0, 0
0, 1
0, 1
0, 1
0, 1
1, 2
0, 1
1, 0
0, 2
1, 0
0, 1
1, 0
0, 2
1, 1
0, 1
1, 1
1, 0
1, 0
0, 0
1, 0
0, 0
0, 0
0, 0
0, 0
0, 0
0, 0
0, 0
0, 0
0, 1
0, 0
0, 1
0, 0
1, 0
0, 0
0, 0
0, 1
0, 0
0, 0
1, 0
0, 0
0, 0
1, 0
0, 0
0, 0
0, 0
1, 1
0, 0
0, 0
0, 1
0, 0
0, 0
0, 0
0, 0
0, 0
0, 0
0, 0
0, 0
0, 0
0, 0
0, 0
0, 0
0, 0
0, 0
0, 0
0, 0
0, 0
0, 0
0, 0
0, 0
0, 0
0, 0
0, 1
0, 0
0, 0
0, 0
0, 0
0, 0
0, 0
0, 0
0, 0
0, 0
0, 0
0, 0
0, 0
0, 0
0, 0
0, 0
0, 0
0, 0
0, 0
0, 0
0, 0
0, 0
0, 0
0, 0
0, 0
0, 0
0, 0
0, 0
0, 0
0, 0
0, 0
0, 0
0, 0
0, 0
0, 0
0, 0
0, 0
0, 0
0, 0
0, 0
0, 0
0, 0
0, 0
0, 0
0, 0
0, 0
0, 0
0, 0
0, 0
0, 0
0, 0
0, 0
0, 0
0, 0
0, 0
0, 0
0, 0
0, 0
0, 0
0, 0
0, 0
0, 0
0, 0
0, 0
0, 0
0, 0
0, 0
0, 0
0, 0
0, 0
0, 0
0, 0
0, 0
0, 0
0, 0
0, 0
0, 0
0, 0
0, 0
0, 0
0, 0
0, 0
0, 0
0, 0
0, 0
0, 0
0, 0
0, 0
0, 0
0, 0
#ENDOFDATA     end of spectrum data