File: host_upload/12-01-2023/Dourbes (shot-by-shot)/upload_4/ps__0257_0689790785_000rfs_shot_3175.msa
#FORMAT      : EMSA/MAS spectral data file
#VERSION     : TC202v2.0 PIXL
#TITLE       : N/A
#DATE        :       Date in the format DD-MMM-YYYY, for example 07-JUL-2010
#TIME        :             The time of day at which the spectrum was recorded, in 24-hour format
#OWNER       : PIXL Flight Model       (PIXL will use this to indicate which instrument took the data.)
#NPOINTS     : 4096     Number of data points in the spectrum (This can be zero for configuration only files)
#NCOLUMNS    : 2     Number of data columns in the spectrum (This can be zero for configuration only files)
#XUNITS      : eV
#YUNITS      : COUNTS
#DATATYPE    : YY
#XPERCHAN    : 7.862, 7.881   eV per channel (separate by commas if more than one detector)
#OFFSET      : 18.5, -22.4         eV of first channel  (separate by commas if more than one detector
#SIGNALTYPE  : XRF
#YP_TEMP     : 3.037
#LIVETIME    : 9.03567, 9.01875   seconds (separate by commas if more than one detector)
#REALTIME    : 10, 10.0   seconds (separate by commas if more than one detector)
#SPECTRUM    : start of spectrum data
0, 0
0, 0
0, 0
0, 0
0, 0
0, 0
0, 0
0, 0
1, 0
1, 3
2, 0
28, 15
40, 27
9, 4
7, 14
80, 93
525, 589
86, 87
8, 13
3, 3
3, 5
14, 16
4, 7
12, 3
38, 45
49, 45
31, 24
11, 6
5, 6
2, 4
8, 2
3, 0
9, 17
114, 141
209, 234
22, 36
35, 36
46, 39
11, 8
12, 5
10, 13
31, 36
20, 22
21, 16
15, 16
25, 15
9, 17
9, 6
11, 9
37, 28
32, 29
18, 17
11, 13
47, 46
84, 92
29, 28
42, 46
597, 730
3147, 3366
1902, 1709
151, 124
9, 15
33, 24
116, 150
490, 499
268, 243
27, 12
7, 11
5, 11
4, 4
7, 7
4, 2
4, 6
10, 5
3, 5
6, 7
5, 9
5, 8
6, 4
2, 4
3, 5
1, 4
5, 6
1, 4
3, 4
3, 4
5, 3
7, 4
4, 1
8, 4
3, 6
2, 3
8, 5
7, 4
6, 4
5, 3
3, 0
3, 2
3, 1
3, 2
1, 5
0, 1
2, 0
1, 3
0, 1
1, 2
1, 1
3, 1
2, 2
0, 3
0, 1
4, 1
3, 0
2, 1
1, 1
5, 5
13, 4
5, 8
2, 2
1, 1
1, 0
1, 2
3, 0
1, 3
2, 0
3, 0
1, 1
1, 2
1, 1
2, 0
4, 1
2, 1
0, 0
1, 1
3, 0
0, 1
0, 2
1, 0
1, 0
1, 0
0, 0
0, 0
1, 0
0, 0
0, 0
0, 1
0, 0
1, 0
0, 0
0, 0
1, 1
0, 0
0, 1
0, 0
1, 0
1, 1
0, 0
1, 1
0, 0
1, 0
0, 0
0, 0
0, 0
1, 0
0, 1
0, 0
0, 0
0, 1
0, 0
0, 0
0, 0
0, 0
0, 0
1, 0
0, 0
0, 1
0, 1
0, 0
0, 1
0, 0
0, 0
0, 0
0, 0
0, 0
0, 0
0, 0
0, 0
0, 0
0, 0
0, 0
0, 0
0, 0
0, 0
0, 0
0, 0
0, 0
0, 0
1, 0
0, 0
0, 0
0, 0
0, 0
0, 0
0, 0
0, 0
0, 0
0, 0
0, 0
0, 0
0, 0
0, 0
0, 0
0, 0
0, 0
0, 0
0, 0
0, 0
0, 0
0, 0
0, 0
0, 0
0, 0
0, 0
0, 0
0, 0
0, 0
0, 0
0, 0
0, 0
0, 0
0, 0
0, 0
0, 0
0, 0
0, 0
0, 0
0, 0
0, 0
0, 0
0, 0
0, 0
0, 0
0, 0
0, 0
0, 0
0, 0
0, 0
0, 0
0, 0
0, 0
0, 0
0, 0
0, 0
0, 0
0, 0
0, 0
0, 0
0, 0
0, 0
0, 0
0, 0
0, 0
0, 0
0, 0
0, 0
0, 0
0, 0
0, 0
0, 0
0, 0
0, 0
0, 0
0, 0
0, 0
0, 0
0, 0
0, 0
0, 0
0, 0
0, 0
0, 0
0, 0
0, 0
0, 0
0, 0
0, 0
0, 0
0, 0
0, 0
0, 0
0, 0
0, 0
0, 0
0, 0
#ENDOFDATA     end of spectrum data