File: host_upload/12-01-2023/Dourbes (shot-by-shot)/upload_4/ps__0257_0689790785_000rfs_shot_3204.msa
#FORMAT      : EMSA/MAS spectral data file
#VERSION     : TC202v2.0 PIXL
#TITLE       : N/A
#DATE        :       Date in the format DD-MMM-YYYY, for example 07-JUL-2010
#TIME        :             The time of day at which the spectrum was recorded, in 24-hour format
#OWNER       : PIXL Flight Model       (PIXL will use this to indicate which instrument took the data.)
#NPOINTS     : 4096     Number of data points in the spectrum (This can be zero for configuration only files)
#NCOLUMNS    : 2     Number of data columns in the spectrum (This can be zero for configuration only files)
#XUNITS      : eV
#YUNITS      : COUNTS
#DATATYPE    : YY
#XPERCHAN    : 7.862, 7.881   eV per channel (separate by commas if more than one detector)
#OFFSET      : 18.5, -22.4         eV of first channel  (separate by commas if more than one detector
#SIGNALTYPE  : XRF
#YP_TEMP     : 3.069
#LIVETIME    : 9.16615, 9.1574   seconds (separate by commas if more than one detector)
#REALTIME    : 10, 10.0   seconds (separate by commas if more than one detector)
#SPECTRUM    : start of spectrum data
0, 0
0, 0
0, 0
0, 0
0, 0
0, 0
0, 0
0, 3
1, 3
7, 3
5, 3
22, 23
29, 14
31, 21
49, 58
119, 116
731, 765
112, 108
16, 14
11, 10
9, 9
81, 74
27, 23
37, 32
186, 161
197, 125
56, 68
24, 23
6, 8
8, 12
57, 85
33, 29
23, 8
68, 77
67, 96
14, 18
9, 23
9, 24
6, 9
7, 2
12, 18
26, 23
14, 38
11, 38
11, 38
19, 39
10, 25
20, 13
31, 8
30, 14
14, 13
7, 11
6, 6
15, 27
33, 34
12, 23
17, 22
221, 336
1289, 1565
818, 711
92, 57
23, 10
40, 24
83, 78
184, 244
130, 101
15, 16
8, 5
11, 7
13, 6
6, 5
10, 6
1, 1
10, 12
4, 5
6, 3
4, 4
6, 8
5, 6
5, 9
5, 5
5, 7
2, 4
9, 7
8, 7
4, 7
7, 5
5, 4
4, 3
2, 8
4, 7
4, 7
5, 4
3, 4
4, 3
2, 6
4, 7
14, 5
4, 2
5, 2
2, 6
3, 1
4, 4
3, 3
2, 3
2, 3
2, 1
2, 1
5, 3
1, 3
2, 2
2, 1
3, 0
2, 4
0, 2
8, 1
4, 3
2, 1
3, 0
0, 1
2, 2
1, 2
4, 2
1, 3
2, 2
0, 4
2, 2
3, 1
2, 0
0, 0
0, 0
0, 1
1, 0
2, 0
2, 1
1, 0
1, 3
0, 0
0, 1
0, 0
2, 0
1, 0
0, 0
0, 0
1, 1
2, 0
1, 0
0, 0
1, 0
0, 0
0, 0
0, 0
0, 1
1, 0
0, 1
0, 0
0, 0
1, 0
0, 1
1, 1
0, 0
1, 1
1, 0
1, 0
1, 0
0, 0
0, 0
0, 0
0, 1
0, 0
0, 0
0, 0
0, 0
0, 0
0, 0
0, 0
0, 1
0, 0
0, 0
0, 1
0, 0
0, 0
0, 0
0, 0
0, 0
0, 1
0, 0
0, 0
0, 0
0, 0
0, 0
0, 0
0, 0
0, 0
0, 0
0, 0
0, 0
0, 0
0, 0
0, 0
0, 0
0, 0
0, 0
0, 0
0, 0
0, 0
1, 0
0, 0
0, 0
0, 0
0, 0
0, 0
0, 0
0, 0
0, 0
0, 0
0, 0
0, 0
0, 0
0, 0
0, 0
0, 0
0, 0
0, 0
0, 0
0, 0
0, 0
0, 0
0, 0
0, 0
0, 0
0, 0
0, 0
0, 0
0, 0
0, 0
0, 0
0, 0
0, 0
0, 0
0, 0
0, 0
0, 0
0, 0
0, 0
0, 0
0, 0
0, 0
0, 0
0, 0
0, 0
0, 0
0, 0
0, 0
0, 0
0, 0
0, 0
0, 0
0, 0
0, 0
0, 0
0, 0
0, 0
0, 0
0, 0
0, 0
0, 0
0, 0
0, 0
0, 0
0, 0
0, 0
0, 0
0, 0
0, 0
0, 0
0, 0
0, 0
0, 0
0, 0
0, 0
0, 0
0, 0
0, 0
0, 0
0, 0
0, 0
0, 0
0, 0
0, 0
0, 0
0, 0
0, 0
0, 0
#ENDOFDATA     end of spectrum data