File: host_upload/12-01-2023/Dourbes (shot-by-shot)/upload_4/ps__0257_0689790785_000rfs_shot_3226.msa
#FORMAT      : EMSA/MAS spectral data file
#VERSION     : TC202v2.0 PIXL
#TITLE       : N/A
#DATE        :       Date in the format DD-MMM-YYYY, for example 07-JUL-2010
#TIME        :             The time of day at which the spectrum was recorded, in 24-hour format
#OWNER       : PIXL Flight Model       (PIXL will use this to indicate which instrument took the data.)
#NPOINTS     : 4096     Number of data points in the spectrum (This can be zero for configuration only files)
#NCOLUMNS    : 2     Number of data columns in the spectrum (This can be zero for configuration only files)
#XUNITS      : eV
#YUNITS      : COUNTS
#DATATYPE    : YY
#XPERCHAN    : 7.862, 7.881   eV per channel (separate by commas if more than one detector)
#OFFSET      : 18.5, -22.4         eV of first channel  (separate by commas if more than one detector
#SIGNALTYPE  : XRF
#YP_TEMP     : 3.069
#LIVETIME    : 8.99261, 8.97616   seconds (separate by commas if more than one detector)
#REALTIME    : 10, 10.0   seconds (separate by commas if more than one detector)
#SPECTRUM    : start of spectrum data
0, 0
0, 0
0, 0
0, 0
0, 0
0, 0
0, 0
0, 0
1, 0
2, 4
2, 3
22, 16
23, 18
3, 1
7, 6
90, 67
516, 522
84, 113
3, 7
1, 3
13, 12
73, 89
21, 31
33, 31
145, 200
135, 126
52, 54
27, 29
10, 7
4, 5
6, 3
3, 4
7, 6
70, 75
116, 120
14, 15
18, 18
17, 15
9, 11
5, 7
9, 12
16, 25
31, 31
20, 22
17, 6
21, 12
17, 16
6, 14
13, 22
9, 21
22, 16
11, 10
20, 21
88, 92
102, 149
29, 37
34, 45
611, 833
3361, 3832
2086, 1954
181, 147
28, 30
31, 48
119, 190
528, 593
287, 244
26, 19
5, 6
7, 15
14, 9
5, 6
3, 4
3, 8
8, 6
6, 8
6, 3
13, 7
7, 7
3, 7
6, 2
11, 7
5, 3
5, 4
4, 8
4, 3
7, 5
4, 3
6, 4
5, 2
2, 3
2, 0
8, 10
7, 6
8, 5
2, 4
2, 5
3, 1
8, 3
5, 0
3, 0
2, 4
1, 1
1, 2
1, 3
1, 9
4, 3
2, 1
2, 5
3, 5
1, 2
2, 2
1, 1
3, 0
1, 3
0, 6
3, 2
5, 6
2, 4
3, 2
1, 2
0, 1
4, 1
0, 4
2, 1
1, 1
2, 0
0, 0
4, 0
1, 1
0, 0
0, 0
2, 0
2, 0
1, 0
0, 2
1, 0
0, 0
0, 0
1, 1
0, 0
0, 0
1, 3
0, 1
0, 0
1, 0
0, 1
1, 0
0, 0
1, 0
0, 0
1, 1
0, 1
0, 0
0, 0
0, 1
1, 0
0, 0
0, 1
0, 0
0, 1
0, 1
0, 0
0, 0
0, 1
0, 1
0, 2
1, 1
1, 1
0, 0
0, 0
0, 0
0, 0
0, 0
0, 0
0, 0
0, 1
0, 0
0, 1
0, 0
0, 0
0, 0
0, 0
0, 0
0, 0
0, 0
0, 0
0, 0
0, 0
0, 0
0, 0
0, 0
0, 0
0, 0
0, 0
0, 0
0, 0
0, 0
0, 0
0, 0
0, 0
0, 0
0, 0
0, 0
0, 0
0, 0
0, 0
0, 0
0, 0
0, 0
0, 0
0, 0
0, 0
0, 0
0, 0
0, 0
0, 0
0, 0
0, 0
0, 0
0, 0
0, 0
0, 0
1, 0
0, 0
0, 0
0, 0
0, 0
0, 0
0, 0
0, 0
0, 0
0, 0
0, 0
0, 0
0, 0
0, 0
0, 0
0, 0
0, 0
0, 0
0, 0
0, 0
0, 0
0, 0
0, 0
0, 0
0, 0
0, 0
0, 0
0, 0
0, 0
0, 0
0, 0
0, 0
0, 0
0, 0
0, 0
0, 0
0, 0
0, 0
0, 0
0, 0
0, 0
0, 0
0, 0
0, 0
0, 0
0, 0
0, 0
0, 0
0, 0
0, 0
0, 0
0, 0
0, 0
0, 0
0, 0
0, 0
0, 0
0, 0
0, 0
0, 0
0, 0
0, 0
0, 0
0, 0
0, 0
0, 0
0, 0
0, 0
0, 0
0, 0
0, 0
0, 0
#ENDOFDATA     end of spectrum data