File: host_upload/12-01-2023/Dourbes (shot-by-shot)/upload_4/ps__0257_0689790785_000rfs_shot_3086.msa
#FORMAT      : EMSA/MAS spectral data file
#VERSION     : TC202v2.0 PIXL
#TITLE       : N/A
#DATE        :       Date in the format DD-MMM-YYYY, for example 07-JUL-2010
#TIME        :             The time of day at which the spectrum was recorded, in 24-hour format
#OWNER       : PIXL Flight Model       (PIXL will use this to indicate which instrument took the data.)
#NPOINTS     : 4096     Number of data points in the spectrum (This can be zero for configuration only files)
#NCOLUMNS    : 2     Number of data columns in the spectrum (This can be zero for configuration only files)
#XUNITS      : eV
#YUNITS      : COUNTS
#DATATYPE    : YY
#XPERCHAN    : 7.862, 7.881   eV per channel (separate by commas if more than one detector)
#OFFSET      : 18.5, -22.4         eV of first channel  (separate by commas if more than one detector
#SIGNALTYPE  : XRF
#YP_TEMP     : 3.133
#LIVETIME    : 9.03474, 9.02022   seconds (separate by commas if more than one detector)
#REALTIME    : 10, 10.0   seconds (separate by commas if more than one detector)
#SPECTRUM    : start of spectrum data
0, 0
0, 0
0, 0
0, 0
0, 0
0, 0
0, 0
0, 0
0, 0
3, 1
2, 2
27, 22
32, 29
13, 6
13, 9
81, 80
574, 576
83, 97
6, 5
4, 3
2, 4
7, 7
1, 0
5, 8
43, 49
45, 35
23, 21
15, 11
5, 9
3, 3
5, 2
6, 4
13, 16
109, 122
175, 185
17, 19
20, 41
32, 31
8, 11
8, 4
13, 7
22, 17
18, 15
21, 15
25, 4
8, 22
14, 11
14, 6
6, 14
18, 26
18, 23
11, 9
12, 15
54, 54
96, 91
30, 22
34, 39
556, 708
3075, 3512
1875, 1817
164, 120
16, 23
22, 34
130, 161
462, 517
260, 253
32, 19
1, 9
7, 4
4, 3
3, 8
3, 13
8, 7
12, 7
5, 2
5, 3
6, 3
12, 3
5, 3
1, 2
6, 4
4, 3
3, 3
3, 6
1, 10
5, 6
1, 2
6, 1
3, 5
2, 5
5, 5
1, 6
3, 4
6, 5
20, 5
1, 3
3, 3
2, 3
7, 2
3, 3
0, 2
1, 2
3, 1
1, 5
2, 1
1, 1
1, 2
3, 1
5, 0
1, 2
2, 1
1, 0
2, 0
1, 3
1, 3
3, 1
5, 5
3, 2
2, 3
1, 1
0, 2
3, 2
0, 2
2, 1
0, 2
4, 1
1, 4
0, 3
3, 3
0, 4
6, 1
0, 1
2, 3
1, 1
1, 2
0, 0
1, 2
0, 2
0, 1
0, 1
0, 0
0, 0
0, 0
0, 0
2, 1
0, 1
1, 0
2, 1
1, 0
0, 0
0, 0
0, 0
0, 0
2, 0
0, 0
0, 0
0, 1
0, 1
0, 0
1, 0
0, 1
0, 0
0, 0
0, 0
0, 1
0, 0
0, 0
0, 0
0, 0
0, 0
1, 0
0, 1
0, 0
0, 0
0, 0
0, 0
0, 0
0, 0
0, 0
0, 0
0, 1
0, 0
0, 0
0, 1
1, 0
1, 0
0, 0
0, 0
0, 0
0, 0
0, 1
0, 0
0, 0
0, 1
0, 0
0, 0
0, 0
0, 1
0, 0
0, 0
0, 0
0, 0
0, 0
0, 0
0, 0
0, 0
0, 0
0, 0
0, 0
0, 0
0, 0
0, 0
0, 0
0, 0
0, 0
0, 0
0, 0
0, 0
0, 0
0, 0
0, 0
0, 0
0, 0
0, 0
0, 0
0, 0
0, 0
0, 0
0, 0
0, 0
0, 0
0, 0
0, 0
0, 0
0, 0
0, 0
0, 0
0, 0
0, 0
0, 0
0, 0
0, 0
0, 0
0, 0
0, 0
0, 0
0, 0
0, 0
0, 0
0, 0
0, 0
0, 0
0, 0
0, 0
0, 0
0, 0
0, 0
0, 0
0, 0
0, 0
0, 0
0, 0
0, 0
0, 0
0, 0
0, 0
0, 0
0, 0
0, 0
0, 0
0, 0
0, 0
0, 0
0, 0
0, 0
0, 0
0, 0
0, 0
0, 0
0, 0
0, 0
0, 0
0, 0
0, 0
0, 0
0, 0
0, 0
0, 0
0, 0
0, 0
0, 0
0, 0
0, 0
0, 0
#ENDOFDATA     end of spectrum data