File: host_upload/12-01-2023/Dourbes (shot-by-shot)/upload_4/ps__0257_0689790785_000rfs_shot_3241.msa
#FORMAT      : EMSA/MAS spectral data file
#VERSION     : TC202v2.0 PIXL
#TITLE       : N/A
#DATE        :       Date in the format DD-MMM-YYYY, for example 07-JUL-2010
#TIME        :             The time of day at which the spectrum was recorded, in 24-hour format
#OWNER       : PIXL Flight Model       (PIXL will use this to indicate which instrument took the data.)
#NPOINTS     : 4096     Number of data points in the spectrum (This can be zero for configuration only files)
#NCOLUMNS    : 2     Number of data columns in the spectrum (This can be zero for configuration only files)
#XUNITS      : eV
#YUNITS      : COUNTS
#DATATYPE    : YY
#XPERCHAN    : 7.862, 7.881   eV per channel (separate by commas if more than one detector)
#OFFSET      : 18.5, -22.4         eV of first channel  (separate by commas if more than one detector
#SIGNALTYPE  : XRF
#YP_TEMP     : 3.005
#LIVETIME    : 8.96914, 8.97823   seconds (separate by commas if more than one detector)
#REALTIME    : 10, 10.0   seconds (separate by commas if more than one detector)
#SPECTRUM    : start of spectrum data
0, 0
0, 0
0, 0
0, 0
0, 0
0, 0
0, 0
0, 0
3, 1
5, 1
1, 1
19, 27
32, 23
2, 3
5, 1
68, 54
413, 360
55, 54
3, 3
1, 1
5, 6
16, 14
6, 5
32, 34
204, 193
180, 166
48, 58
38, 29
17, 17
6, 4
11, 3
9, 9
6, 7
74, 66
130, 102
23, 8
15, 21
23, 13
8, 10
13, 10
12, 13
16, 19
28, 33
31, 26
11, 9
16, 6
13, 15
10, 12
14, 21
19, 14
19, 5
16, 19
26, 26
94, 103
127, 113
31, 36
45, 42
714, 760
3756, 3656
2390, 1868
201, 124
29, 25
33, 38
158, 148
549, 544
324, 257
23, 19
10, 5
10, 7
6, 8
5, 3
3, 2
5, 5
3, 4
3, 6
4, 3
5, 4
8, 3
10, 5
10, 7
7, 12
3, 4
4, 5
8, 1
4, 5
5, 6
4, 2
6, 2
4, 4
3, 6
5, 4
4, 3
4, 3
4, 2
4, 2
4, 2
2, 4
0, 4
2, 1
3, 2
7, 2
1, 1
5, 4
3, 1
4, 3
3, 1
5, 3
2, 3
2, 1
1, 2
2, 2
0, 1
2, 2
2, 3
2, 1
4, 6
8, 9
7, 4
2, 2
2, 0
4, 2
1, 1
3, 4
3, 3
1, 0
2, 1
2, 1
2, 0
2, 1
2, 1
0, 0
0, 0
1, 1
2, 0
0, 0
0, 1
2, 1
1, 0
1, 1
1, 2
0, 4
1, 2
2, 1
0, 1
0, 0
0, 1
2, 1
1, 1
2, 0
0, 0
0, 1
0, 0
1, 0
0, 1
1, 1
0, 2
0, 0
0, 1
0, 0
0, 0
0, 0
0, 0
0, 0
1, 0
0, 0
0, 0
0, 0
1, 0
0, 0
0, 3
0, 1
0, 0
0, 1
0, 0
0, 0
0, 0
1, 0
0, 0
0, 0
0, 1
0, 0
0, 0
0, 0
0, 0
1, 0
0, 0
0, 0
0, 0
0, 0
0, 0
0, 0
0, 0
0, 0
0, 0
0, 0
0, 1
0, 0
0, 0
0, 1
0, 0
0, 0
1, 0
0, 0
0, 0
0, 0
0, 0
0, 0
0, 0
0, 1
0, 0
0, 0
0, 0
0, 0
0, 0
1, 0
0, 0
0, 0
0, 0
0, 0
0, 0
0, 0
0, 0
0, 0
0, 0
0, 0
0, 0
0, 0
0, 0
0, 0
0, 0
0, 0
0, 0
0, 0
0, 0
0, 0
0, 0
0, 0
0, 0
0, 0
0, 0
0, 0
0, 0
0, 0
0, 0
0, 0
0, 0
0, 0
0, 0
0, 0
0, 0
0, 0
0, 0
0, 0
0, 0
0, 0
0, 0
0, 0
0, 0
0, 0
0, 0
0, 0
0, 0
0, 0
0, 0
0, 0
0, 0
0, 0
0, 0
0, 0
0, 0
0, 0
0, 0
0, 0
0, 0
0, 0
0, 0
0, 0
0, 0
0, 0
0, 0
0, 0
0, 0
0, 0
0, 0
0, 0
0, 0
0, 0
0, 0
0, 0
0, 0
0, 0
0, 0
0, 0
0, 0
#ENDOFDATA     end of spectrum data