File: host_upload/12-01-2023/Dourbes (shot-by-shot)/upload_4/ps__0257_0689790785_000rfs_shot_3245.msa
#FORMAT      : EMSA/MAS spectral data file
#VERSION     : TC202v2.0 PIXL
#TITLE       : N/A
#DATE        :       Date in the format DD-MMM-YYYY, for example 07-JUL-2010
#TIME        :             The time of day at which the spectrum was recorded, in 24-hour format
#OWNER       : PIXL Flight Model       (PIXL will use this to indicate which instrument took the data.)
#NPOINTS     : 4096     Number of data points in the spectrum (This can be zero for configuration only files)
#NCOLUMNS    : 2     Number of data columns in the spectrum (This can be zero for configuration only files)
#XUNITS      : eV
#YUNITS      : COUNTS
#DATATYPE    : YY
#XPERCHAN    : 7.862, 7.881   eV per channel (separate by commas if more than one detector)
#OFFSET      : 18.5, -22.4         eV of first channel  (separate by commas if more than one detector
#SIGNALTYPE  : XRF
#YP_TEMP     : 3.069
#LIVETIME    : 9.06445, 9.07183   seconds (separate by commas if more than one detector)
#REALTIME    : 10, 10.0   seconds (separate by commas if more than one detector)
#SPECTRUM    : start of spectrum data
0, 0
0, 0
0, 0
0, 0
0, 0
0, 0
0, 0
0, 0
2, 1
6, 5
2, 2
20, 25
28, 32
1, 2
5, 6
101, 99
644, 660
92, 119
8, 3
3, 1
39, 26
244, 257
74, 68
42, 35
137, 154
125, 116
51, 42
20, 21
13, 7
6, 3
5, 7
8, 2
3, 8
43, 50
79, 73
5, 16
8, 20
16, 10
10, 9
8, 10
5, 5
17, 15
28, 22
18, 18
14, 7
21, 12
13, 16
9, 16
13, 13
20, 13
11, 16
9, 16
23, 13
77, 79
97, 75
20, 25
25, 35
468, 526
2502, 2651
1505, 1294
117, 81
16, 21
29, 22
97, 144
379, 414
228, 215
26, 10
11, 4
8, 10
7, 7
10, 6
5, 4
10, 6
3, 12
10, 7
5, 7
7, 3
8, 5
9, 9
6, 9
7, 4
2, 6
3, 3
4, 2
8, 7
7, 7
6, 6
9, 4
5, 3
6, 5
5, 1
4, 2
3, 5
8, 5
8, 4
3, 1
5, 4
6, 3
2, 5
3, 7
7, 6
6, 3
0, 6
2, 6
3, 3
4, 2
3, 4
3, 2
2, 3
2, 2
3, 2
7, 2
2, 2
2, 4
1, 3
5, 2
4, 3
4, 2
2, 3
3, 1
1, 2
1, 3
3, 0
1, 0
1, 1
1, 1
4, 1
0, 3
1, 1
3, 2
0, 1
1, 0
2, 0
0, 1
2, 3
0, 2
2, 0
0, 2
1, 2
0, 1
0, 1
1, 0
0, 0
0, 0
0, 0
0, 0
1, 0
1, 1
1, 0
0, 0
0, 0
1, 0
1, 1
1, 0
0, 1
0, 0
0, 0
0, 0
0, 0
1, 0
1, 1
0, 0
0, 0
1, 1
1, 0
0, 0
1, 1
0, 0
0, 0
1, 0
0, 0
0, 1
0, 0
1, 0
0, 0
1, 1
0, 0
0, 0
0, 0
0, 0
0, 0
0, 0
0, 0
0, 1
0, 0
0, 0
0, 0
0, 0
0, 0
0, 0
1, 0
0, 0
0, 0
0, 0
0, 0
0, 1
0, 0
0, 0
0, 0
0, 0
0, 0
0, 0
1, 0
0, 0
0, 0
0, 0
0, 0
0, 0
0, 0
0, 0
0, 0
0, 0
0, 0
0, 0
0, 0
0, 0
0, 0
0, 0
0, 0
0, 0
0, 0
0, 0
0, 0
0, 0
0, 0
0, 0
0, 0
0, 0
0, 0
0, 0
0, 0
0, 0
0, 0
0, 0
0, 0
0, 0
0, 0
0, 0
0, 0
0, 0
0, 0
0, 0
0, 0
0, 0
0, 0
0, 0
0, 0
0, 0
0, 0
0, 0
0, 0
0, 0
0, 0
0, 0
0, 0
0, 0
0, 0
0, 0
0, 0
0, 0
0, 0
0, 0
0, 0
0, 0
0, 0
0, 0
0, 0
0, 0
0, 0
0, 0
0, 0
0, 0
0, 0
0, 0
0, 0
0, 0
0, 0
0, 0
0, 0
0, 0
0, 0
0, 0
0, 0
0, 0
0, 0
0, 0
0, 0
0, 0
0, 0
0, 0
0, 0
0, 0
0, 0
0, 0
#ENDOFDATA     end of spectrum data