File: host_upload/12-01-2023/Dourbes (shot-by-shot)/upload_4/ps__0257_0689790785_000rfs_shot_3274.msa
#FORMAT      : EMSA/MAS spectral data file
#VERSION     : TC202v2.0 PIXL
#TITLE       : N/A
#DATE        :       Date in the format DD-MMM-YYYY, for example 07-JUL-2010
#TIME        :             The time of day at which the spectrum was recorded, in 24-hour format
#OWNER       : PIXL Flight Model       (PIXL will use this to indicate which instrument took the data.)
#NPOINTS     : 4096     Number of data points in the spectrum (This can be zero for configuration only files)
#NCOLUMNS    : 2     Number of data columns in the spectrum (This can be zero for configuration only files)
#XUNITS      : eV
#YUNITS      : COUNTS
#DATATYPE    : YY
#XPERCHAN    : 7.862, 7.881   eV per channel (separate by commas if more than one detector)
#OFFSET      : 18.5, -22.4         eV of first channel  (separate by commas if more than one detector
#SIGNALTYPE  : XRF
#YP_TEMP     : 3.647
#LIVETIME    : 9.13553, 9.12124   seconds (separate by commas if more than one detector)
#REALTIME    : 10, 10.0   seconds (separate by commas if more than one detector)
#SPECTRUM    : start of spectrum data
0, 0
0, 0
0, 0
0, 0
0, 0
0, 0
0, 0
0, 0
1, 0
2, 1
2, 2
25, 22
27, 34
10, 6
17, 21
119, 105
716, 717
123, 131
18, 18
7, 9
5, 25
6, 14
5, 1
6, 15
36, 39
58, 43
15, 23
10, 27
3, 8
1, 2
1, 6
5, 6
23, 24
454, 533
799, 818
72, 60
93, 95
100, 113
17, 16
4, 19
5, 47
35, 29
20, 16
9, 13
5, 6
14, 12
7, 12
3, 11
41, 11
94, 65
40, 31
6, 11
5, 6
31, 38
50, 58
27, 22
88, 21
365, 324
1368, 1474
829, 851
69, 152
10, 20
11, 14
64, 72
197, 254
113, 111
8, 24
8, 10
21, 6
15, 8
7, 4
2, 1
9, 3
8, 6
3, 7
6, 5
4, 3
6, 4
3, 7
4, 10
1, 3
6, 1
6, 4
3, 5
6, 11
6, 26
7, 57
4, 31
1, 7
5, 2
5, 3
1, 6
2, 4
4, 7
6, 1
4, 3
3, 4
3, 3
2, 1
5, 3
3, 1
4, 2
2, 0
8, 3
4, 1
7, 1
11, 5
5, 2
2, 0
0, 3
1, 3
1, 2
1, 2
1, 2
2, 3
2, 2
0, 1
2, 2
1, 1
2, 1
1, 1
3, 0
4, 0
2, 0
1, 1
1, 1
1, 0
2, 1
1, 0
0, 2
1, 2
1, 0
0, 1
0, 0
0, 1
1, 0
0, 0
0, 2
1, 1
2, 0
0, 0
0, 0
2, 1
0, 1
0, 1
0, 0
1, 2
0, 0
1, 0
0, 0
1, 1
1, 1
0, 0
0, 0
0, 0
0, 0
2, 0
1, 0
0, 1
0, 0
1, 0
0, 0
1, 0
1, 1
1, 0
0, 0
2, 0
0, 0
0, 0
0, 0
0, 0
0, 0
0, 0
1, 0
0, 0
0, 0
0, 0
0, 0
0, 0
0, 0
0, 1
0, 0
1, 0
0, 0
0, 0
0, 0
0, 0
0, 0
0, 0
0, 0
0, 1
0, 0
0, 0
0, 0
0, 0
0, 0
0, 0
0, 0
0, 0
0, 0
0, 0
0, 0
0, 0
0, 0
0, 0
0, 0
0, 0
0, 0
0, 0
0, 0
0, 0
0, 0
0, 0
0, 0
0, 0
0, 0
0, 0
0, 0
0, 0
0, 0
0, 0
0, 0
0, 0
0, 0
0, 0
0, 0
0, 0
0, 0
0, 0
0, 0
0, 0
0, 0
0, 0
0, 0
0, 0
0, 0
0, 0
0, 0
0, 0
0, 0
0, 0
0, 0
0, 0
0, 0
0, 0
0, 0
0, 0
0, 0
0, 0
0, 0
0, 0
0, 0
0, 0
0, 0
0, 0
0, 0
0, 0
0, 0
0, 0
0, 0
0, 0
0, 0
0, 0
0, 0
0, 0
0, 0
0, 0
0, 0
0, 0
0, 0
0, 0
0, 0
0, 0
0, 0
0, 0
0, 0
0, 0
0, 0
0, 0
0, 0
0, 0
0, 0
0, 0
0, 0
0, 0
0, 0
0, 0
0, 0
0, 0
0, 0
0, 0
0, 0
0, 0
0, 0
#ENDOFDATA     end of spectrum data