File: host_upload/12-01-2023/Dourbes (shot-by-shot)/upload_4/ps__0257_0689790785_000rfs_shot_3155.msa
#FORMAT      : EMSA/MAS spectral data file
#VERSION     : TC202v2.0 PIXL
#TITLE       : N/A
#DATE        :       Date in the format DD-MMM-YYYY, for example 07-JUL-2010
#TIME        :             The time of day at which the spectrum was recorded, in 24-hour format
#OWNER       : PIXL Flight Model       (PIXL will use this to indicate which instrument took the data.)
#NPOINTS     : 4096     Number of data points in the spectrum (This can be zero for configuration only files)
#NCOLUMNS    : 2     Number of data columns in the spectrum (This can be zero for configuration only files)
#XUNITS      : eV
#YUNITS      : COUNTS
#DATATYPE    : YY
#XPERCHAN    : 7.862, 7.881   eV per channel (separate by commas if more than one detector)
#OFFSET      : 18.5, -22.4         eV of first channel  (separate by commas if more than one detector
#SIGNALTYPE  : XRF
#YP_TEMP     : 3.262
#LIVETIME    : 9.11251, 9.10988   seconds (separate by commas if more than one detector)
#REALTIME    : 10, 10.0   seconds (separate by commas if more than one detector)
#SPECTRUM    : start of spectrum data
0, 0
0, 0
0, 0
0, 0
0, 0
0, 0
0, 0
0, 0
0, 0
2, 3
3, 2
30, 25
35, 45
10, 4
8, 12
119, 120
751, 846
129, 130
22, 6
4, 4
2, 3
10, 5
4, 1
9, 9
41, 54
51, 38
19, 23
13, 12
5, 3
3, 4
2, 2
2, 7
27, 24
477, 500
730, 731
73, 61
84, 77
117, 95
10, 9
2, 1
13, 11
47, 48
35, 21
13, 12
9, 9
7, 13
7, 6
2, 4
7, 8
32, 35
29, 25
8, 9
7, 12
36, 39
50, 61
11, 22
15, 21
310, 381
1570, 1801
1015, 908
84, 49
10, 17
13, 12
69, 93
257, 279
135, 123
17, 17
25, 7
22, 11
10, 5
10, 5
8, 2
2, 8
9, 5
8, 8
6, 8
9, 8
3, 9
9, 10
9, 3
4, 5
7, 8
9, 7
3, 3
5, 4
3, 8
5, 8
5, 2
3, 7
2, 6
2, 4
5, 0
5, 6
1, 5
3, 4
5, 3
1, 5
4, 2
4, 5
11, 2
5, 2
2, 1
3, 4
4, 1
2, 5
1, 6
1, 2
1, 4
3, 2
4, 1
5, 1
3, 4
1, 2
1, 0
3, 1
1, 3
1, 5
3, 4
3, 2
0, 2
0, 1
1, 2
3, 2
3, 1
0, 2
0, 1
2, 0
1, 0
0, 1
2, 0
0, 0
3, 1
0, 0
1, 0
0, 0
1, 1
0, 1
2, 0
1, 1
0, 0
1, 0
3, 0
1, 0
0, 0
1, 0
1, 0
0, 0
0, 0
0, 0
1, 1
0, 0
0, 0
0, 0
0, 1
1, 0
0, 0
0, 1
0, 0
0, 1
0, 0
0, 1
0, 0
1, 1
0, 0
0, 0
0, 0
0, 0
0, 0
1, 1
0, 1
1, 0
0, 0
1, 0
0, 0
0, 0
0, 0
0, 0
0, 0
0, 0
0, 0
0, 0
1, 0
0, 0
0, 0
0, 1
0, 0
0, 0
0, 0
0, 0
1, 1
0, 0
0, 0
0, 1
0, 0
0, 1
0, 0
0, 0
0, 0
0, 0
0, 0
0, 0
0, 0
0, 0
0, 0
0, 0
0, 0
0, 0
0, 0
0, 0
0, 0
0, 0
0, 0
0, 0
0, 0
0, 0
0, 0
0, 0
0, 0
0, 0
0, 0
0, 0
0, 0
0, 0
0, 0
0, 0
0, 0
0, 0
0, 0
0, 0
0, 0
0, 0
0, 0
0, 0
0, 0
0, 0
0, 0
0, 0
0, 0
0, 0
0, 0
0, 0
0, 0
0, 0
0, 0
0, 0
0, 0
0, 0
0, 0
0, 0
0, 0
0, 0
0, 0
0, 0
0, 0
0, 0
0, 0
0, 0
0, 0
0, 0
0, 0
0, 0
0, 0
0, 0
0, 0
0, 0
0, 0
0, 0
0, 0
0, 0
0, 0
0, 0
0, 0
0, 0
0, 0
0, 0
0, 0
0, 0
0, 0
0, 0
0, 0
0, 0
0, 0
0, 0
0, 0
0, 0
0, 0
0, 0
0, 0
0, 0
0, 0
0, 0
0, 0
0, 0
0, 0
#ENDOFDATA     end of spectrum data