File: host_upload/12-01-2023/Dourbes (shot-by-shot)/upload_4/ps__0257_0689790785_000rfs_shot_3042.msa
#FORMAT      : EMSA/MAS spectral data file
#VERSION     : TC202v2.0 PIXL
#TITLE       : N/A
#DATE        :       Date in the format DD-MMM-YYYY, for example 07-JUL-2010
#TIME        :             The time of day at which the spectrum was recorded, in 24-hour format
#OWNER       : PIXL Flight Model       (PIXL will use this to indicate which instrument took the data.)
#NPOINTS     : 4096     Number of data points in the spectrum (This can be zero for configuration only files)
#NCOLUMNS    : 2     Number of data columns in the spectrum (This can be zero for configuration only files)
#XUNITS      : eV
#YUNITS      : COUNTS
#DATATYPE    : YY
#XPERCHAN    : 7.862, 7.881   eV per channel (separate by commas if more than one detector)
#OFFSET      : 18.5, -22.4         eV of first channel  (separate by commas if more than one detector
#SIGNALTYPE  : XRF
#YP_TEMP     : 2.973
#LIVETIME    : 8.99455, 8.99279   seconds (separate by commas if more than one detector)
#REALTIME    : 10, 10.0   seconds (separate by commas if more than one detector)
#SPECTRUM    : start of spectrum data
0, 0
0, 0
0, 0
0, 0
0, 0
0, 0
0, 0
1, 0
1, 0
0, 2
2, 1
27, 31
47, 45
1, 3
5, 3
70, 82
494, 461
77, 73
7, 3
2, 0
58, 0
43, 3
1, 4
5, 5
13, 18
22, 25
15, 18
11, 11
5, 3
2, 3
3, 1
1, 1
5, 0
12, 19
26, 60
2, 8
2, 2
8, 6
3, 3
2, 0
9, 2
7, 6
17, 17
10, 12
3, 4
5, 5
6, 3
7, 3
7, 6
16, 71
14, 150
11, 42
8, 23
51, 72
93, 101
31, 15
23, 34
685, 799
3730, 3781
2330, 1897
179, 145
28, 15
33, 26
138, 180
557, 555
332, 264
30, 20
7, 4
7, 8
11, 9
1, 1
2, 1
4, 6
3, 0
7, 7
2, 5
2, 1
1, 3
3, 3
3, 9
2, 13
6, 8
6, 2
8, 4
3, 6
2, 6
4, 3
2, 6
4, 5
3, 3
0, 0
2, 0
4, 3
2, 4
0, 2
2, 3
1, 9
0, 1
2, 1
3, 6
4, 12
5, 5
3, 1
3, 2
4, 2
2, 1
3, 2
1, 1
0, 4
3, 0
1, 2
5, 3
4, 4
2, 1
3, 1
2, 8
11, 9
7, 5
1, 3
0, 1
0, 1
0, 0
1, 3
1, 2
1, 1
0, 1
0, 0
1, 0
1, 2
2, 0
1, 2
0, 0
0, 2
2, 1
1, 0
0, 0
3, 1
0, 1
3, 0
0, 1
0, 0
0, 1
0, 0
0, 0
1, 0
1, 0
0, 0
0, 3
1, 0
1, 0
0, 1
0, 0
0, 2
1, 0
0, 0
0, 0
0, 0
0, 0
0, 0
0, 0
0, 0
0, 0
0, 0
0, 1
0, 0
0, 0
0, 0
0, 0
0, 1
0, 0
0, 0
0, 1
2, 0
0, 0
0, 0
0, 0
0, 0
1, 0
0, 0
0, 0
0, 0
0, 0
0, 0
0, 0
0, 0
0, 0
0, 0
0, 0
0, 0
0, 0
0, 0
0, 0
0, 0
0, 0
0, 0
0, 1
0, 0
0, 0
0, 0
0, 0
0, 0
0, 0
0, 0
0, 0
0, 0
0, 0
0, 0
0, 0
0, 0
0, 0
0, 0
0, 0
0, 0
0, 0
0, 0
0, 0
0, 0
0, 0
0, 0
0, 0
0, 0
0, 0
0, 0
0, 0
0, 0
0, 0
0, 0
0, 0
0, 0
0, 0
0, 0
0, 0
0, 0
0, 0
0, 0
0, 0
0, 0
0, 0
0, 0
0, 0
0, 0
0, 0
0, 0
0, 0
0, 0
0, 0
0, 0
0, 0
0, 0
0, 0
0, 0
0, 0
0, 0
0, 0
0, 0
0, 0
0, 0
0, 0
0, 0
0, 0
0, 0
0, 0
0, 0
0, 0
0, 0
0, 0
0, 0
0, 0
0, 0
0, 0
0, 0
0, 0
0, 0
0, 0
0, 0
0, 0
0, 0
0, 0
0, 0
0, 0
0, 0
0, 0
0, 0
0, 0
0, 0
0, 0
0, 0
0, 0
0, 0
0, 0
0, 0
0, 0
0, 0
0, 0
#ENDOFDATA     end of spectrum data