File: host_upload/12-01-2023/Dourbes (shot-by-shot)/upload_4/ps__0257_0689790785_000rfs_shot_3185.msa
#FORMAT      : EMSA/MAS spectral data file
#VERSION     : TC202v2.0 PIXL
#TITLE       : N/A
#DATE        :       Date in the format DD-MMM-YYYY, for example 07-JUL-2010
#TIME        :             The time of day at which the spectrum was recorded, in 24-hour format
#OWNER       : PIXL Flight Model       (PIXL will use this to indicate which instrument took the data.)
#NPOINTS     : 4096     Number of data points in the spectrum (This can be zero for configuration only files)
#NCOLUMNS    : 2     Number of data columns in the spectrum (This can be zero for configuration only files)
#XUNITS      : eV
#YUNITS      : COUNTS
#DATATYPE    : YY
#XPERCHAN    : 7.862, 7.881   eV per channel (separate by commas if more than one detector)
#OFFSET      : 18.5, -22.4         eV of first channel  (separate by commas if more than one detector
#SIGNALTYPE  : XRF
#YP_TEMP     : 3.262
#LIVETIME    : 9.12077, 9.14359   seconds (separate by commas if more than one detector)
#REALTIME    : 10, 10.0   seconds (separate by commas if more than one detector)
#SPECTRUM    : start of spectrum data
0, 0
0, 0
0, 0
0, 0
0, 0
0, 0
0, 0
0, 0
1, 1
0, 2
1, 3
30, 20
25, 25
6, 7
7, 11
140, 109
905, 839
163, 135
21, 15
1, 7
1, 3
4, 5
1, 7
7, 4
24, 13
15, 10
16, 32
17, 113
5, 69
4, 1
4, 0
0, 2
26, 26
701, 586
1136, 932
113, 72
137, 120
143, 124
16, 8
2, 5
10, 13
34, 33
14, 17
4, 4
7, 1
11, 14
9, 13
2, 17
13, 13
42, 39
17, 34
5, 4
6, 9
32, 28
47, 39
53, 16
152, 10
380, 261
1226, 1073
723, 529
59, 42
8, 7
18, 12
59, 57
198, 169
118, 86
12, 13
13, 11
14, 11
6, 5
2, 2
6, 3
4, 2
5, 3
2, 4
7, 4
21, 5
10, 7
5, 2
5, 2
5, 3
3, 7
4, 3
5, 4
6, 4
3, 15
5, 22
9, 12
10, 3
8, 3
2, 4
2, 3
4, 5
5, 9
10, 9
5, 1
3, 10
5, 2
1, 4
7, 1
7, 5
3, 2
4, 3
2, 3
9, 5
7, 1
11, 4
5, 2
1, 3
5, 3
1, 4
1, 4
3, 7
1, 4
6, 4
7, 3
1, 0
3, 0
1, 1
1, 2
0, 1
5, 1
1, 3
3, 1
5, 3
3, 0
1, 2
0, 1
1, 1
1, 2
1, 0
0, 1
2, 2
2, 0
0, 0
1, 2
1, 1
1, 1
0, 2
1, 1
2, 1
0, 1
1, 0
3, 0
0, 0
1, 1
0, 1
1, 1
1, 1
0, 0
0, 0
0, 1
0, 1
1, 1
0, 0
0, 0
2, 0
0, 0
0, 1
0, 0
0, 0
1, 0
2, 1
0, 0
1, 0
1, 1
2, 1
0, 0
0, 0
0, 1
0, 0
0, 0
0, 1
0, 0
0, 0
0, 1
0, 0
0, 0
0, 0
0, 0
0, 0
2, 1
0, 1
0, 0
0, 0
0, 0
0, 0
0, 0
0, 1
1, 0
0, 0
0, 0
0, 0
0, 0
0, 0
0, 1
0, 1
0, 0
0, 0
0, 0
0, 0
0, 0
1, 0
0, 0
0, 0
0, 0
0, 0
0, 0
0, 0
0, 0
0, 0
0, 0
0, 0
0, 0
0, 0
0, 0
0, 0
0, 0
0, 0
0, 0
0, 0
0, 0
0, 0
0, 0
0, 0
0, 0
0, 0
0, 0
0, 0
0, 0
0, 0
0, 0
0, 0
0, 0
0, 0
0, 0
0, 0
0, 0
0, 0
0, 0
0, 0
0, 0
0, 0
0, 0
0, 0
0, 0
0, 0
0, 0
0, 0
0, 0
0, 0
0, 0
0, 0
0, 0
0, 0
0, 0
0, 0
0, 0
0, 0
0, 0
0, 0
0, 0
0, 0
0, 0
0, 0
0, 0
0, 0
0, 0
0, 0
0, 0
0, 0
0, 0
0, 0
0, 0
0, 0
0, 0
0, 0
0, 0
0, 0
0, 0
0, 0
0, 0
0, 0
0, 0
0, 0
0, 0
0, 0
0, 0
0, 0
0, 0
0, 0
0, 0
0, 0
0, 0
#ENDOFDATA     end of spectrum data