File: host_upload/12-01-2023/Dourbes (shot-by-shot)/upload_4/ps__0257_0689790785_000rfs_shot_3254.msa
#FORMAT      : EMSA/MAS spectral data file
#VERSION     : TC202v2.0 PIXL
#TITLE       : N/A
#DATE        :       Date in the format DD-MMM-YYYY, for example 07-JUL-2010
#TIME        :             The time of day at which the spectrum was recorded, in 24-hour format
#OWNER       : PIXL Flight Model       (PIXL will use this to indicate which instrument took the data.)
#NPOINTS     : 4096     Number of data points in the spectrum (This can be zero for configuration only files)
#NCOLUMNS    : 2     Number of data columns in the spectrum (This can be zero for configuration only files)
#XUNITS      : eV
#YUNITS      : COUNTS
#DATATYPE    : YY
#XPERCHAN    : 7.862, 7.881   eV per channel (separate by commas if more than one detector)
#OFFSET      : 18.5, -22.4         eV of first channel  (separate by commas if more than one detector
#SIGNALTYPE  : XRF
#YP_TEMP     : 3.326
#LIVETIME    : 8.89578, 8.97054   seconds (separate by commas if more than one detector)
#REALTIME    : 10, 10.0   seconds (separate by commas if more than one detector)
#SPECTRUM    : start of spectrum data
0, 0
0, 0
0, 0
0, 0
0, 0
0, 0
0, 0
1, 0
14, 4
37, 5
8, 3
32, 24
38, 43
5, 6
7, 2
62, 53
356, 347
62, 55
13, 1
4, 4
34, 44
278, 309
95, 68
82, 45
1689, 155
2644, 129
226, 36
26, 29
8, 9
3, 11
5, 3
1, 8
2, 3
47, 42
72, 73
8, 11
12, 6
21, 11
8, 4
5, 6
12, 10
24, 40
25, 94
13, 53
8, 6
6, 10
9, 11
3, 7
21, 16
9, 12
10, 8
9, 7
13, 17
75, 80
105, 111
35, 31
41, 44
601, 791
3276, 3719
2107, 1894
156, 128
69, 21
56, 30
171, 146
513, 524
306, 231
26, 21
4, 11
13, 6
4, 5
3, 3
7, 10
3, 14
8, 4
6, 4
4, 4
7, 7
6, 2
3, 4
5, 7
2, 2
2, 7
6, 4
9, 7
6, 14
4, 13
4, 4
2, 7
6, 4
2, 1
2, 1
1, 3
2, 3
2, 1
4, 1
3, 5
2, 3
5, 2
5, 0
9, 2
0, 1
4, 2
3, 1
2, 1
1, 2
2, 0
1, 1
1, 3
0, 1
1, 2
2, 1
0, 2
2, 1
2, 0
2, 1
2, 1
6, 13
4, 2
2, 2
0, 0
1, 1
1, 1
3, 2
2, 1
4, 1
3, 0
3, 0
0, 0
0, 1
2, 2
0, 0
2, 1
1, 0
0, 1
1, 2
2, 2
0, 0
0, 0
1, 1
0, 0
0, 1
1, 0
0, 1
0, 0
1, 0
0, 0
0, 1
0, 1
1, 1
0, 1
0, 0
0, 1
0, 0
0, 2
0, 0
0, 0
1, 1
1, 0
0, 0
1, 0
1, 1
0, 1
0, 0
0, 0
0, 0
0, 1
0, 0
0, 0
0, 0
1, 0
0, 1
0, 0
0, 0
0, 0
0, 0
0, 0
0, 0
0, 0
0, 0
0, 1
0, 0
0, 0
0, 0
0, 0
0, 0
0, 0
1, 0
0, 0
0, 0
0, 0
0, 0
0, 0
0, 0
0, 0
0, 0
0, 0
0, 0
0, 0
0, 0
1, 0
0, 0
0, 0
0, 0
0, 0
0, 0
0, 0
0, 0
0, 0
0, 0
0, 0
0, 0
0, 0
0, 0
0, 0
0, 0
0, 0
0, 0
0, 0
0, 0
0, 0
0, 0
0, 0
0, 0
0, 0
0, 0
0, 0
0, 0
0, 0
0, 0
0, 0
0, 0
0, 0
0, 0
0, 0
0, 0
0, 0
0, 0
0, 0
0, 0
0, 0
0, 0
0, 0
0, 0
0, 0
0, 0
0, 0
0, 0
0, 0
0, 0
0, 0
0, 0
0, 0
0, 0
0, 0
0, 0
0, 0
0, 0
0, 0
0, 0
0, 0
0, 0
0, 0
0, 0
0, 0
0, 0
0, 0
0, 0
0, 0
0, 0
0, 0
0, 0
0, 0
0, 0
0, 0
0, 0
0, 0
0, 0
0, 0
0, 0
0, 0
0, 0
0, 0
0, 0
0, 0
0, 0
0, 0
0, 0
0, 0
0, 0
0, 0
0, 0
0, 0
0, 0
0, 0
#ENDOFDATA     end of spectrum data