File: host_upload/12-01-2023/Dourbes (shot-by-shot)/upload_4/ps__0257_0689790785_000rfs_shot_3013.msa
#FORMAT      : EMSA/MAS spectral data file
#VERSION     : TC202v2.0 PIXL
#TITLE       : N/A
#DATE        :       Date in the format DD-MMM-YYYY, for example 07-JUL-2010
#TIME        :             The time of day at which the spectrum was recorded, in 24-hour format
#OWNER       : PIXL Flight Model       (PIXL will use this to indicate which instrument took the data.)
#NPOINTS     : 4096     Number of data points in the spectrum (This can be zero for configuration only files)
#NCOLUMNS    : 2     Number of data columns in the spectrum (This can be zero for configuration only files)
#XUNITS      : eV
#YUNITS      : COUNTS
#DATATYPE    : YY
#XPERCHAN    : 7.862, 7.881   eV per channel (separate by commas if more than one detector)
#OFFSET      : 18.5, -22.4         eV of first channel  (separate by commas if more than one detector
#SIGNALTYPE  : XRF
#YP_TEMP     : 2.909
#LIVETIME    : 9.00079, 9.01326   seconds (separate by commas if more than one detector)
#REALTIME    : 10, 10.0   seconds (separate by commas if more than one detector)
#SPECTRUM    : start of spectrum data
0, 0
0, 0
0, 0
0, 0
0, 0
0, 0
0, 0
2, 0
1, 0
1, 0
0, 1
40, 34
49, 29
0, 2
6, 6
103, 69
538, 476
89, 76
3, 1
2, 4
58, 5
67, 19
11, 5
6, 5
26, 23
39, 36
16, 12
17, 7
4, 4
3, 2
3, 2
0, 1
3, 4
15, 18
26, 76
4, 16
6, 9
3, 7
1, 4
5, 3
7, 4
9, 15
15, 22
16, 18
9, 8
7, 5
10, 4
6, 5
5, 11
15, 67
14, 115
6, 48
7, 13
60, 55
91, 77
30, 23
44, 35
671, 703
3635, 3520
2343, 1871
210, 134
39, 16
39, 23
159, 159
544, 520
358, 253
27, 24
5, 9
11, 12
2, 6
7, 2
3, 3
3, 4
1, 2
3, 6
4, 3
3, 2
2, 6
3, 4
1, 2
6, 14
2, 8
6, 4
1, 3
1, 6
2, 5
1, 4
1, 3
1, 3
2, 1
1, 3
3, 3
2, 2
1, 3
0, 4
4, 3
0, 4
2, 1
1, 9
2, 4
3, 6
3, 4
2, 0
2, 2
2, 1
0, 0
1, 2
0, 2
1, 1
4, 4
1, 0
2, 1
3, 4
5, 0
3, 2
6, 3
1, 4
4, 6
2, 2
0, 3
1, 4
2, 1
1, 2
2, 1
0, 1
1, 2
1, 2
1, 1
0, 2
1, 1
0, 0
2, 2
1, 1
0, 1
0, 2
0, 0
1, 0
0, 0
1, 1
0, 0
0, 0
1, 2
2, 0
0, 0
1, 0
0, 2
0, 1
0, 0
1, 0
0, 0
2, 1
0, 0
0, 1
1, 0
0, 1
0, 0
0, 0
0, 0
0, 0
0, 0
0, 0
0, 0
0, 0
0, 0
2, 0
0, 0
0, 0
0, 0
0, 1
0, 0
2, 0
0, 0
0, 0
0, 0
1, 0
0, 0
0, 0
0, 0
0, 0
0, 0
0, 0
0, 0
0, 0
0, 1
0, 0
0, 0
0, 0
0, 0
0, 0
0, 0
0, 0
0, 0
0, 0
0, 0
0, 0
0, 0
0, 0
0, 0
0, 0
0, 0
0, 0
0, 0
0, 0
0, 0
0, 0
0, 0
0, 0
0, 1
0, 0
0, 0
0, 0
0, 0
0, 0
0, 0
0, 0
0, 0
0, 0
0, 0
0, 0
0, 0
0, 0
0, 0
0, 0
0, 0
0, 0
0, 0
0, 0
0, 0
0, 0
0, 0
0, 0
0, 0
0, 0
0, 0
0, 0
0, 0
0, 0
0, 0
0, 0
0, 0
0, 0
0, 0
0, 0
0, 0
0, 0
0, 0
0, 0
0, 0
0, 0
0, 0
0, 0
0, 0
0, 0
0, 0
0, 0
0, 0
0, 0
0, 0
0, 0
0, 0
0, 0
0, 0
0, 0
0, 0
0, 0
0, 0
0, 0
0, 0
0, 0
0, 0
0, 0
0, 0
0, 0
0, 0
0, 0
0, 0
0, 0
0, 0
0, 0
0, 0
0, 0
0, 0
0, 0
0, 0
0, 0
0, 0
0, 0
0, 0
0, 0
0, 0
0, 0
0, 0
0, 0
0, 0
#ENDOFDATA     end of spectrum data