File: host_upload/12-01-2023/Dourbes (shot-by-shot)/upload_4/ps__0257_0689790785_000rfs_shot_3017.msa
#FORMAT      : EMSA/MAS spectral data file
#VERSION     : TC202v2.0 PIXL
#TITLE       : N/A
#DATE        :       Date in the format DD-MMM-YYYY, for example 07-JUL-2010
#TIME        :             The time of day at which the spectrum was recorded, in 24-hour format
#OWNER       : PIXL Flight Model       (PIXL will use this to indicate which instrument took the data.)
#NPOINTS     : 4096     Number of data points in the spectrum (This can be zero for configuration only files)
#NCOLUMNS    : 2     Number of data columns in the spectrum (This can be zero for configuration only files)
#XUNITS      : eV
#YUNITS      : COUNTS
#DATATYPE    : YY
#XPERCHAN    : 7.862, 7.881   eV per channel (separate by commas if more than one detector)
#OFFSET      : 18.5, -22.4         eV of first channel  (separate by commas if more than one detector
#SIGNALTYPE  : XRF
#YP_TEMP     : 2.941
#LIVETIME    : 9.01142, 8.98862   seconds (separate by commas if more than one detector)
#REALTIME    : 10, 10.0   seconds (separate by commas if more than one detector)
#SPECTRUM    : start of spectrum data
0, 0
0, 0
0, 0
0, 0
0, 0
0, 0
0, 0
1, 0
0, 0
2, 4
3, 2
35, 37
42, 40
0, 3
1, 5
74, 77
446, 483
82, 77
4, 3
4, 4
33, 2
38, 4
3, 2
1, 1
22, 21
32, 15
25, 12
8, 8
5, 2
3, 1
1, 4
3, 2
2, 0
17, 27
23, 61
3, 21
3, 3
5, 5
4, 4
4, 5
6, 6
4, 9
21, 15
21, 12
9, 2
14, 6
11, 8
7, 8
16, 13
10, 89
17, 152
11, 37
9, 13
59, 48
75, 105
24, 20
38, 34
627, 785
3409, 3785
2156, 1990
181, 135
29, 18
27, 32
144, 182
507, 577
293, 268
25, 19
3, 7
6, 16
4, 4
1, 7
2, 2
0, 4
5, 2
1, 9
2, 7
3, 5
2, 1
5, 1
5, 3
5, 9
1, 1
4, 3
3, 4
2, 2
1, 1
1, 6
2, 10
0, 7
4, 4
5, 1
3, 1
3, 4
1, 1
3, 0
4, 1
3, 3
3, 2
1, 8
1, 3
0, 11
2, 2
5, 2
5, 1
3, 0
1, 1
3, 0
0, 2
1, 2
1, 6
0, 1
1, 2
3, 2
1, 2
1, 0
3, 5
7, 8
4, 4
2, 1
1, 1
3, 1
6, 0
3, 2
1, 1
0, 1
0, 0
1, 1
0, 1
0, 0
0, 2
1, 0
0, 0
1, 1
0, 1
2, 0
2, 0
3, 1
0, 1
0, 0
0, 1
0, 1
1, 0
0, 0
0, 0
2, 0
0, 1
0, 0
0, 1
0, 1
0, 0
1, 1
0, 3
0, 0
1, 0
0, 0
1, 0
0, 0
1, 1
1, 1
1, 0
0, 1
0, 0
1, 0
1, 0
0, 0
0, 0
0, 1
0, 0
0, 1
0, 0
0, 1
0, 0
0, 0
0, 0
1, 0
0, 0
0, 0
0, 0
0, 0
0, 0
0, 0
0, 0
0, 0
0, 0
0, 0
0, 0
0, 0
0, 0
0, 0
0, 1
0, 0
0, 0
0, 0
0, 0
0, 0
0, 0
0, 0
0, 0
0, 0
0, 0
0, 0
0, 0
0, 0
0, 0
0, 0
0, 0
0, 0
1, 0
0, 0
0, 0
0, 0
0, 0
0, 0
0, 0
0, 0
0, 0
0, 0
0, 0
0, 0
1, 0
0, 0
0, 0
0, 0
0, 0
0, 0
0, 0
0, 0
0, 0
0, 0
0, 0
0, 0
0, 0
0, 0
0, 0
0, 0
0, 0
0, 0
0, 0
0, 0
0, 0
0, 0
0, 0
0, 0
0, 0
0, 0
0, 0
0, 0
0, 0
0, 0
0, 0
0, 0
0, 0
0, 0
0, 0
0, 0
0, 0
0, 0
0, 0
0, 0
0, 0
0, 0
0, 0
0, 0
0, 0
0, 0
0, 0
0, 0
0, 0
0, 0
0, 0
0, 0
0, 0
0, 0
0, 0
0, 0
0, 0
0, 0
0, 0
0, 0
0, 0
0, 0
0, 0
0, 0
0, 0
0, 0
0, 0
0, 0
0, 0
0, 0
0, 0
0, 0
0, 0
0, 0
0, 0
#ENDOFDATA     end of spectrum data