File: host_upload/12-01-2023/Dourbes (shot-by-shot)/upload_4/ps__0257_0689790785_000rfs_shot_3303.msa
#FORMAT      : EMSA/MAS spectral data file
#VERSION     : TC202v2.0 PIXL
#TITLE       : N/A
#DATE        :       Date in the format DD-MMM-YYYY, for example 07-JUL-2010
#TIME        :             The time of day at which the spectrum was recorded, in 24-hour format
#OWNER       : PIXL Flight Model       (PIXL will use this to indicate which instrument took the data.)
#NPOINTS     : 4096     Number of data points in the spectrum (This can be zero for configuration only files)
#NCOLUMNS    : 2     Number of data columns in the spectrum (This can be zero for configuration only files)
#XUNITS      : eV
#YUNITS      : COUNTS
#DATATYPE    : YY
#XPERCHAN    : 7.862, 7.881   eV per channel (separate by commas if more than one detector)
#OFFSET      : 18.5, -22.4         eV of first channel  (separate by commas if more than one detector
#SIGNALTYPE  : XRF
#YP_TEMP     : 3.069
#LIVETIME    : 8.99671, 8.98408   seconds (separate by commas if more than one detector)
#REALTIME    : 10, 10.0   seconds (separate by commas if more than one detector)
#SPECTRUM    : start of spectrum data
0, 0
0, 0
0, 0
0, 0
0, 0
0, 0
0, 0
2, 0
1, 1
2, 1
0, 2
27, 20
32, 48
8, 5
9, 10
104, 89
509, 547
123, 88
12, 17
16, 5
3, 2
6, 5
4, 6
4, 11
51, 64
60, 51
44, 40
21, 22
5, 3
3, 3
6, 6
6, 5
11, 9
50, 47
69, 79
11, 12
13, 8
10, 6
5, 8
5, 10
14, 11
22, 43
33, 35
30, 16
11, 6
12, 14
10, 24
15, 12
8, 11
20, 23
15, 16
17, 10
12, 29
76, 74
98, 103
26, 30
48, 51
669, 790
3553, 3848
2171, 1865
160, 131
29, 41
42, 43
156, 200
490, 562
317, 247
21, 17
5, 7
9, 4
9, 2
8, 2
6, 5
9, 1
7, 8
3, 4
8, 7
4, 1
2, 7
3, 5
3, 3
2, 6
6, 1
5, 4
7, 2
7, 4
2, 6
3, 5
2, 4
5, 2
3, 0
3, 2
4, 6
3, 3
2, 4
3, 1
5, 4
1, 4
3, 4
1, 2
3, 7
1, 5
0, 2
1, 3
1, 1
3, 2
4, 1
1, 2
4, 3
0, 1
2, 3
0, 0
0, 3
3, 4
1, 2
2, 4
1, 2
7, 6
4, 1
2, 1
2, 0
4, 1
3, 2
3, 2
1, 1
1, 0
0, 4
0, 2
0, 0
0, 0
0, 0
1, 2
1, 1
3, 1
1, 0
1, 1
0, 0
0, 1
0, 0
0, 0
0, 0
0, 2
0, 1
0, 0
0, 0
1, 1
1, 0
0, 1
2, 0
0, 0
1, 0
1, 0
0, 0
2, 0
0, 0
0, 0
0, 1
0, 1
0, 0
1, 1
2, 1
0, 0
0, 0
0, 0
1, 1
0, 0
0, 2
0, 1
1, 1
0, 1
1, 0
0, 0
0, 0
0, 1
2, 0
0, 0
0, 0
0, 1
0, 0
0, 0
0, 0
0, 0
0, 0
1, 0
0, 1
0, 0
0, 0
0, 1
0, 0
0, 0
0, 1
0, 0
0, 0
0, 0
0, 0
0, 0
0, 1
0, 0
0, 0
0, 0
0, 0
0, 0
0, 0
0, 0
0, 0
0, 0
0, 0
0, 0
0, 0
0, 0
0, 0
0, 0
0, 0
0, 0
1, 0
0, 0
0, 0
0, 0
0, 0
0, 0
0, 0
0, 0
0, 0
0, 0
0, 0
0, 0
0, 0
0, 0
0, 0
0, 0
0, 0
0, 0
0, 0
0, 0
0, 0
0, 0
0, 0
0, 0
0, 0
0, 0
0, 0
0, 0
0, 0
0, 0
0, 0
0, 0
0, 0
0, 0
0, 0
0, 0
0, 0
0, 0
0, 0
0, 0
0, 0
0, 0
0, 0
0, 0
0, 0
0, 0
0, 0
0, 0
0, 0
0, 0
0, 0
0, 0
0, 0
0, 0
0, 0
0, 0
0, 0
0, 0
0, 0
0, 0
0, 0
0, 0
0, 0
0, 0
0, 0
0, 0
0, 0
0, 0
0, 0
0, 0
0, 0
0, 0
0, 0
0, 0
0, 0
0, 0
0, 0
0, 0
0, 0
0, 0
0, 0
#ENDOFDATA     end of spectrum data