File: host_upload/12-01-2023/Dourbes (shot-by-shot)/upload_4/ps__0257_0689790785_000rfs_shot_3211.msa
#FORMAT      : EMSA/MAS spectral data file
#VERSION     : TC202v2.0 PIXL
#TITLE       : N/A
#DATE        :       Date in the format DD-MMM-YYYY, for example 07-JUL-2010
#TIME        :             The time of day at which the spectrum was recorded, in 24-hour format
#OWNER       : PIXL Flight Model       (PIXL will use this to indicate which instrument took the data.)
#NPOINTS     : 4096     Number of data points in the spectrum (This can be zero for configuration only files)
#NCOLUMNS    : 2     Number of data columns in the spectrum (This can be zero for configuration only files)
#XUNITS      : eV
#YUNITS      : COUNTS
#DATATYPE    : YY
#XPERCHAN    : 7.862, 7.881   eV per channel (separate by commas if more than one detector)
#OFFSET      : 18.5, -22.4         eV of first channel  (separate by commas if more than one detector
#SIGNALTYPE  : XRF
#YP_TEMP     : 3.294
#LIVETIME    : 8.96185, 8.98029   seconds (separate by commas if more than one detector)
#REALTIME    : 10, 10.0   seconds (separate by commas if more than one detector)
#SPECTRUM    : start of spectrum data
0, 0
0, 0
0, 0
0, 0
0, 0
0, 0
0, 0
0, 0
5, 0
19, 4
8, 1
22, 29
49, 38
2, 2
4, 1
50, 59
291, 329
61, 55
9, 4
2, 3
22, 17
85, 135
35, 31
48, 34
632, 151
1080, 120
74, 42
23, 23
8, 8
7, 5
5, 2
8, 5
8, 4
68, 85
95, 121
19, 11
12, 19
20, 20
4, 13
3, 12
7, 9
21, 31
26, 61
16, 41
7, 14
8, 15
10, 10
13, 15
14, 14
24, 12
14, 10
9, 12
9, 16
75, 85
96, 107
38, 29
44, 48
620, 873
3288, 3807
2168, 1877
156, 121
55, 19
73, 25
144, 163
519, 542
260, 262
25, 17
8, 7
6, 9
3, 7
4, 3
5, 10
0, 5
6, 7
3, 4
6, 5
7, 8
3, 2
3, 9
7, 5
5, 4
5, 6
4, 6
5, 0
4, 12
5, 5
3, 8
7, 4
3, 5
4, 1
5, 3
0, 3
6, 4
3, 0
2, 2
5, 3
0, 8
3, 4
7, 3
9, 2
6, 4
2, 2
1, 3
2, 1
0, 2
3, 1
1, 2
1, 2
0, 0
2, 2
4, 3
4, 0
1, 1
1, 0
1, 1
1, 3
9, 6
3, 2
3, 4
1, 0
0, 0
1, 0
5, 1
0, 0
2, 0
0, 0
0, 0
1, 1
1, 0
1, 1
2, 1
0, 0
1, 0
0, 0
1, 1
1, 1
0, 1
1, 1
0, 0
2, 1
0, 0
0, 0
0, 1
1, 1
0, 0
1, 1
0, 0
0, 0
2, 0
0, 0
1, 0
0, 0
0, 0
0, 0
0, 0
1, 0
0, 0
0, 0
0, 0
0, 0
0, 0
3, 0
1, 0
0, 0
0, 1
0, 0
0, 1
1, 1
0, 0
0, 0
0, 0
0, 0
0, 0
2, 0
0, 0
1, 0
0, 0
0, 0
0, 0
0, 0
1, 0
0, 0
0, 0
1, 0
0, 0
0, 0
0, 0
0, 0
0, 0
0, 0
0, 0
0, 0
0, 0
0, 0
1, 0
0, 0
0, 0
0, 0
0, 0
0, 0
0, 0
0, 0
0, 0
0, 0
0, 0
0, 0
0, 0
0, 0
0, 0
0, 0
0, 0
0, 0
0, 0
0, 0
0, 0
0, 0
0, 0
0, 0
0, 0
0, 0
0, 1
0, 0
0, 0
0, 1
0, 0
0, 0
0, 0
0, 0
0, 0
0, 0
0, 0
0, 0
0, 0
0, 0
0, 0
0, 0
0, 0
0, 0
0, 0
0, 0
0, 0
0, 0
0, 0
0, 0
0, 0
0, 0
0, 0
0, 0
0, 0
0, 0
0, 0
0, 0
0, 0
0, 0
0, 0
0, 0
0, 0
0, 0
0, 0
0, 0
0, 0
0, 0
0, 0
0, 0
0, 0
0, 0
0, 0
0, 0
0, 0
0, 0
0, 0
0, 0
0, 0
0, 0
0, 0
0, 0
0, 0
0, 0
0, 0
0, 0
0, 0
0, 0
0, 0
0, 0
0, 0
0, 0
0, 0
0, 0
0, 0
0, 0
0, 0
0, 0
0, 0
0, 0
#ENDOFDATA     end of spectrum data