File: host_upload/12-01-2023/Dourbes (shot-by-shot)/upload_4/ps__0257_0689790785_000rfs_shot_3187.msa
#FORMAT      : EMSA/MAS spectral data file
#VERSION     : TC202v2.0 PIXL
#TITLE       : N/A
#DATE        :       Date in the format DD-MMM-YYYY, for example 07-JUL-2010
#TIME        :             The time of day at which the spectrum was recorded, in 24-hour format
#OWNER       : PIXL Flight Model       (PIXL will use this to indicate which instrument took the data.)
#NPOINTS     : 4096     Number of data points in the spectrum (This can be zero for configuration only files)
#NCOLUMNS    : 2     Number of data columns in the spectrum (This can be zero for configuration only files)
#XUNITS      : eV
#YUNITS      : COUNTS
#DATATYPE    : YY
#XPERCHAN    : 7.862, 7.881   eV per channel (separate by commas if more than one detector)
#OFFSET      : 18.5, -22.4         eV of first channel  (separate by commas if more than one detector
#SIGNALTYPE  : XRF
#YP_TEMP     : 3.133
#LIVETIME    : 9.13984, 9.12723   seconds (separate by commas if more than one detector)
#REALTIME    : 10, 10.0   seconds (separate by commas if more than one detector)
#SPECTRUM    : start of spectrum data
0, 0
0, 0
0, 0
0, 0
0, 0
0, 0
0, 0
1, 0
0, 2
1, 1
1, 3
23, 25
31, 36
2, 10
6, 8
140, 112
809, 735
135, 116
17, 25
4, 2
4, 7
8, 9
5, 2
7, 7
25, 31
41, 69
23, 31
17, 34
7, 11
4, 4
3, 6
6, 4
29, 22
588, 609
968, 952
90, 63
97, 109
123, 100
21, 15
4, 9
13, 18
38, 44
19, 19
6, 9
20, 8
17, 15
7, 13
9, 8
16, 6
48, 62
34, 37
9, 10
11, 4
32, 36
66, 54
31, 26
63, 19
320, 288
1250, 1361
754, 666
66, 84
11, 15
12, 17
60, 55
194, 195
112, 102
17, 15
6, 11
9, 7
4, 2
3, 5
7, 6
11, 8
9, 5
10, 6
12, 6
9, 3
10, 6
2, 5
5, 7
2, 8
2, 3
5, 3
4, 3
5, 6
5, 11
10, 24
4, 15
1, 5
2, 3
4, 4
2, 5
3, 9
3, 7
2, 4
2, 5
3, 1
7, 0
4, 2
1, 3
4, 3
3, 2
3, 2
3, 3
9, 2
6, 2
4, 4
2, 4
3, 4
3, 3
1, 5
1, 7
1, 1
1, 7
1, 2
4, 1
3, 4
1, 3
0, 0
0, 0
2, 2
1, 3
2, 2
0, 1
0, 0
3, 3
0, 1
0, 1
2, 0
0, 0
0, 2
2, 1
0, 1
1, 0
2, 1
0, 0
0, 0
2, 3
0, 2
1, 0
1, 1
0, 1
0, 0
0, 1
0, 1
2, 1
2, 1
0, 0
2, 0
1, 0
2, 1
0, 1
0, 0
0, 0
0, 1
0, 0
0, 0
1, 0
1, 0
0, 1
2, 0
0, 1
1, 1
0, 1
0, 0
0, 0
0, 0
0, 0
1, 0
0, 1
0, 0
0, 0
0, 1
0, 0
0, 0
3, 0
1, 0
1, 0
1, 0
0, 1
0, 0
1, 0
0, 0
0, 0
0, 0
1, 0
0, 0
0, 0
1, 0
0, 0
0, 0
0, 0
0, 1
0, 0
0, 0
0, 0
0, 0
0, 0
0, 0
0, 0
0, 0
0, 0
0, 0
0, 0
0, 0
1, 0
0, 0
0, 0
0, 0
0, 0
0, 0
0, 0
0, 0
0, 0
0, 0
0, 0
0, 0
0, 0
0, 0
0, 0
0, 0
0, 0
0, 0
0, 0
0, 0
0, 0
0, 0
0, 0
0, 0
0, 0
0, 0
0, 0
0, 0
0, 0
0, 0
0, 0
0, 0
0, 0
0, 0
0, 0
0, 0
0, 0
0, 0
0, 0
0, 0
0, 0
0, 0
0, 0
0, 0
0, 0
0, 0
0, 0
0, 0
0, 0
0, 0
0, 0
0, 0
0, 0
0, 0
0, 0
0, 0
0, 0
0, 0
0, 0
0, 0
0, 0
0, 0
0, 0
0, 0
0, 0
0, 0
0, 0
0, 0
0, 0
0, 0
0, 0
0, 0
0, 0
0, 0
0, 0
0, 0
0, 0
0, 0
0, 0
0, 0
0, 0
0, 0
0, 0
0, 0
0, 0
0, 0
0, 0
0, 0
0, 0
#ENDOFDATA     end of spectrum data