File: host_upload/12-01-2023/Dourbes (shot-by-shot)/upload_4/ps__0257_0689790785_000rfs_shot_3066.msa
#FORMAT      : EMSA/MAS spectral data file
#VERSION     : TC202v2.0 PIXL
#TITLE       : N/A
#DATE        :       Date in the format DD-MMM-YYYY, for example 07-JUL-2010
#TIME        :             The time of day at which the spectrum was recorded, in 24-hour format
#OWNER       : PIXL Flight Model       (PIXL will use this to indicate which instrument took the data.)
#NPOINTS     : 4096     Number of data points in the spectrum (This can be zero for configuration only files)
#NCOLUMNS    : 2     Number of data columns in the spectrum (This can be zero for configuration only files)
#XUNITS      : eV
#YUNITS      : COUNTS
#DATATYPE    : YY
#XPERCHAN    : 7.862, 7.881   eV per channel (separate by commas if more than one detector)
#OFFSET      : 18.5, -22.4         eV of first channel  (separate by commas if more than one detector
#SIGNALTYPE  : XRF
#YP_TEMP     : 3.101
#LIVETIME    : 9.24764, 9.25125   seconds (separate by commas if more than one detector)
#REALTIME    : 10, 10.0   seconds (separate by commas if more than one detector)
#SPECTRUM    : start of spectrum data
0, 0
0, 0
0, 0
0, 0
0, 0
0, 0
0, 0
0, 0
1, 0
4, 4
9, 2
7, 5
10, 8
64, 54
132, 125
179, 127
1022, 969
162, 185
6, 16
4, 4
1, 1
6, 6
4, 4
14, 14
50, 58
41, 41
31, 19
12, 13
2, 4
20, 18
146, 166
65, 71
14, 18
38, 53
39, 37
5, 10
7, 10
9, 10
4, 0
2, 3
16, 4
31, 35
7, 7
4, 6
5, 11
8, 20
5, 21
6, 18
8, 10
13, 19
21, 14
33, 11
15, 7
9, 14
25, 13
28, 10
25, 11
80, 84
362, 389
216, 198
29, 17
18, 16
17, 15
25, 38
72, 93
39, 65
15, 16
10, 10
12, 9
10, 12
8, 5
8, 5
7, 9
11, 9
8, 14
6, 12
4, 6
6, 11
5, 3
6, 5
10, 7
8, 8
8, 7
13, 8
7, 8
10, 6
9, 4
8, 8
4, 6
11, 5
7, 4
6, 19
7, 9
13, 8
9, 8
6, 4
0, 4
6, 2
7, 5
3, 6
5, 9
5, 2
3, 6
6, 6
2, 3
3, 3
3, 5
3, 4
5, 4
6, 3
2, 4
2, 7
2, 8
1, 1
1, 0
2, 1
4, 2
1, 3
3, 3
1, 2
1, 2
4, 1
0, 1
2, 1
2, 2
1, 1
0, 1
1, 2
2, 1
1, 1
3, 0
3, 0
0, 1
4, 0
2, 1
1, 0
2, 0
1, 1
0, 1
0, 1
1, 2
1, 1
1, 0
0, 0
0, 0
1, 0
0, 0
0, 0
1, 0
1, 0
0, 0
0, 0
0, 1
1, 0
1, 0
2, 0
0, 1
0, 0
0, 1
0, 1
0, 1
1, 2
0, 0
0, 0
0, 0
1, 0
1, 0
0, 0
1, 0
0, 0
0, 0
0, 1
0, 0
0, 1
0, 0
0, 1
0, 1
0, 0
0, 0
0, 0
1, 0
0, 0
0, 0
1, 0
0, 0
0, 0
0, 0
2, 0
0, 0
0, 0
0, 1
0, 0
0, 0
0, 0
0, 0
0, 0
0, 0
0, 0
0, 0
0, 0
0, 0
0, 1
0, 0
0, 0
0, 1
0, 0
0, 0
0, 0
1, 0
0, 0
0, 0
0, 0
0, 0
0, 0
0, 0
0, 0
0, 0
0, 0
0, 1
0, 0
0, 0
0, 0
0, 0
0, 0
0, 0
0, 0
0, 0
0, 0
0, 0
0, 0
0, 0
0, 0
0, 0
0, 0
0, 0
0, 0
0, 0
0, 0
0, 0
0, 0
0, 0
0, 0
0, 0
0, 0
0, 0
0, 0
0, 0
0, 0
0, 0
0, 0
0, 0
0, 0
0, 0
0, 0
0, 0
0, 0
0, 0
0, 0
0, 0
0, 0
0, 0
0, 0
0, 0
0, 0
0, 0
0, 0
0, 0
0, 0
0, 0
0, 0
0, 0
0, 0
0, 0
0, 0
0, 0
0, 0
0, 0
0, 0
0, 0
0, 0
0, 0
0, 0
0, 0
0, 0
0, 0
0, 0
0, 0
0, 0
0, 0
0, 0
0, 0
0, 0
0, 0
0, 0
#ENDOFDATA     end of spectrum data