File: host_upload/12-01-2023/Dourbes (shot-by-shot)/upload_4/ps__0257_0689790785_000rfs_shot_3286.msa
#FORMAT      : EMSA/MAS spectral data file
#VERSION     : TC202v2.0 PIXL
#TITLE       : N/A
#DATE        :       Date in the format DD-MMM-YYYY, for example 07-JUL-2010
#TIME        :             The time of day at which the spectrum was recorded, in 24-hour format
#OWNER       : PIXL Flight Model       (PIXL will use this to indicate which instrument took the data.)
#NPOINTS     : 4096     Number of data points in the spectrum (This can be zero for configuration only files)
#NCOLUMNS    : 2     Number of data columns in the spectrum (This can be zero for configuration only files)
#XUNITS      : eV
#YUNITS      : COUNTS
#DATATYPE    : YY
#XPERCHAN    : 7.862, 7.881   eV per channel (separate by commas if more than one detector)
#OFFSET      : 18.5, -22.4         eV of first channel  (separate by commas if more than one detector
#SIGNALTYPE  : XRF
#YP_TEMP     : 3.454
#LIVETIME    : 9.11803, 9.12515   seconds (separate by commas if more than one detector)
#REALTIME    : 10, 10.0   seconds (separate by commas if more than one detector)
#SPECTRUM    : start of spectrum data
0, 0
0, 0
0, 0
0, 0
0, 0
0, 0
0, 0
0, 0
0, 1
1, 0
0, 0
24, 23
16, 25
14, 13
29, 35
152, 114
818, 854
136, 138
17, 12
10, 6
5, 5
5, 5
6, 3
6, 13
42, 64
45, 51
24, 32
15, 51
5, 26
3, 7
24, 26
22, 11
19, 20
438, 449
731, 633
56, 78
65, 120
93, 74
13, 8
4, 5
10, 25
52, 51
33, 18
1, 9
11, 14
14, 6
13, 5
7, 10
5, 10
32, 30
30, 29
3, 6
11, 14
39, 41
68, 54
21, 23
58, 20
348, 310
1447, 1528
989, 732
59, 61
12, 10
15, 24
57, 63
254, 240
151, 114
11, 13
13, 9
8, 5
8, 3
3, 5
7, 3
10, 8
2, 3
6, 5
6, 9
6, 5
9, 5
10, 6
5, 8
4, 6
5, 3
3, 3
13, 3
5, 4
1, 7
9, 12
4, 9
6, 11
3, 5
5, 2
12, 2
7, 7
8, 9
6, 3
4, 2
5, 3
1, 3
6, 4
1, 2
2, 2
3, 2
2, 2
1, 2
7, 2
0, 4
5, 4
7, 1
4, 5
1, 0
5, 4
1, 6
2, 4
3, 2
2, 2
1, 1
5, 3
1, 2
1, 3
0, 2
3, 0
2, 0
1, 1
1, 2
1, 1
1, 0
1, 1
0, 0
2, 1
1, 1
2, 1
0, 0
0, 2
2, 0
0, 2
0, 1
0, 1
2, 1
1, 1
0, 1
1, 0
0, 2
0, 0
0, 1
0, 0
0, 1
0, 1
0, 0
1, 2
1, 0
0, 0
1, 1
0, 0
0, 1
0, 0
0, 0
0, 2
1, 0
1, 0
1, 0
0, 0
0, 0
0, 0
1, 0
1, 0
0, 0
0, 0
0, 0
0, 0
0, 1
1, 0
0, 0
0, 0
0, 0
0, 0
0, 1
0, 0
0, 0
0, 0
1, 1
0, 0
0, 0
0, 0
0, 0
0, 1
0, 0
0, 0
0, 0
0, 0
0, 0
0, 0
0, 0
0, 0
0, 0
0, 0
0, 0
0, 0
0, 0
0, 0
0, 0
0, 0
0, 0
0, 0
0, 0
0, 0
0, 0
0, 0
0, 0
0, 0
0, 0
0, 0
0, 0
0, 0
0, 0
0, 0
0, 0
0, 0
0, 0
0, 0
0, 0
0, 0
0, 0
1, 0
0, 0
0, 0
0, 0
0, 0
0, 0
0, 0
0, 0
0, 0
0, 0
0, 0
0, 0
0, 0
0, 0
0, 0
0, 0
0, 0
0, 0
0, 0
0, 0
0, 0
0, 0
0, 0
0, 0
0, 0
0, 0
0, 0
0, 0
0, 0
0, 0
0, 0
0, 0
0, 0
0, 0
0, 0
0, 0
0, 0
0, 0
0, 0
0, 0
0, 0
0, 0
0, 0
0, 0
0, 0
0, 0
0, 0
0, 0
0, 0
0, 0
0, 0
0, 0
0, 0
0, 0
0, 0
0, 0
0, 0
0, 0
0, 0
0, 0
0, 0
0, 0
0, 0
0, 0
0, 0
0, 0
0, 0
0, 0
0, 0
0, 0
0, 0
0, 0
#ENDOFDATA     end of spectrum data