File: host_upload/12-01-2023/Dourbes (shot-by-shot)/upload_4/ps__0257_0689790785_000rfs_shot_3177.msa
#FORMAT      : EMSA/MAS spectral data file
#VERSION     : TC202v2.0 PIXL
#TITLE       : N/A
#DATE        :       Date in the format DD-MMM-YYYY, for example 07-JUL-2010
#TIME        :             The time of day at which the spectrum was recorded, in 24-hour format
#OWNER       : PIXL Flight Model       (PIXL will use this to indicate which instrument took the data.)
#NPOINTS     : 4096     Number of data points in the spectrum (This can be zero for configuration only files)
#NCOLUMNS    : 2     Number of data columns in the spectrum (This can be zero for configuration only files)
#XUNITS      : eV
#YUNITS      : COUNTS
#DATATYPE    : YY
#XPERCHAN    : 7.862, 7.881   eV per channel (separate by commas if more than one detector)
#OFFSET      : 18.5, -22.4         eV of first channel  (separate by commas if more than one detector
#SIGNALTYPE  : XRF
#YP_TEMP     : 3.005
#LIVETIME    : 9.05394, 9.04522   seconds (separate by commas if more than one detector)
#REALTIME    : 10, 10.0   seconds (separate by commas if more than one detector)
#SPECTRUM    : start of spectrum data
0, 0
0, 0
0, 0
0, 0
0, 0
0, 0
0, 0
0, 0
1, 0
3, 1
5, 3
18, 24
20, 29
37, 33
54, 45
121, 91
728, 661
132, 88
12, 4
0, 2
6, 2
2, 6
2, 3
4, 5
32, 43
32, 21
19, 16
8, 18
5, 5
7, 6
59, 48
23, 23
10, 10
19, 31
33, 23
4, 17
24, 45
14, 12
7, 5
6, 3
6, 5
15, 16
20, 14
13, 12
10, 7
3, 11
7, 13
8, 4
9, 5
17, 7
16, 12
18, 5
5, 12
35, 45
82, 75
27, 23
57, 46
522, 636
2931, 3195
1971, 1592
133, 98
23, 11
20, 33
142, 127
452, 437
239, 220
15, 19
4, 4
6, 11
8, 7
2, 14
3, 16
5, 16
7, 7
4, 4
4, 7
1, 6
3, 13
7, 5
4, 7
6, 8
4, 5
4, 4
6, 3
3, 7
4, 1
1, 4
7, 6
2, 4
1, 4
6, 6
5, 2
2, 6
6, 4
9, 4
7, 0
3, 3
2, 1
5, 7
1, 7
0, 5
3, 1
4, 4
2, 7
2, 3
2, 2
5, 2
1, 2
1, 1
4, 2
2, 2
3, 3
2, 4
2, 3
3, 0
0, 3
9, 4
8, 4
1, 2
1, 1
0, 0
2, 0
5, 1
0, 2
1, 1
0, 3
1, 0
0, 0
2, 0
3, 0
6, 0
1, 0
1, 0
0, 0
0, 2
1, 1
0, 1
0, 2
1, 3
0, 1
0, 1
0, 0
0, 1
1, 0
0, 0
1, 1
0, 2
1, 0
0, 1
0, 0
0, 0
1, 1
0, 1
0, 0
0, 0
0, 0
1, 1
0, 1
1, 0
2, 0
1, 0
0, 0
0, 0
0, 0
0, 1
0, 0
0, 0
1, 0
0, 1
0, 1
0, 0
0, 1
0, 0
0, 2
1, 0
0, 0
1, 0
0, 0
0, 0
0, 0
0, 0
0, 0
0, 0
0, 0
0, 0
0, 0
1, 0
0, 0
0, 0
0, 0
0, 0
1, 0
0, 0
0, 0
0, 0
1, 1
0, 0
0, 0
0, 0
0, 0
0, 0
0, 0
0, 1
0, 0
0, 0
0, 0
0, 0
0, 0
0, 0
0, 0
0, 0
0, 0
0, 0
0, 0
0, 0
0, 0
0, 0
0, 0
0, 0
0, 0
0, 0
0, 0
0, 0
0, 0
0, 0
0, 0
0, 0
0, 0
0, 0
0, 0
0, 0
0, 0
0, 0
0, 0
0, 0
0, 0
0, 0
0, 0
0, 0
0, 0
0, 0
0, 0
0, 0
0, 0
0, 0
0, 0
0, 0
0, 0
0, 0
0, 0
0, 0
0, 0
0, 0
0, 0
0, 0
0, 0
0, 0
0, 0
0, 0
0, 0
0, 0
0, 0
0, 0
0, 0
0, 0
0, 0
0, 0
0, 0
0, 0
0, 0
0, 0
0, 0
0, 0
0, 0
0, 0
0, 0
0, 0
0, 0
0, 0
0, 0
0, 0
0, 0
0, 0
0, 0
0, 0
0, 0
0, 0
0, 0
0, 0
0, 0
0, 0
0, 0
0, 0
0, 0
#ENDOFDATA     end of spectrum data