File: host_upload/12-01-2023/Dourbes (shot-by-shot)/upload_4/ps__0257_0689790785_000rfs_shot_3031.msa
#FORMAT      : EMSA/MAS spectral data file
#VERSION     : TC202v2.0 PIXL
#TITLE       : N/A
#DATE        :       Date in the format DD-MMM-YYYY, for example 07-JUL-2010
#TIME        :             The time of day at which the spectrum was recorded, in 24-hour format
#OWNER       : PIXL Flight Model       (PIXL will use this to indicate which instrument took the data.)
#NPOINTS     : 4096     Number of data points in the spectrum (This can be zero for configuration only files)
#NCOLUMNS    : 2     Number of data columns in the spectrum (This can be zero for configuration only files)
#XUNITS      : eV
#YUNITS      : COUNTS
#DATATYPE    : YY
#XPERCHAN    : 7.862, 7.881   eV per channel (separate by commas if more than one detector)
#OFFSET      : 18.5, -22.4         eV of first channel  (separate by commas if more than one detector
#SIGNALTYPE  : XRF
#YP_TEMP     : 3.133
#LIVETIME    : 9.08219, 9.08486   seconds (separate by commas if more than one detector)
#REALTIME    : 10, 10.0   seconds (separate by commas if more than one detector)
#SPECTRUM    : start of spectrum data
0, 0
0, 0
0, 0
0, 0
0, 0
0, 0
0, 0
0, 0
1, 3
1, 0
2, 1
20, 20
29, 23
18, 19
38, 33
94, 92
589, 630
92, 108
6, 7
3, 2
0, 5
28, 34
17, 8
22, 17
97, 133
91, 134
36, 46
25, 21
6, 9
6, 7
34, 30
18, 13
5, 10
35, 45
54, 46
5, 11
10, 5
12, 10
33, 10
6, 9
7, 10
13, 18
26, 21
16, 16
5, 12
18, 9
7, 10
8, 8
10, 7
5, 17
6, 11
12, 11
17, 8
39, 45
63, 108
29, 78
41, 34
434, 572
2422, 2486
1567, 1343
135, 83
13, 15
17, 32
96, 112
373, 402
203, 209
26, 23
3, 7
12, 7
9, 6
8, 3
8, 4
10, 5
7, 9
9, 5
6, 6
9, 3
12, 7
10, 7
10, 1
7, 4
2, 7
4, 4
4, 5
1, 2
5, 4
7, 9
6, 7
3, 5
3, 3
4, 2
5, 5
5, 6
4, 5
4, 5
3, 4
1, 3
3, 1
4, 2
4, 3
2, 1
2, 1
1, 3
2, 3
4, 6
1, 4
6, 4
5, 2
2, 3
2, 5
2, 0
2, 3
1, 4
8, 1
0, 3
4, 2
3, 5
2, 7
1, 5
1, 0
4, 1
1, 2
4, 3
0, 0
1, 1
0, 1
2, 0
3, 0
2, 0
0, 0
3, 2
0, 0
1, 0
1, 0
2, 0
0, 0
1, 0
0, 1
1, 0
1, 1
0, 0
1, 0
0, 1
0, 0
0, 0
0, 0
0, 0
0, 1
1, 0
0, 0
1, 0
0, 0
0, 0
0, 0
0, 1
0, 0
2, 1
0, 0
0, 1
0, 0
0, 1
0, 0
1, 0
0, 0
0, 0
0, 0
0, 0
1, 0
0, 0
0, 1
1, 0
1, 0
0, 0
0, 0
0, 1
0, 0
0, 0
0, 1
0, 1
0, 0
0, 0
0, 4
0, 0
0, 0
0, 0
0, 0
0, 0
1, 0
0, 0
0, 0
0, 0
0, 0
0, 0
0, 0
0, 0
0, 0
0, 1
0, 0
0, 0
0, 0
0, 0
0, 0
0, 0
0, 0
0, 0
0, 0
0, 0
0, 0
0, 0
0, 0
0, 0
0, 0
0, 0
0, 0
0, 0
0, 0
0, 0
0, 0
0, 0
0, 0
0, 0
0, 0
0, 0
0, 0
0, 0
0, 0
0, 0
0, 0
1, 0
0, 0
0, 0
0, 0
0, 0
0, 0
0, 0
0, 0
0, 0
0, 0
0, 0
0, 0
0, 0
0, 0
0, 0
0, 0
0, 0
0, 0
0, 0
0, 0
0, 0
0, 0
0, 0
0, 0
0, 0
0, 0
0, 0
0, 0
0, 0
0, 0
0, 0
0, 0
0, 0
0, 0
0, 0
0, 0
0, 0
0, 0
0, 0
0, 0
0, 0
0, 0
0, 0
0, 0
0, 0
0, 0
0, 0
0, 0
0, 0
0, 0
0, 0
0, 0
0, 0
0, 0
0, 0
0, 0
0, 0
0, 0
0, 0
0, 0
0, 0
0, 0
0, 0
0, 0
0, 0
0, 0
#ENDOFDATA     end of spectrum data