File: host_upload/12-01-2023/Dourbes (shot-by-shot)/upload_4/ps__0257_0689790785_000rfs_shot_3236.msa
#FORMAT      : EMSA/MAS spectral data file
#VERSION     : TC202v2.0 PIXL
#TITLE       : N/A
#DATE        :       Date in the format DD-MMM-YYYY, for example 07-JUL-2010
#TIME        :             The time of day at which the spectrum was recorded, in 24-hour format
#OWNER       : PIXL Flight Model       (PIXL will use this to indicate which instrument took the data.)
#NPOINTS     : 4096     Number of data points in the spectrum (This can be zero for configuration only files)
#NCOLUMNS    : 2     Number of data columns in the spectrum (This can be zero for configuration only files)
#XUNITS      : eV
#YUNITS      : COUNTS
#DATATYPE    : YY
#XPERCHAN    : 7.862, 7.881   eV per channel (separate by commas if more than one detector)
#OFFSET      : 18.5, -22.4         eV of first channel  (separate by commas if more than one detector
#SIGNALTYPE  : XRF
#YP_TEMP     : 3.037
#LIVETIME    : 9.01575, 8.99158   seconds (separate by commas if more than one detector)
#REALTIME    : 10, 10.0   seconds (separate by commas if more than one detector)
#SPECTRUM    : start of spectrum data
0, 0
0, 0
0, 0
0, 0
0, 0
0, 0
0, 0
0, 0
4, 4
3, 4
3, 5
19, 21
25, 33
4, 4
8, 9
85, 70
504, 527
86, 85
3, 7
1, 3
5, 10
51, 62
8, 29
40, 52
178, 208
143, 155
58, 50
26, 35
7, 15
6, 8
6, 6
5, 3
7, 9
45, 73
71, 100
8, 14
10, 20
11, 21
20, 22
7, 11
15, 16
31, 27
31, 33
16, 28
13, 13
18, 24
6, 10
10, 9
19, 23
29, 31
19, 21
13, 16
13, 16
66, 85
109, 104
27, 28
45, 45
566, 813
3031, 3710
1857, 1817
146, 124
28, 27
39, 45
137, 159
456, 569
288, 269
25, 13
9, 5
12, 5
4, 10
9, 8
9, 5
8, 6
6, 10
6, 6
7, 10
9, 5
8, 6
4, 6
4, 13
10, 7
5, 9
3, 3
7, 3
5, 5
1, 5
4, 3
5, 5
7, 1
6, 4
4, 2
6, 4
5, 7
5, 6
3, 6
3, 0
2, 4
2, 2
1, 2
2, 6
2, 3
4, 3
3, 3
2, 3
2, 5
2, 1
2, 3
2, 4
4, 1
2, 5
0, 1
1, 3
1, 2
2, 1
4, 3
0, 3
4, 8
5, 4
1, 1
0, 0
0, 1
2, 3
6, 3
1, 2
3, 0
3, 3
0, 0
0, 0
2, 3
1, 0
0, 0
0, 1
3, 2
0, 1
0, 0
0, 0
2, 1
0, 2
0, 2
0, 0
0, 1
2, 1
0, 1
1, 0
1, 0
1, 2
2, 1
0, 0
0, 1
0, 1
0, 0
0, 0
1, 1
0, 0
0, 0
0, 0
2, 0
2, 1
0, 0
0, 0
0, 0
0, 1
0, 0
0, 0
0, 0
0, 0
0, 0
0, 0
0, 0
0, 0
0, 0
0, 0
1, 1
0, 0
0, 0
0, 0
0, 0
0, 0
0, 1
0, 0
0, 0
0, 0
0, 1
0, 0
0, 0
0, 0
0, 0
0, 0
1, 0
0, 0
0, 0
0, 0
0, 0
0, 0
0, 0
0, 0
0, 0
0, 0
0, 1
0, 0
0, 0
0, 0
0, 0
0, 0
0, 0
0, 0
0, 0
0, 0
0, 0
0, 0
0, 0
0, 0
0, 0
0, 0
0, 0
0, 0
0, 0
0, 0
0, 0
0, 0
0, 0
0, 0
0, 0
0, 0
0, 0
1, 0
0, 0
0, 0
0, 0
0, 0
0, 0
0, 0
0, 0
0, 0
0, 0
0, 0
0, 0
0, 0
0, 0
0, 0
0, 0
0, 0
0, 0
0, 0
0, 0
0, 0
0, 0
0, 0
0, 0
0, 0
0, 0
0, 0
0, 0
0, 0
0, 0
0, 0
0, 0
0, 0
0, 0
0, 0
0, 0
0, 0
0, 0
0, 0
0, 0
0, 0
0, 0
0, 0
0, 0
0, 0
0, 0
0, 0
0, 0
0, 0
0, 0
0, 0
0, 0
0, 0
0, 0
0, 0
0, 0
0, 0
0, 0
0, 0
0, 0
0, 0
0, 0
0, 0
0, 0
0, 0
0, 0
0, 0
0, 0
0, 0
#ENDOFDATA     end of spectrum data