File: host_upload/12-01-2023/Dourbes (shot-by-shot)/upload_4/ps__0257_0689790785_000rfs_shot_3184.msa
#FORMAT      : EMSA/MAS spectral data file
#VERSION     : TC202v2.0 PIXL
#TITLE       : N/A
#DATE        :       Date in the format DD-MMM-YYYY, for example 07-JUL-2010
#TIME        :             The time of day at which the spectrum was recorded, in 24-hour format
#OWNER       : PIXL Flight Model       (PIXL will use this to indicate which instrument took the data.)
#NPOINTS     : 4096     Number of data points in the spectrum (This can be zero for configuration only files)
#NCOLUMNS    : 2     Number of data columns in the spectrum (This can be zero for configuration only files)
#XUNITS      : eV
#YUNITS      : COUNTS
#DATATYPE    : YY
#XPERCHAN    : 7.862, 7.881   eV per channel (separate by commas if more than one detector)
#OFFSET      : 18.5, -22.4         eV of first channel  (separate by commas if more than one detector
#SIGNALTYPE  : XRF
#YP_TEMP     : 3.262
#LIVETIME    : 9.12891, 9.13252   seconds (separate by commas if more than one detector)
#REALTIME    : 10, 10.0   seconds (separate by commas if more than one detector)
#SPECTRUM    : start of spectrum data
0, 0
0, 0
0, 0
0, 0
0, 0
0, 0
0, 0
0, 0
1, 2
1, 1
0, 1
24, 18
29, 20
6, 4
21, 10
146, 131
836, 878
133, 119
15, 22
3, 3
4, 5
3, 5
1, 2
3, 3
17, 17
27, 26
8, 18
13, 18
6, 3
3, 4
2, 8
3, 2
27, 27
671, 730
1046, 1045
116, 85
119, 108
154, 152
29, 12
2, 3
11, 5
37, 32
11, 11
3, 3
5, 4
15, 9
12, 20
1, 20
8, 16
36, 53
38, 29
4, 2
5, 4
24, 31
54, 44
13, 9
127, 15
413, 268
1095, 1238
644, 563
56, 40
7, 8
6, 11
64, 65
183, 197
118, 80
15, 21
9, 7
4, 3
8, 5
1, 9
4, 7
4, 4
5, 7
6, 6
9, 7
7, 5
5, 10
2, 9
2, 3
2, 7
0, 2
3, 4
6, 4
5, 10
5, 21
2, 36
8, 13
5, 3
4, 5
7, 5
2, 2
5, 15
8, 3
6, 3
2, 2
3, 2
1, 3
1, 2
1, 1
6, 3
5, 4
1, 1
4, 8
5, 2
14, 4
13, 2
3, 2
2, 0
3, 3
0, 3
2, 2
2, 4
2, 1
1, 4
2, 0
1, 2
2, 4
3, 0
0, 3
1, 2
1, 0
2, 4
4, 1
2, 2
2, 0
0, 1
1, 1
1, 0
1, 3
0, 2
0, 2
2, 1
0, 2
1, 2
0, 2
0, 0
2, 0
0, 1
0, 1
0, 0
1, 1
0, 0
1, 0
0, 3
0, 1
0, 1
2, 3
1, 1
0, 0
1, 1
1, 1
1, 1
0, 0
1, 0
0, 0
0, 0
0, 0
0, 1
1, 0
0, 1
0, 0
2, 0
0, 0
1, 0
0, 0
0, 0
1, 0
1, 0
1, 0
2, 0
0, 0
0, 0
1, 0
0, 1
0, 0
0, 0
0, 0
0, 1
0, 0
0, 0
0, 0
0, 0
0, 0
0, 1
0, 1
0, 0
1, 0
1, 0
0, 0
0, 0
0, 0
0, 0
0, 0
0, 0
0, 0
0, 0
0, 0
0, 0
0, 0
0, 0
0, 0
0, 0
1, 0
0, 0
0, 0
0, 0
0, 0
0, 0
0, 0
0, 0
0, 0
0, 0
0, 0
0, 0
0, 0
0, 0
0, 0
0, 0
0, 0
0, 0
0, 0
1, 0
0, 0
0, 0
0, 0
0, 0
0, 0
0, 0
0, 0
0, 0
0, 0
0, 0
0, 0
0, 0
0, 0
0, 0
0, 0
0, 0
0, 0
0, 0
0, 0
0, 0
0, 0
0, 0
0, 0
0, 0
0, 0
0, 0
0, 0
0, 0
0, 0
0, 0
0, 0
0, 0
0, 0
0, 0
0, 0
0, 0
0, 0
0, 0
0, 0
0, 0
0, 0
0, 0
0, 0
0, 0
0, 0
0, 0
0, 0
0, 0
0, 0
0, 0
0, 0
0, 0
0, 0
0, 0
0, 0
0, 0
0, 0
0, 0
0, 0
0, 0
0, 0
0, 0
0, 0
0, 0
0, 0
0, 0
0, 0
0, 0
0, 0
0, 0
0, 0
#ENDOFDATA     end of spectrum data