File: host_upload/12-01-2023/Dourbes (shot-by-shot)/upload_4/ps__0257_0689790785_000rfs_shot_3201.msa
#FORMAT      : EMSA/MAS spectral data file
#VERSION     : TC202v2.0 PIXL
#TITLE       : N/A
#DATE        :       Date in the format DD-MMM-YYYY, for example 07-JUL-2010
#TIME        :             The time of day at which the spectrum was recorded, in 24-hour format
#OWNER       : PIXL Flight Model       (PIXL will use this to indicate which instrument took the data.)
#NPOINTS     : 4096     Number of data points in the spectrum (This can be zero for configuration only files)
#NCOLUMNS    : 2     Number of data columns in the spectrum (This can be zero for configuration only files)
#XUNITS      : eV
#YUNITS      : COUNTS
#DATATYPE    : YY
#XPERCHAN    : 7.862, 7.881   eV per channel (separate by commas if more than one detector)
#OFFSET      : 18.5, -22.4         eV of first channel  (separate by commas if more than one detector
#SIGNALTYPE  : XRF
#YP_TEMP     : 3.005
#LIVETIME    : 9.04522, 9.03158   seconds (separate by commas if more than one detector)
#REALTIME    : 10, 10.0   seconds (separate by commas if more than one detector)
#SPECTRUM    : start of spectrum data
0, 0
0, 0
0, 0
0, 0
0, 0
0, 0
0, 0
0, 1
1, 1
2, 0
1, 4
25, 23
31, 29
3, 2
7, 9
92, 107
600, 697
100, 108
6, 8
2, 5
7, 3
27, 34
12, 14
13, 22
110, 106
82, 73
22, 31
13, 16
9, 4
2, 4
6, 6
5, 3
5, 2
17, 26
40, 46
7, 6
8, 8
5, 8
3, 8
6, 2
4, 15
20, 19
29, 31
15, 14
7, 9
11, 17
6, 12
6, 11
23, 17
42, 13
45, 14
12, 19
11, 23
41, 54
69, 75
25, 25
29, 39
579, 758
2968, 3403
1707, 1661
115, 107
25, 16
30, 21
120, 163
434, 535
226, 231
22, 22
7, 13
6, 5
7, 5
5, 2
4, 4
1, 4
9, 6
19, 7
18, 6
5, 3
3, 4
4, 11
10, 2
3, 2
3, 5
5, 5
5, 4
6, 9
4, 2
5, 0
3, 3
4, 9
1, 4
4, 3
4, 5
4, 9
3, 7
3, 13
1, 8
1, 4
1, 2
2, 1
2, 1
2, 3
1, 3
1, 1
1, 1
0, 1
1, 3
3, 5
2, 3
3, 0
3, 2
3, 5
2, 1
2, 1
1, 1
1, 1
2, 6
9, 5
3, 8
1, 0
1, 0
4, 2
2, 2
1, 3
5, 2
0, 0
1, 1
2, 1
0, 1
1, 2
0, 1
0, 0
1, 0
2, 1
0, 1
0, 0
0, 1
0, 3
0, 1
0, 0
0, 0
0, 0
0, 0
1, 0
0, 1
2, 2
1, 1
0, 0
0, 0
0, 0
0, 0
0, 1
0, 0
0, 0
1, 0
0, 0
0, 0
1, 0
0, 0
0, 0
1, 0
1, 1
0, 0
0, 1
0, 0
0, 0
1, 0
1, 0
0, 0
0, 0
1, 1
0, 0
1, 0
0, 0
0, 1
0, 0
0, 0
0, 0
0, 1
0, 0
1, 0
0, 0
0, 0
0, 0
1, 0
0, 0
0, 0
0, 0
0, 0
0, 0
0, 0
0, 0
0, 0
0, 0
0, 0
0, 0
0, 0
0, 0
0, 0
0, 0
0, 0
0, 0
0, 0
0, 0
0, 0
0, 0
0, 0
0, 0
0, 0
0, 0
0, 0
0, 0
0, 0
0, 0
0, 0
0, 0
0, 0
0, 0
0, 0
0, 0
0, 0
0, 0
0, 0
0, 0
0, 0
0, 0
0, 0
0, 0
0, 0
0, 0
0, 0
0, 0
0, 0
0, 0
0, 0
0, 0
0, 0
0, 0
0, 0
0, 0
0, 0
0, 0
0, 0
0, 0
0, 0
0, 0
0, 0
0, 0
0, 0
0, 0
0, 0
0, 0
0, 0
0, 0
0, 0
0, 0
0, 0
0, 0
0, 0
0, 0
0, 0
0, 0
0, 0
0, 0
0, 0
0, 0
0, 0
0, 0
0, 0
0, 0
0, 0
0, 0
0, 0
0, 0
0, 0
0, 0
0, 0
0, 0
0, 0
0, 0
0, 0
0, 0
0, 0
0, 0
0, 0
0, 0
0, 0
0, 0
0, 0
0, 0
0, 0
0, 0
0, 0
0, 0
0, 0
#ENDOFDATA     end of spectrum data