File: host_upload/12-01-2023/Dourbes (shot-by-shot)/upload_4/ps__0257_0689790785_000rfs_shot_3043.msa
#FORMAT      : EMSA/MAS spectral data file
#VERSION     : TC202v2.0 PIXL
#TITLE       : N/A
#DATE        :       Date in the format DD-MMM-YYYY, for example 07-JUL-2010
#TIME        :             The time of day at which the spectrum was recorded, in 24-hour format
#OWNER       : PIXL Flight Model       (PIXL will use this to indicate which instrument took the data.)
#NPOINTS     : 4096     Number of data points in the spectrum (This can be zero for configuration only files)
#NCOLUMNS    : 2     Number of data columns in the spectrum (This can be zero for configuration only files)
#XUNITS      : eV
#YUNITS      : COUNTS
#DATATYPE    : YY
#XPERCHAN    : 7.862, 7.881   eV per channel (separate by commas if more than one detector)
#OFFSET      : 18.5, -22.4         eV of first channel  (separate by commas if more than one detector
#SIGNALTYPE  : XRF
#YP_TEMP     : 3.454
#LIVETIME    : 9.001, 9.00839   seconds (separate by commas if more than one detector)
#REALTIME    : 10, 10.0   seconds (separate by commas if more than one detector)
#SPECTRUM    : start of spectrum data
0, 0
0, 0
0, 0
0, 0
0, 0
0, 0
0, 0
0, 0
1, 2
0, 1
2, 1
35, 30
33, 46
4, 1
4, 3
77, 63
517, 453
90, 55
8, 3
1, 1
34, 1
46, 8
4, 4
0, 4
19, 9
27, 18
16, 15
9, 10
4, 2
3, 1
4, 4
1, 3
2, 5
12, 22
25, 59
4, 16
4, 3
11, 7
2, 3
4, 4
5, 8
8, 13
20, 9
12, 16
4, 4
10, 5
10, 9
9, 11
11, 13
12, 84
6, 136
6, 52
10, 17
63, 63
109, 78
30, 20
35, 34
649, 776
3463, 3703
2330, 1841
184, 119
30, 17
27, 23
155, 159
522, 517
318, 265
26, 22
10, 7
3, 9
9, 7
1, 2
4, 3
1, 3
2, 3
4, 4
3, 2
5, 2
4, 3
5, 0
5, 5
6, 14
3, 17
8, 5
6, 5
2, 4
3, 4
2, 6
1, 4
3, 8
1, 3
1, 2
3, 1
2, 4
3, 2
0, 2
0, 4
3, 2
4, 5
2, 3
4, 8
0, 9
4, 3
4, 1
5, 0
3, 2
0, 2
1, 1
2, 1
0, 0
1, 1
2, 1
2, 3
3, 1
3, 1
0, 1
4, 3
6, 5
6, 6
6, 3
2, 1
0, 0
2, 3
3, 1
1, 0
0, 0
2, 0
0, 1
0, 1
0, 2
0, 0
2, 0
1, 2
0, 2
0, 0
1, 2
0, 0
1, 0
0, 0
0, 0
2, 0
0, 0
0, 1
0, 1
1, 0
0, 0
0, 1
0, 1
0, 0
0, 1
0, 0
0, 0
1, 0
0, 1
0, 0
0, 0
1, 0
0, 0
2, 1
0, 0
0, 0
1, 1
0, 0
0, 0
1, 0
0, 0
0, 0
0, 0
1, 0
1, 0
2, 1
1, 0
0, 0
0, 0
0, 0
0, 0
1, 0
0, 1
0, 0
0, 0
0, 0
2, 0
0, 0
0, 0
0, 0
0, 0
0, 0
0, 0
0, 0
1, 0
0, 0
0, 0
0, 0
0, 0
0, 0
0, 0
0, 0
0, 0
0, 0
0, 1
0, 0
0, 0
0, 0
0, 0
0, 0
0, 0
0, 0
0, 0
0, 0
0, 0
0, 0
0, 0
0, 0
0, 0
0, 1
0, 0
0, 0
0, 0
0, 0
0, 0
0, 0
0, 0
0, 0
0, 0
0, 0
0, 0
0, 0
0, 0
0, 0
0, 0
0, 0
0, 0
0, 0
0, 0
0, 0
0, 0
0, 0
0, 0
0, 0
0, 0
0, 0
0, 0
0, 0
0, 0
0, 0
0, 0
0, 0
0, 0
0, 0
0, 0
0, 0
0, 0
0, 0
0, 0
0, 0
0, 0
0, 0
0, 0
0, 0
0, 0
0, 0
0, 0
0, 0
0, 0
0, 0
0, 0
0, 0
0, 0
0, 0
0, 0
0, 0
0, 0
0, 0
0, 0
0, 0
0, 0
0, 0
0, 0
0, 0
0, 0
0, 0
0, 0
0, 0
0, 0
0, 0
0, 0
0, 0
0, 0
0, 0
0, 0
0, 0
0, 0
0, 0
0, 0
0, 0
#ENDOFDATA     end of spectrum data