File: host_upload/12-01-2023/Dourbes (shot-by-shot)/upload_4/ps__0257_0689790785_000rfs_shot_3199.msa
#FORMAT      : EMSA/MAS spectral data file
#VERSION     : TC202v2.0 PIXL
#TITLE       : N/A
#DATE        :       Date in the format DD-MMM-YYYY, for example 07-JUL-2010
#TIME        :             The time of day at which the spectrum was recorded, in 24-hour format
#OWNER       : PIXL Flight Model       (PIXL will use this to indicate which instrument took the data.)
#NPOINTS     : 4096     Number of data points in the spectrum (This can be zero for configuration only files)
#NCOLUMNS    : 2     Number of data columns in the spectrum (This can be zero for configuration only files)
#XUNITS      : eV
#YUNITS      : COUNTS
#DATATYPE    : YY
#XPERCHAN    : 7.862, 7.881   eV per channel (separate by commas if more than one detector)
#OFFSET      : 18.5, -22.4         eV of first channel  (separate by commas if more than one detector
#SIGNALTYPE  : XRF
#YP_TEMP     : 2.973
#LIVETIME    : 9.01548, 9.01407   seconds (separate by commas if more than one detector)
#REALTIME    : 10, 10.0   seconds (separate by commas if more than one detector)
#SPECTRUM    : start of spectrum data
0, 0
0, 0
0, 0
0, 0
0, 0
0, 0
0, 0
0, 0
0, 1
1, 0
0, 0
30, 27
35, 31
5, 8
12, 10
81, 83
529, 580
91, 87
7, 5
1, 4
1, 0
21, 13
6, 6
8, 15
62, 62
60, 64
27, 23
18, 13
2, 4
5, 5
13, 20
4, 7
6, 4
27, 26
30, 31
8, 5
11, 9
15, 11
2, 5
7, 10
21, 14
28, 37
24, 31
20, 13
7, 8
7, 11
8, 7
8, 4
12, 15
18, 12
4, 8
8, 9
13, 13
52, 66
80, 100
28, 51
26, 49
642, 813
3182, 3731
2026, 1737
143, 115
53, 20
79, 17
132, 161
502, 537
263, 231
31, 18
6, 6
6, 6
4, 2
2, 5
2, 4
5, 4
4, 8
8, 1
2, 8
7, 5
6, 5
8, 2
7, 5
3, 5
4, 4
6, 3
4, 3
6, 4
3, 1
3, 2
3, 3
2, 4
0, 4
3, 3
3, 4
2, 3
1, 3
6, 2
1, 1
4, 1
3, 3
1, 1
2, 4
0, 1
2, 4
2, 3
6, 1
2, 0
1, 3
1, 1
4, 2
0, 0
1, 4
0, 1
2, 2
2, 2
1, 1
0, 2
0, 2
7, 8
2, 7
1, 0
2, 2
1, 1
1, 2
1, 2
4, 1
0, 0
0, 1
0, 2
0, 0
1, 1
4, 0
2, 0
2, 0
1, 1
1, 0
0, 1
1, 0
1, 0
0, 0
0, 0
2, 0
0, 0
1, 1
0, 2
0, 1
0, 0
0, 0
0, 0
0, 0
0, 0
1, 1
0, 1
0, 0
0, 0
0, 1
0, 0
0, 0
1, 0
1, 0
0, 0
0, 0
0, 0
0, 0
0, 0
0, 0
0, 0
0, 0
0, 0
0, 0
1, 0
0, 1
0, 0
0, 0
2, 0
0, 0
0, 0
0, 0
0, 1
0, 0
0, 0
1, 0
0, 0
0, 0
1, 0
0, 0
0, 0
0, 0
0, 0
0, 0
0, 0
0, 0
0, 0
0, 0
1, 0
0, 0
1, 0
0, 0
0, 0
0, 0
0, 0
0, 0
0, 0
0, 0
0, 0
0, 0
0, 0
0, 0
0, 0
0, 0
0, 0
0, 0
0, 0
0, 0
0, 0
0, 0
0, 0
0, 0
0, 0
0, 0
0, 0
0, 0
0, 0
0, 0
0, 0
0, 0
0, 0
0, 0
0, 0
0, 0
0, 0
0, 0
0, 0
0, 0
0, 1
0, 0
0, 0
0, 0
0, 0
0, 0
0, 0
0, 0
0, 0
0, 0
0, 0
0, 0
0, 0
0, 0
0, 0
0, 0
0, 0
0, 0
0, 0
0, 0
0, 0
0, 0
0, 0
0, 0
0, 0
0, 0
0, 0
0, 0
0, 0
0, 0
0, 0
0, 0
0, 0
0, 0
0, 0
0, 0
0, 0
0, 0
0, 0
0, 0
0, 0
0, 0
0, 0
0, 0
0, 0
0, 0
0, 0
0, 0
0, 0
0, 0
0, 0
0, 0
0, 0
0, 0
0, 0
0, 0
0, 0
0, 0
0, 0
0, 0
0, 0
0, 0
#ENDOFDATA     end of spectrum data