File: host_upload/12-01-2023/Dourbes (shot-by-shot)/upload_4/ps__0257_0689790785_000rfs_shot_3003.msa
#FORMAT      : EMSA/MAS spectral data file
#VERSION     : TC202v2.0 PIXL
#TITLE       : N/A
#DATE        :       Date in the format DD-MMM-YYYY, for example 07-JUL-2010
#TIME        :             The time of day at which the spectrum was recorded, in 24-hour format
#OWNER       : PIXL Flight Model       (PIXL will use this to indicate which instrument took the data.)
#NPOINTS     : 4096     Number of data points in the spectrum (This can be zero for configuration only files)
#NCOLUMNS    : 2     Number of data columns in the spectrum (This can be zero for configuration only files)
#XUNITS      : eV
#YUNITS      : COUNTS
#DATATYPE    : YY
#XPERCHAN    : 7.862, 7.881   eV per channel (separate by commas if more than one detector)
#OFFSET      : 18.5, -22.4         eV of first channel  (separate by commas if more than one detector
#SIGNALTYPE  : XRF
#YP_TEMP     : 3.005
#LIVETIME    : 9.12943, 9.1403   seconds (separate by commas if more than one detector)
#REALTIME    : 10, 10.0   seconds (separate by commas if more than one detector)
#SPECTRUM    : start of spectrum data
0, 0
0, 0
0, 0
0, 0
0, 0
0, 0
0, 0
0, 1
3, 3
12, 3
3, 2
27, 21
26, 30
18, 17
30, 32
90, 102
668, 697
101, 115
39, 45
40, 42
14, 17
70, 92
32, 26
38, 40
362, 171
412, 91
98, 69
23, 22
9, 7
10, 7
50, 85
35, 35
33, 17
136, 192
210, 221
20, 24
32, 26
30, 37
9, 7
5, 13
15, 10
37, 40
23, 31
16, 18
9, 12
15, 18
19, 10
32, 11
41, 14
22, 13
12, 7
13, 13
10, 17
25, 30
34, 34
16, 25
20, 31
260, 357
1473, 1701
923, 906
86, 75
22, 14
30, 12
70, 115
270, 280
113, 121
16, 13
6, 6
17, 10
10, 6
2, 9
7, 9
10, 5
9, 10
8, 20
2, 7
9, 5
6, 6
9, 5
7, 11
3, 6
5, 5
7, 4
4, 13
7, 6
6, 7
5, 2
9, 8
5, 7
6, 2
4, 2
3, 6
6, 2
1, 7
5, 3
7, 2
2, 3
4, 3
6, 4
7, 2
5, 4
3, 1
2, 3
1, 8
1, 6
3, 2
5, 3
3, 1
3, 2
4, 2
5, 4
3, 3
2, 2
4, 2
4, 1
2, 3
2, 1
0, 1
0, 1
2, 0
1, 0
3, 1
2, 2
0, 0
0, 0
2, 1
0, 1
2, 1
3, 0
3, 1
0, 3
0, 0
1, 0
0, 0
2, 1
2, 1
1, 0
0, 2
2, 0
0, 2
1, 0
2, 0
2, 0
0, 2
1, 1
0, 0
0, 1
1, 1
0, 0
1, 0
0, 0
0, 1
0, 0
0, 0
1, 0
1, 1
1, 0
1, 1
0, 0
0, 0
0, 0
0, 0
0, 0
0, 0
1, 1
0, 0
0, 0
1, 0
0, 0
0, 0
0, 0
0, 1
0, 0
0, 0
0, 1
1, 0
0, 0
0, 0
0, 0
0, 0
0, 0
0, 0
0, 0
0, 0
0, 0
0, 0
0, 0
0, 0
0, 0
1, 1
0, 0
0, 0
0, 0
1, 0
0, 0
0, 0
0, 0
0, 0
0, 0
0, 0
0, 1
0, 0
0, 0
0, 0
1, 0
0, 0
0, 0
0, 0
0, 0
0, 0
0, 0
0, 0
0, 0
0, 0
0, 0
0, 0
0, 0
0, 0
0, 0
0, 0
0, 0
0, 0
0, 0
0, 0
0, 0
0, 0
0, 0
0, 0
0, 0
0, 0
0, 0
0, 0
0, 0
0, 0
0, 0
0, 0
0, 0
0, 0
0, 0
0, 0
0, 0
0, 0
0, 0
0, 0
0, 0
0, 0
0, 0
0, 0
0, 0
0, 0
0, 0
0, 0
0, 0
0, 0
0, 0
0, 0
0, 0
0, 0
0, 0
0, 0
0, 0
0, 0
0, 0
0, 0
0, 0
0, 0
0, 0
0, 0
0, 0
0, 0
0, 0
0, 0
0, 0
0, 0
0, 0
0, 0
0, 0
0, 0
0, 0
0, 0
0, 0
0, 0
0, 0
0, 0
0, 0
0, 0
0, 0
0, 0
0, 0
0, 0
0, 0
0, 0
0, 0
0, 0
#ENDOFDATA     end of spectrum data