File: host_upload/12-01-2023/Dourbes (shot-by-shot)/upload_4/ps__0257_0689790785_000rfs_shot_3317.msa
#FORMAT      : EMSA/MAS spectral data file
#VERSION     : TC202v2.0 PIXL
#TITLE       : N/A
#DATE        :       Date in the format DD-MMM-YYYY, for example 07-JUL-2010
#TIME        :             The time of day at which the spectrum was recorded, in 24-hour format
#OWNER       : PIXL Flight Model       (PIXL will use this to indicate which instrument took the data.)
#NPOINTS     : 4096     Number of data points in the spectrum (This can be zero for configuration only files)
#NCOLUMNS    : 2     Number of data columns in the spectrum (This can be zero for configuration only files)
#XUNITS      : eV
#YUNITS      : COUNTS
#DATATYPE    : YY
#XPERCHAN    : 7.862, 7.881   eV per channel (separate by commas if more than one detector)
#OFFSET      : 18.5, -22.4         eV of first channel  (separate by commas if more than one detector
#SIGNALTYPE  : XRF
#YP_TEMP     : 3.294
#LIVETIME    : 9.14317, 9.13986   seconds (separate by commas if more than one detector)
#REALTIME    : 10, 10.0   seconds (separate by commas if more than one detector)
#SPECTRUM    : start of spectrum data
0, 0
0, 0
0, 0
0, 0
0, 0
0, 0
0, 0
1, 0
2, 1
2, 2
0, 2
20, 24
36, 25
3, 5
12, 11
125, 148
836, 887
146, 133
25, 18
4, 5
2, 3
7, 5
6, 3
7, 7
34, 17
26, 46
12, 20
15, 10
5, 5
5, 7
5, 5
4, 5
22, 31
563, 682
965, 976
89, 87
99, 119
141, 148
13, 13
4, 3
9, 9
31, 34
14, 22
4, 2
4, 6
11, 9
6, 9
3, 1
9, 10
43, 33
29, 20
3, 6
8, 9
24, 33
49, 36
19, 8
9, 16
202, 314
1166, 1279
728, 673
75, 42
8, 8
14, 12
57, 58
217, 184
108, 95
13, 14
38, 4
39, 4
16, 4
3, 3
3, 6
4, 2
5, 3
5, 6
7, 6
8, 8
5, 10
3, 13
3, 5
3, 5
1, 5
3, 5
2, 5
6, 6
3, 8
2, 5
5, 8
2, 9
1, 13
5, 5
10, 3
5, 3
1, 5
4, 2
3, 8
1, 8
4, 4
9, 2
5, 0
4, 1
4, 2
1, 3
1, 4
2, 3
1, 7
2, 2
2, 2
4, 4
0, 5
4, 1
8, 0
3, 3
0, 3
3, 1
1, 0
2, 2
0, 0
3, 2
0, 1
0, 0
1, 3
3, 1
2, 1
1, 1
0, 1
4, 0
1, 1
2, 1
0, 1
1, 1
1, 1
0, 1
0, 1
0, 0
2, 0
1, 1
3, 0
0, 1
0, 0
0, 0
0, 1
0, 1
0, 0
0, 1
0, 1
1, 0
0, 1
0, 0
1, 0
0, 0
0, 0
1, 0
1, 0
0, 1
2, 0
0, 0
0, 0
0, 0
1, 0
1, 0
0, 0
0, 0
0, 0
0, 0
0, 0
0, 0
0, 0
2, 0
0, 0
1, 0
0, 1
0, 0
0, 0
1, 0
0, 0
2, 0
0, 0
0, 0
0, 0
0, 0
0, 0
0, 0
0, 0
0, 0
0, 0
0, 0
0, 0
0, 1
0, 0
0, 0
0, 0
0, 0
0, 0
0, 0
0, 0
0, 0
0, 0
0, 0
0, 0
0, 0
0, 0
0, 0
0, 0
0, 0
0, 0
0, 0
0, 0
0, 0
0, 0
0, 0
0, 0
0, 0
0, 0
0, 0
0, 0
0, 0
0, 0
0, 0
0, 0
0, 0
0, 0
0, 0
0, 0
0, 0
0, 0
0, 0
0, 0
0, 0
0, 0
0, 0
0, 0
0, 0
0, 0
0, 0
0, 0
0, 0
0, 0
0, 0
0, 0
0, 0
0, 0
0, 0
0, 0
0, 0
0, 0
0, 0
0, 0
0, 0
0, 0
0, 0
0, 0
0, 0
0, 0
0, 0
0, 0
0, 0
0, 0
0, 0
0, 0
0, 0
0, 0
0, 0
0, 0
0, 0
0, 0
0, 0
0, 0
0, 0
0, 0
0, 0
0, 0
0, 0
0, 0
0, 0
0, 0
0, 0
0, 0
0, 0
0, 0
0, 0
0, 0
0, 0
0, 0
0, 0
0, 0
0, 0
0, 0
0, 0
0, 0
0, 0
0, 0
0, 0
0, 0
#ENDOFDATA     end of spectrum data