File: host_upload/12-01-2023/Dourbes (shot-by-shot)/upload_4/ps__0257_0689790785_000rfs_shot_3165.msa
#FORMAT      : EMSA/MAS spectral data file
#VERSION     : TC202v2.0 PIXL
#TITLE       : N/A
#DATE        :       Date in the format DD-MMM-YYYY, for example 07-JUL-2010
#TIME        :             The time of day at which the spectrum was recorded, in 24-hour format
#OWNER       : PIXL Flight Model       (PIXL will use this to indicate which instrument took the data.)
#NPOINTS     : 4096     Number of data points in the spectrum (This can be zero for configuration only files)
#NCOLUMNS    : 2     Number of data columns in the spectrum (This can be zero for configuration only files)
#XUNITS      : eV
#YUNITS      : COUNTS
#DATATYPE    : YY
#XPERCHAN    : 7.862, 7.881   eV per channel (separate by commas if more than one detector)
#OFFSET      : 18.5, -22.4         eV of first channel  (separate by commas if more than one detector
#SIGNALTYPE  : XRF
#YP_TEMP     : 2.973
#LIVETIME    : 9.00706, 9.00756   seconds (separate by commas if more than one detector)
#REALTIME    : 10, 10.0   seconds (separate by commas if more than one detector)
#SPECTRUM    : start of spectrum data
0, 0
0, 0
0, 0
0, 0
0, 0
0, 0
0, 0
0, 0
2, 2
2, 1
3, 6
12, 14
12, 16
17, 17
23, 39
72, 74
475, 489
80, 90
9, 3
2, 6
2, 2
11, 9
5, 25
16, 28
71, 60
56, 36
16, 29
17, 19
3, 5
6, 8
28, 33
10, 21
10, 8
9, 18
21, 26
14, 15
23, 23
16, 22
6, 4
9, 13
133, 157
738, 807
242, 265
23, 22
62, 58
119, 155
38, 38
9, 11
72, 83
502, 575
311, 322
63, 26
70, 25
62, 75
126, 119
46, 53
25, 28
472, 639
2519, 2784
1573, 1346
103, 103
16, 23
22, 21
107, 142
374, 432
212, 177
21, 14
4, 9
12, 5
5, 6
2, 0
1, 6
7, 4
4, 8
6, 9
3, 7
3, 6
3, 2
6, 8
2, 7
5, 4
4, 4
2, 2
4, 3
3, 4
2, 3
7, 3
8, 2
3, 1
3, 8
4, 9
4, 4
4, 2
3, 4
2, 3
1, 5
0, 4
4, 6
3, 4
5, 2
4, 5
7, 1
5, 2
2, 3
1, 3
0, 3
1, 1
3, 2
5, 0
2, 1
0, 0
0, 0
1, 0
1, 1
3, 2
2, 0
3, 7
2, 2
4, 3
2, 0
1, 3
0, 3
1, 3
0, 2
1, 3
0, 2
0, 0
0, 0
0, 1
2, 1
0, 2
2, 1
0, 0
1, 2
1, 0
1, 1
1, 0
0, 1
0, 0
0, 0
1, 0
0, 0
0, 0
2, 0
0, 3
0, 0
0, 0
1, 0
1, 0
0, 1
1, 0
0, 0
0, 0
0, 0
0, 0
0, 0
1, 0
0, 0
0, 1
0, 0
0, 0
0, 1
0, 0
0, 0
0, 0
0, 0
2, 0
0, 0
1, 0
0, 0
0, 0
0, 0
0, 0
0, 1
0, 1
0, 0
0, 0
0, 0
0, 0
0, 0
0, 0
0, 0
0, 0
0, 0
0, 0
0, 0
0, 0
0, 0
0, 1
0, 0
0, 0
0, 0
0, 0
0, 0
0, 0
0, 0
0, 0
0, 0
0, 0
0, 0
0, 0
0, 0
0, 0
0, 0
0, 0
0, 0
0, 0
0, 0
0, 0
0, 0
0, 0
0, 0
0, 0
0, 0
0, 0
0, 0
0, 0
0, 0
0, 0
0, 0
0, 0
0, 0
0, 0
0, 0
0, 0
0, 0
0, 0
0, 0
0, 0
0, 0
0, 0
0, 0
0, 0
0, 0
0, 0
0, 0
0, 0
0, 0
0, 0
0, 0
0, 0
0, 0
0, 0
0, 0
0, 0
0, 0
0, 0
0, 0
0, 0
0, 0
0, 0
0, 0
0, 0
0, 0
0, 0
0, 0
0, 0
0, 0
0, 0
0, 0
0, 0
0, 0
0, 0
0, 0
0, 0
0, 0
0, 0
0, 0
0, 0
0, 0
0, 0
0, 0
0, 0
0, 0
0, 0
0, 0
0, 0
0, 0
0, 0
0, 0
0, 0
0, 0
0, 0
0, 0
0, 0
0, 0
0, 0
0, 0
0, 0
0, 0
0, 0
0, 0
0, 0
0, 0
#ENDOFDATA     end of spectrum data