File: host_upload/12-01-2023/Dourbes (shot-by-shot)/upload_4/ps__0257_0689790785_000rfs_shot_3058.msa
#FORMAT      : EMSA/MAS spectral data file
#VERSION     : TC202v2.0 PIXL
#TITLE       : N/A
#DATE        :       Date in the format DD-MMM-YYYY, for example 07-JUL-2010
#TIME        :             The time of day at which the spectrum was recorded, in 24-hour format
#OWNER       : PIXL Flight Model       (PIXL will use this to indicate which instrument took the data.)
#NPOINTS     : 4096     Number of data points in the spectrum (This can be zero for configuration only files)
#NCOLUMNS    : 2     Number of data columns in the spectrum (This can be zero for configuration only files)
#XUNITS      : eV
#YUNITS      : COUNTS
#DATATYPE    : YY
#XPERCHAN    : 7.862, 7.881   eV per channel (separate by commas if more than one detector)
#OFFSET      : 18.5, -22.4         eV of first channel  (separate by commas if more than one detector
#SIGNALTYPE  : XRF
#YP_TEMP     : 2.909
#LIVETIME    : 9.12887, 9.12029   seconds (separate by commas if more than one detector)
#REALTIME    : 10, 10.0   seconds (separate by commas if more than one detector)
#SPECTRUM    : start of spectrum data
0, 0
0, 0
0, 0
0, 0
0, 0
0, 0
0, 0
1, 0
1, 2
1, 0
2, 4
17, 21
24, 36
16, 13
31, 36
101, 120
668, 726
111, 129
34, 49
29, 28
16, 16
80, 78
27, 20
27, 38
158, 125
106, 83
40, 40
18, 18
13, 8
8, 12
41, 63
34, 30
14, 9
115, 135
165, 167
28, 34
17, 27
15, 20
14, 4
9, 13
6, 13
17, 17
11, 25
7, 18
4, 26
7, 32
6, 18
16, 15
15, 11
18, 13
11, 3
9, 9
10, 21
27, 46
47, 49
17, 20
29, 19
306, 449
1685, 2075
1015, 1100
90, 85
20, 18
18, 19
82, 94
296, 319
147, 154
14, 20
5, 9
12, 10
4, 5
3, 9
8, 7
6, 4
7, 5
5, 5
4, 6
11, 9
6, 8
11, 9
6, 4
6, 14
7, 6
6, 7
5, 6
6, 1
7, 4
5, 4
8, 7
0, 5
7, 6
4, 5
5, 13
3, 8
2, 5
3, 3
2, 4
3, 3
3, 4
1, 4
5, 3
3, 5
0, 1
1, 4
1, 1
2, 1
2, 2
3, 5
3, 2
1, 5
2, 2
3, 1
0, 0
2, 3
3, 0
1, 3
3, 8
3, 1
4, 4
2, 4
1, 4
1, 2
1, 2
1, 2
4, 1
0, 1
3, 0
0, 1
1, 0
3, 1
0, 3
0, 1
0, 1
1, 4
0, 0
1, 1
1, 0
0, 0
0, 0
0, 1
0, 0
0, 2
0, 2
1, 1
0, 0
0, 0
1, 0
0, 0
1, 4
0, 0
0, 0
0, 1
1, 0
0, 0
0, 1
0, 0
0, 0
0, 1
0, 0
1, 1
0, 0
0, 0
0, 0
0, 0
0, 1
0, 0
0, 0
0, 0
1, 0
1, 0
0, 1
0, 0
0, 1
0, 0
0, 0
0, 0
0, 0
0, 1
0, 0
0, 0
0, 0
0, 0
0, 0
0, 0
0, 0
0, 0
0, 0
0, 0
0, 0
0, 0
0, 0
0, 0
0, 0
0, 0
0, 0
0, 0
0, 0
0, 0
0, 0
0, 0
0, 0
0, 0
0, 0
0, 0
0, 0
0, 0
0, 0
0, 0
0, 0
0, 0
0, 0
0, 0
0, 0
0, 0
0, 0
0, 0
0, 0
1, 0
0, 0
0, 0
0, 0
0, 0
0, 0
0, 0
0, 0
0, 0
0, 0
0, 0
0, 0
0, 0
0, 0
0, 0
0, 0
0, 0
0, 0
0, 0
0, 0
0, 0
0, 0
0, 0
0, 0
0, 0
0, 0
0, 0
0, 0
0, 0
0, 0
0, 0
0, 0
0, 0
0, 0
0, 0
0, 0
0, 0
0, 0
0, 0
0, 0
0, 0
0, 0
0, 0
0, 0
0, 0
0, 0
0, 0
0, 0
0, 0
0, 0
0, 0
0, 0
0, 0
0, 0
0, 0
0, 0
0, 0
0, 0
0, 0
0, 0
0, 0
0, 0
0, 0
0, 0
0, 0
0, 0
0, 0
0, 0
0, 0
0, 0
0, 0
0, 0
0, 0
0, 0
0, 0
0, 0
0, 0
0, 0
#ENDOFDATA     end of spectrum data