File: host_upload/12-01-2023/Dourbes (shot-by-shot)/upload_4/ps__0257_0689790785_000rfs_shot_3024.msa
#FORMAT      : EMSA/MAS spectral data file
#VERSION     : TC202v2.0 PIXL
#TITLE       : N/A
#DATE        :       Date in the format DD-MMM-YYYY, for example 07-JUL-2010
#TIME        :             The time of day at which the spectrum was recorded, in 24-hour format
#OWNER       : PIXL Flight Model       (PIXL will use this to indicate which instrument took the data.)
#NPOINTS     : 4096     Number of data points in the spectrum (This can be zero for configuration only files)
#NCOLUMNS    : 2     Number of data columns in the spectrum (This can be zero for configuration only files)
#XUNITS      : eV
#YUNITS      : COUNTS
#DATATYPE    : YY
#XPERCHAN    : 7.862, 7.881   eV per channel (separate by commas if more than one detector)
#OFFSET      : 18.5, -22.4         eV of first channel  (separate by commas if more than one detector
#SIGNALTYPE  : XRF
#YP_TEMP     : 2.909
#LIVETIME    : 8.9846, 8.98012   seconds (separate by commas if more than one detector)
#REALTIME    : 10, 10.0   seconds (separate by commas if more than one detector)
#SPECTRUM    : start of spectrum data
0, 0
0, 0
0, 0
0, 0
0, 0
0, 0
0, 0
0, 0
2, 1
3, 3
2, 4
25, 16
25, 27
2, 2
4, 8
104, 85
592, 570
106, 90
6, 6
2, 3
7, 6
38, 35
14, 16
22, 30
158, 146
108, 95
46, 38
25, 32
8, 7
5, 4
4, 4
3, 7
10, 7
83, 103
118, 152
13, 17
20, 21
27, 28
14, 8
7, 5
18, 14
21, 20
30, 29
26, 23
14, 14
27, 15
24, 18
11, 16
10, 23
22, 20
16, 14
15, 14
18, 23
77, 101
133, 116
35, 25
37, 55
577, 784
3517, 3849
2217, 1936
201, 117
30, 26
42, 45
139, 174
514, 552
307, 237
25, 25
6, 8
8, 7
6, 5
4, 6
8, 4
5, 9
5, 6
6, 7
7, 7
5, 5
6, 6
7, 5
8, 4
3, 7
2, 7
5, 5
5, 1
3, 5
3, 3
2, 3
2, 5
9, 4
4, 3
4, 4
3, 3
11, 7
2, 6
5, 4
2, 5
4, 1
0, 4
2, 6
4, 3
4, 3
5, 1
4, 0
6, 2
4, 3
2, 4
1, 3
3, 2
0, 1
5, 0
2, 5
5, 4
3, 2
3, 4
1, 2
5, 1
7, 1
2, 2
1, 2
0, 1
0, 0
4, 1
4, 4
1, 0
2, 0
3, 1
0, 1
3, 0
0, 2
0, 2
1, 0
3, 0
2, 1
0, 1
2, 1
0, 1
0, 1
0, 0
0, 1
3, 0
3, 1
1, 1
1, 0
0, 1
1, 1
1, 0
1, 0
0, 1
0, 1
0, 1
0, 0
0, 1
1, 0
0, 0
1, 0
1, 1
0, 0
0, 0
0, 0
0, 0
0, 0
1, 0
1, 0
0, 0
0, 0
0, 0
0, 0
0, 0
1, 0
1, 0
0, 0
0, 0
1, 0
0, 0
0, 2
0, 0
0, 0
0, 0
0, 0
0, 0
0, 0
0, 0
0, 0
0, 0
0, 0
1, 0
1, 0
0, 0
0, 0
0, 0
0, 1
0, 0
0, 0
0, 0
0, 0
0, 0
0, 0
0, 0
0, 0
0, 0
0, 0
1, 0
0, 0
0, 0
0, 0
0, 0
0, 0
0, 0
0, 0
0, 0
0, 0
0, 0
0, 0
0, 0
0, 0
0, 0
0, 0
0, 0
0, 0
0, 1
0, 0
0, 0
0, 0
0, 0
0, 0
0, 0
0, 0
0, 0
0, 0
0, 0
0, 0
0, 0
0, 0
0, 0
0, 0
0, 0
0, 0
0, 0
0, 0
0, 0
0, 0
0, 0
0, 0
0, 0
0, 0
0, 0
0, 0
0, 0
0, 0
0, 0
0, 0
0, 0
0, 0
0, 0
0, 0
0, 0
0, 0
0, 0
0, 0
0, 0
0, 0
0, 0
0, 0
0, 0
0, 0
0, 0
0, 0
0, 0
0, 0
0, 0
0, 0
0, 0
0, 0
0, 0
0, 0
0, 0
0, 0
0, 0
0, 0
0, 0
0, 0
0, 0
0, 0
0, 0
0, 0
0, 0
0, 0
0, 0
0, 0
0, 0
0, 0
0, 0
0, 0
0, 0
#ENDOFDATA     end of spectrum data