File: host_upload/12-01-2023/Dourbes (shot-by-shot)/upload_4/ps__0257_0689790785_000rfs_shot_3161.msa
#FORMAT      : EMSA/MAS spectral data file
#VERSION     : TC202v2.0 PIXL
#TITLE       : N/A
#DATE        :       Date in the format DD-MMM-YYYY, for example 07-JUL-2010
#TIME        :             The time of day at which the spectrum was recorded, in 24-hour format
#OWNER       : PIXL Flight Model       (PIXL will use this to indicate which instrument took the data.)
#NPOINTS     : 4096     Number of data points in the spectrum (This can be zero for configuration only files)
#NCOLUMNS    : 2     Number of data columns in the spectrum (This can be zero for configuration only files)
#XUNITS      : eV
#YUNITS      : COUNTS
#DATATYPE    : YY
#XPERCHAN    : 7.862, 7.881   eV per channel (separate by commas if more than one detector)
#OFFSET      : 18.5, -22.4         eV of first channel  (separate by commas if more than one detector
#SIGNALTYPE  : XRF
#YP_TEMP     : 3.262
#LIVETIME    : 8.98952, 9.00041   seconds (separate by commas if more than one detector)
#REALTIME    : 10, 10.0   seconds (separate by commas if more than one detector)
#SPECTRUM    : start of spectrum data
0, 0
0, 0
0, 0
0, 0
0, 0
0, 0
0, 0
0, 0
0, 0
0, 0
1, 0
29, 18
36, 29
2, 0
5, 5
76, 67
496, 493
80, 87
8, 6
5, 0
1, 3
11, 11
6, 5
9, 9
46, 40
62, 54
25, 41
10, 29
8, 3
4, 4
1, 3
3, 2
12, 6
27, 23
38, 28
5, 6
8, 6
6, 6
3, 6
8, 3
9, 27
30, 74
22, 42
21, 18
12, 6
7, 13
4, 8
7, 5
12, 11
9, 20
15, 10
9, 8
10, 20
70, 70
98, 99
26, 27
29, 49
680, 839
3762, 3720
2359, 1886
178, 117
23, 9
23, 27
155, 173
523, 562
270, 270
31, 21
9, 3
7, 6
14, 5
6, 4
5, 12
6, 4
7, 7
4, 6
4, 2
7, 4
3, 2
3, 4
1, 2
3, 1
6, 7
3, 5
0, 3
6, 5
5, 4
5, 10
0, 5
3, 7
6, 7
7, 1
2, 5
3, 1
1, 2
0, 3
1, 3
1, 1
4, 4
1, 2
5, 4
3, 2
2, 3
2, 3
1, 0
1, 0
0, 3
1, 3
2, 2
2, 3
1, 6
0, 0
3, 4
0, 5
1, 6
4, 1
4, 4
9, 6
2, 4
1, 1
1, 1
1, 1
2, 1
3, 2
1, 2
1, 3
0, 3
2, 2
0, 1
0, 1
1, 0
1, 0
1, 0
0, 0
1, 2
3, 0
1, 0
0, 0
1, 0
0, 1
1, 1
1, 1
0, 0
1, 0
1, 2
0, 0
1, 0
0, 1
3, 0
1, 0
0, 0
0, 0
0, 0
0, 1
0, 0
0, 0
0, 0
0, 1
0, 0
0, 0
0, 0
0, 0
0, 0
1, 0
0, 0
0, 0
0, 0
0, 0
0, 0
0, 1
0, 0
0, 0
0, 0
0, 0
0, 0
1, 0
0, 0
1, 0
0, 0
0, 0
0, 0
0, 0
0, 0
0, 1
0, 0
0, 0
0, 1
0, 0
0, 0
1, 0
0, 0
1, 0
0, 0
0, 0
0, 0
0, 0
0, 0
0, 0
0, 0
0, 0
0, 1
0, 0
0, 0
0, 0
0, 0
0, 0
0, 0
0, 0
0, 0
0, 0
0, 0
0, 0
0, 0
0, 0
0, 0
0, 0
0, 0
0, 0
0, 0
0, 0
0, 0
0, 0
0, 0
0, 0
0, 0
0, 0
0, 0
0, 0
0, 0
0, 0
0, 0
0, 0
0, 0
0, 0
0, 0
0, 0
0, 0
0, 0
0, 0
0, 0
0, 0
0, 0
0, 0
0, 0
0, 0
0, 0
0, 0
0, 0
0, 0
0, 0
0, 0
0, 0
0, 0
0, 0
0, 0
0, 0
0, 0
0, 0
0, 0
0, 0
0, 0
0, 0
0, 0
0, 0
0, 0
0, 0
0, 0
0, 0
0, 0
0, 0
0, 0
0, 0
0, 0
0, 0
0, 0
0, 0
0, 0
0, 0
0, 0
0, 0
0, 0
0, 0
0, 0
0, 0
0, 0
0, 0
0, 0
0, 0
0, 0
0, 0
0, 0
0, 0
0, 0
0, 0
0, 0
#ENDOFDATA     end of spectrum data