File: host_upload/12-01-2023/Dourbes (shot-by-shot)/upload_4/ps__0257_0689790785_000rfs_shot_3230.msa
#FORMAT      : EMSA/MAS spectral data file
#VERSION     : TC202v2.0 PIXL
#TITLE       : N/A
#DATE        :       Date in the format DD-MMM-YYYY, for example 07-JUL-2010
#TIME        :             The time of day at which the spectrum was recorded, in 24-hour format
#OWNER       : PIXL Flight Model       (PIXL will use this to indicate which instrument took the data.)
#NPOINTS     : 4096     Number of data points in the spectrum (This can be zero for configuration only files)
#NCOLUMNS    : 2     Number of data columns in the spectrum (This can be zero for configuration only files)
#XUNITS      : eV
#YUNITS      : COUNTS
#DATATYPE    : YY
#XPERCHAN    : 7.862, 7.881   eV per channel (separate by commas if more than one detector)
#OFFSET      : 18.5, -22.4         eV of first channel  (separate by commas if more than one detector
#SIGNALTYPE  : XRF
#YP_TEMP     : 3.326
#LIVETIME    : 9.08724, 9.08496   seconds (separate by commas if more than one detector)
#REALTIME    : 10, 10.0   seconds (separate by commas if more than one detector)
#SPECTRUM    : start of spectrum data
0, 0
0, 0
0, 0
0, 0
0, 0
0, 0
0, 0
0, 0
1, 3
3, 2
3, 5
27, 19
34, 19
6, 11
16, 14
74, 90
517, 511
110, 76
4, 5
0, 5
9, 4
30, 35
17, 17
39, 29
173, 206
164, 141
44, 59
27, 30
9, 11
4, 10
23, 12
5, 7
7, 5
63, 48
82, 84
10, 9
13, 18
21, 12
12, 3
12, 5
4, 10
24, 14
32, 23
23, 13
15, 8
19, 13
15, 15
13, 11
12, 19
14, 13
17, 12
13, 16
25, 18
58, 45
65, 63
20, 26
26, 37
456, 545
2363, 2543
1546, 1304
99, 94
20, 17
30, 25
99, 120
397, 387
196, 160
29, 20
6, 6
6, 10
9, 6
8, 9
6, 9
8, 8
6, 11
6, 2
7, 4
6, 6
8, 2
11, 3
13, 8
9, 4
9, 10
10, 7
2, 5
6, 3
9, 4
5, 6
3, 6
4, 8
4, 6
6, 3
2, 9
7, 6
4, 4
4, 4
5, 4
2, 2
1, 1
2, 6
5, 4
4, 4
3, 6
1, 0
4, 1
1, 5
3, 2
3, 1
3, 2
4, 3
1, 3
3, 1
3, 3
1, 2
1, 1
0, 3
2, 3
2, 7
6, 3
2, 2
1, 1
3, 3
3, 1
3, 4
0, 1
2, 2
1, 0
1, 1
1, 1
1, 3
2, 2
3, 0
1, 2
0, 0
1, 2
1, 1
1, 1
0, 0
4, 1
1, 0
0, 3
2, 1
1, 0
0, 2
0, 1
1, 0
2, 1
1, 2
1, 0
0, 0
0, 1
0, 0
1, 1
0, 0
0, 0
0, 0
0, 0
0, 0
0, 1
1, 0
0, 0
0, 0
0, 0
1, 0
1, 0
0, 0
1, 0
0, 0
0, 0
0, 1
0, 1
0, 0
0, 0
0, 1
0, 0
0, 1
0, 0
0, 0
0, 0
0, 0
0, 0
0, 0
0, 0
0, 2
0, 0
0, 0
0, 0
0, 0
0, 0
0, 0
0, 0
0, 0
0, 0
0, 0
0, 1
0, 0
0, 0
0, 0
1, 0
0, 0
0, 0
0, 0
0, 0
0, 0
0, 0
0, 0
0, 0
0, 0
0, 0
0, 0
0, 0
0, 0
1, 0
0, 0
1, 0
0, 0
0, 0
0, 0
0, 0
0, 0
0, 0
0, 0
0, 0
0, 0
0, 0
0, 0
0, 0
0, 0
0, 0
0, 0
0, 0
0, 0
0, 0
0, 0
0, 0
0, 0
0, 0
0, 0
0, 0
0, 0
0, 0
0, 0
0, 0
0, 0
0, 0
0, 0
0, 0
0, 0
0, 0
0, 0
0, 0
0, 0
0, 0
0, 0
0, 0
0, 0
0, 0
0, 0
0, 0
0, 0
0, 0
0, 0
0, 0
0, 0
0, 0
0, 0
0, 0
0, 0
0, 0
0, 0
0, 0
0, 0
0, 0
0, 0
0, 0
0, 0
0, 0
0, 0
0, 0
0, 0
0, 0
0, 0
0, 0
0, 0
0, 0
0, 0
0, 0
0, 0
0, 0
0, 0
0, 0
0, 0
0, 0
0, 0
0, 0
#ENDOFDATA     end of spectrum data