File: host_upload/12-01-2023/Dourbes (shot-by-shot)/upload_4/ps__0257_0689790785_000rfs_shot_3040.msa
#FORMAT      : EMSA/MAS spectral data file
#VERSION     : TC202v2.0 PIXL
#TITLE       : N/A
#DATE        :       Date in the format DD-MMM-YYYY, for example 07-JUL-2010
#TIME        :             The time of day at which the spectrum was recorded, in 24-hour format
#OWNER       : PIXL Flight Model       (PIXL will use this to indicate which instrument took the data.)
#NPOINTS     : 4096     Number of data points in the spectrum (This can be zero for configuration only files)
#NCOLUMNS    : 2     Number of data columns in the spectrum (This can be zero for configuration only files)
#XUNITS      : eV
#YUNITS      : COUNTS
#DATATYPE    : YY
#XPERCHAN    : 7.862, 7.881   eV per channel (separate by commas if more than one detector)
#OFFSET      : 18.5, -22.4         eV of first channel  (separate by commas if more than one detector
#SIGNALTYPE  : XRF
#YP_TEMP     : 3.294
#LIVETIME    : 9.03971, 9.0442   seconds (separate by commas if more than one detector)
#REALTIME    : 10, 10.0   seconds (separate by commas if more than one detector)
#SPECTRUM    : start of spectrum data
0, 0
0, 0
0, 0
0, 0
0, 0
0, 0
0, 0
0, 0
1, 0
2, 1
2, 2
20, 24
48, 34
0, 2
2, 4
97, 91
659, 600
117, 89
7, 2
2, 2
18, 5
46, 27
11, 8
16, 9
62, 71
61, 57
34, 21
14, 16
4, 3
4, 1
1, 4
4, 0
2, 1
22, 24
24, 68
6, 13
4, 5
5, 8
8, 3
6, 7
12, 6
15, 15
19, 13
14, 9
5, 7
9, 4
10, 6
11, 14
12, 13
12, 45
7, 113
14, 34
13, 16
64, 55
87, 73
25, 22
30, 38
546, 720
3042, 3294
2017, 1753
182, 118
24, 13
29, 27
129, 122
484, 494
287, 215
18, 14
8, 6
10, 9
6, 5
2, 9
5, 7
2, 3
6, 5
1, 2
3, 6
3, 9
1, 2
6, 10
5, 4
7, 9
7, 8
5, 5
8, 4
4, 3
3, 8
2, 9
3, 3
3, 2
2, 1
1, 4
4, 4
3, 4
6, 4
6, 4
2, 1
3, 3
1, 5
4, 2
1, 13
1, 4
2, 3
4, 3
0, 2
1, 1
3, 0
2, 3
2, 1
2, 0
1, 3
4, 1
4, 7
4, 4
1, 3
0, 0
2, 2
7, 5
8, 3
1, 1
1, 4
1, 1
2, 1
2, 4
5, 2
0, 3
2, 3
0, 2
1, 1
1, 1
0, 0
0, 1
0, 1
1, 0
0, 1
1, 1
1, 1
2, 1
0, 2
1, 1
2, 1
2, 0
0, 2
0, 0
1, 1
1, 0
0, 0
0, 0
0, 1
0, 0
0, 0
0, 0
0, 0
0, 1
0, 0
1, 0
0, 0
0, 3
0, 1
1, 1
0, 0
0, 0
0, 0
0, 2
1, 1
1, 1
0, 0
0, 0
1, 0
0, 0
0, 0
0, 0
0, 0
0, 0
0, 0
1, 1
0, 0
0, 0
0, 0
0, 1
0, 0
0, 1
0, 0
0, 0
0, 0
0, 0
0, 0
0, 0
0, 0
0, 0
0, 0
0, 0
0, 0
0, 0
1, 0
0, 0
0, 0
0, 0
0, 0
0, 0
0, 0
0, 0
0, 0
0, 0
0, 0
0, 0
0, 0
0, 0
0, 0
0, 0
0, 0
0, 0
0, 0
0, 0
0, 0
0, 0
0, 0
0, 0
0, 0
0, 0
0, 0
0, 0
0, 0
0, 0
0, 0
0, 0
0, 0
1, 0
0, 0
0, 0
0, 0
0, 0
0, 0
0, 0
0, 0
0, 0
0, 0
0, 0
0, 0
0, 0
0, 0
0, 0
0, 0
0, 0
0, 0
0, 0
0, 0
0, 0
0, 0
0, 0
0, 0
0, 0
0, 0
0, 0
0, 0
0, 0
0, 0
0, 0
0, 0
0, 0
0, 0
0, 0
0, 0
0, 0
0, 0
0, 0
0, 0
0, 0
0, 0
0, 0
0, 0
0, 0
0, 0
0, 0
0, 0
0, 0
0, 0
0, 0
0, 0
0, 0
0, 0
0, 0
0, 0
0, 0
0, 0
0, 0
0, 0
0, 0
0, 0
0, 0
0, 0
0, 0
0, 0
0, 0
0, 0
#ENDOFDATA     end of spectrum data