File: host_upload/12-01-2023/Dourbes (shot-by-shot)/upload_4/ps__0257_0689790785_000rfs_shot_3054.msa
#FORMAT      : EMSA/MAS spectral data file
#VERSION     : TC202v2.0 PIXL
#TITLE       : N/A
#DATE        :       Date in the format DD-MMM-YYYY, for example 07-JUL-2010
#TIME        :             The time of day at which the spectrum was recorded, in 24-hour format
#OWNER       : PIXL Flight Model       (PIXL will use this to indicate which instrument took the data.)
#NPOINTS     : 4096     Number of data points in the spectrum (This can be zero for configuration only files)
#NCOLUMNS    : 2     Number of data columns in the spectrum (This can be zero for configuration only files)
#XUNITS      : eV
#YUNITS      : COUNTS
#DATATYPE    : YY
#XPERCHAN    : 7.862, 7.881   eV per channel (separate by commas if more than one detector)
#OFFSET      : 18.5, -22.4         eV of first channel  (separate by commas if more than one detector
#SIGNALTYPE  : XRF
#YP_TEMP     : 3.165
#LIVETIME    : 8.78471, 8.94541   seconds (separate by commas if more than one detector)
#REALTIME    : 10, 10.0   seconds (separate by commas if more than one detector)
#SPECTRUM    : start of spectrum data
0, 0
0, 0
0, 0
0, 0
0, 0
0, 0
0, 0
0, 0
19, 3
89, 3
14, 1
33, 27
42, 36
9, 1
9, 3
66, 78
399, 420
82, 66
8, 6
5, 3
24, 22
164, 172
58, 37
126, 20
2984, 130
5321, 121
373, 36
16, 22
7, 6
3, 3
5, 3
4, 4
4, 6
28, 29
42, 40
5, 2
8, 4
7, 6
6, 6
5, 6
11, 8
11, 36
30, 103
11, 52
9, 5
5, 8
5, 6
11, 4
6, 8
34, 9
12, 10
14, 14
8, 13
45, 72
82, 94
30, 30
37, 37
600, 768
3421, 3711
2241, 1891
198, 126
47, 18
87, 30
132, 156
517, 546
287, 255
28, 15
7, 2
6, 6
3, 5
1, 6
5, 16
1, 8
6, 6
5, 2
2, 3
3, 0
3, 2
3, 1
3, 3
5, 6
2, 5
17, 2
20, 3
3, 12
4, 8
5, 8
4, 3
3, 4
3, 2
3, 2
0, 2
0, 2
0, 2
2, 1
3, 1
1, 0
6, 0
7, 0
17, 2
4, 2
1, 2
2, 2
2, 0
3, 1
2, 0
3, 0
0, 1
5, 0
2, 2
4, 0
4, 1
2, 1
1, 2
2, 1
5, 7
7, 7
5, 3
2, 2
4, 0
1, 1
3, 2
4, 5
2, 0
1, 0
1, 2
1, 0
0, 0
2, 1
2, 0
0, 1
0, 0
1, 1
1, 0
0, 2
2, 1
0, 0
0, 0
0, 0
0, 1
0, 1
0, 0
0, 1
1, 0
0, 2
1, 0
0, 0
0, 0
0, 0
0, 0
0, 0
0, 1
2, 0
0, 0
0, 1
0, 0
0, 1
0, 0
0, 0
1, 0
0, 0
0, 0
0, 1
0, 0
0, 0
0, 1
0, 1
1, 1
0, 0
1, 1
2, 0
0, 1
0, 0
0, 0
0, 1
0, 0
0, 0
0, 0
0, 0
1, 0
0, 0
0, 0
0, 0
0, 0
1, 0
1, 0
0, 0
0, 0
1, 0
0, 0
0, 0
0, 0
0, 0
0, 0
0, 0
0, 0
0, 0
0, 0
0, 0
0, 0
0, 0
0, 1
0, 0
0, 0
0, 0
0, 0
0, 0
0, 0
0, 0
0, 0
0, 0
0, 0
0, 0
0, 0
0, 0
0, 0
0, 0
0, 0
0, 0
0, 0
0, 0
0, 0
0, 0
0, 0
0, 0
0, 0
0, 0
0, 0
0, 0
0, 0
0, 0
0, 0
0, 0
0, 0
0, 0
0, 0
0, 0
0, 0
0, 0
0, 0
0, 0
0, 0
0, 0
0, 0
0, 0
0, 0
0, 0
0, 0
0, 0
0, 0
0, 0
0, 0
0, 0
0, 0
0, 0
0, 0
0, 0
0, 0
0, 0
0, 0
0, 0
0, 0
0, 0
0, 0
0, 0
0, 0
0, 0
0, 0
0, 0
0, 0
0, 0
0, 0
0, 0
0, 0
0, 0
0, 0
0, 0
0, 0
0, 0
0, 0
0, 0
0, 0
0, 0
0, 0
0, 0
0, 0
0, 0
0, 0
0, 0
0, 0
0, 0
0, 0
0, 0
0, 0
#ENDOFDATA     end of spectrum data