File: host_upload/12-01-2023/Dourbes (shot-by-shot)/upload_4/ps__0257_0689790785_000rfs_shot_3314.msa
#FORMAT      : EMSA/MAS spectral data file
#VERSION     : TC202v2.0 PIXL
#TITLE       : N/A
#DATE        :       Date in the format DD-MMM-YYYY, for example 07-JUL-2010
#TIME        :             The time of day at which the spectrum was recorded, in 24-hour format
#OWNER       : PIXL Flight Model       (PIXL will use this to indicate which instrument took the data.)
#NPOINTS     : 4096     Number of data points in the spectrum (This can be zero for configuration only files)
#NCOLUMNS    : 2     Number of data columns in the spectrum (This can be zero for configuration only files)
#XUNITS      : eV
#YUNITS      : COUNTS
#DATATYPE    : YY
#XPERCHAN    : 7.862, 7.881   eV per channel (separate by commas if more than one detector)
#OFFSET      : 18.5, -22.4         eV of first channel  (separate by commas if more than one detector
#SIGNALTYPE  : XRF
#YP_TEMP     : 3.037
#LIVETIME    : 9.15498, 9.13829   seconds (separate by commas if more than one detector)
#REALTIME    : 10, 10.0   seconds (separate by commas if more than one detector)
#SPECTRUM    : start of spectrum data
0, 0
0, 0
0, 0
0, 0
0, 0
0, 0
0, 0
0, 0
1, 4
2, 1
3, 1
31, 20
41, 32
0, 6
15, 12
165, 133
843, 987
143, 171
11, 17
4, 3
5, 2
21, 13
5, 13
16, 6
47, 68
42, 37
25, 19
10, 11
5, 3
6, 6
4, 5
3, 4
23, 21
535, 689
881, 983
92, 89
88, 128
127, 119
9, 9
4, 3
9, 13
31, 29
18, 16
7, 2
7, 5
15, 9
3, 5
2, 2
6, 10
47, 43
22, 32
5, 7
4, 8
31, 35
45, 52
10, 23
17, 12
202, 236
1085, 1218
640, 594
69, 39
15, 13
5, 19
55, 79
190, 207
103, 74
17, 12
32, 11
37, 4
18, 6
3, 3
7, 5
7, 6
3, 6
4, 9
5, 8
1, 14
2, 17
3, 7
6, 7
4, 3
2, 6
3, 6
5, 1
7, 5
4, 8
4, 6
2, 5
6, 17
3, 26
6, 8
9, 8
10, 2
7, 4
4, 2
3, 4
4, 2
5, 7
4, 2
5, 3
6, 2
3, 2
4, 1
0, 2
4, 7
1, 0
1, 0
1, 2
2, 2
4, 3
6, 6
9, 1
1, 3
5, 3
2, 3
0, 3
0, 0
1, 3
0, 4
1, 4
2, 3
1, 2
1, 1
0, 1
2, 3
2, 2
2, 1
0, 0
2, 1
2, 2
3, 0
2, 1
1, 1
2, 2
1, 2
1, 1
1, 1
2, 1
0, 0
1, 0
1, 2
0, 4
0, 0
0, 0
0, 0
0, 0
0, 0
1, 1
0, 2
0, 0
0, 2
0, 0
0, 1
0, 0
0, 1
0, 0
0, 0
1, 0
0, 0
0, 0
0, 0
0, 0
0, 0
0, 0
0, 0
0, 1
0, 1
0, 0
2, 0
0, 1
0, 0
0, 0
1, 1
0, 0
0, 0
0, 0
0, 0
0, 0
0, 0
0, 0
0, 0
0, 1
0, 0
1, 0
0, 0
1, 0
0, 0
0, 0
0, 0
0, 0
0, 0
0, 0
0, 0
0, 0
0, 0
0, 1
0, 0
0, 0
0, 0
0, 0
0, 0
0, 0
0, 0
0, 0
0, 0
0, 0
0, 0
0, 0
0, 0
0, 0
0, 0
0, 0
0, 0
0, 0
0, 0
0, 0
0, 0
0, 0
0, 0
0, 0
0, 0
0, 0
0, 0
0, 0
0, 0
0, 0
0, 0
0, 0
0, 0
0, 0
0, 0
0, 0
0, 0
0, 0
0, 0
0, 0
0, 0
0, 0
0, 0
0, 0
0, 0
0, 0
0, 0
0, 0
0, 0
0, 0
0, 0
0, 0
0, 0
0, 0
0, 0
0, 0
0, 0
0, 0
0, 0
0, 0
0, 0
0, 0
0, 0
0, 0
0, 0
0, 0
0, 0
0, 0
0, 0
0, 0
0, 0
0, 0
0, 0
0, 0
0, 0
0, 0
0, 0
0, 0
0, 0
0, 0
0, 0
0, 0
0, 0
0, 0
0, 0
0, 0
0, 0
0, 0
0, 0
0, 0
0, 0
0, 0
0, 0
0, 0
0, 0
0, 0
0, 0
0, 0
#ENDOFDATA     end of spectrum data