File: host_upload/12-01-2023/Dourbes (shot-by-shot)/upload_4/ps__0257_0689790785_000rfs_shot_3012.msa
#FORMAT      : EMSA/MAS spectral data file
#VERSION     : TC202v2.0 PIXL
#TITLE       : N/A
#DATE        :       Date in the format DD-MMM-YYYY, for example 07-JUL-2010
#TIME        :             The time of day at which the spectrum was recorded, in 24-hour format
#OWNER       : PIXL Flight Model       (PIXL will use this to indicate which instrument took the data.)
#NPOINTS     : 4096     Number of data points in the spectrum (This can be zero for configuration only files)
#NCOLUMNS    : 2     Number of data columns in the spectrum (This can be zero for configuration only files)
#XUNITS      : eV
#YUNITS      : COUNTS
#DATATYPE    : YY
#XPERCHAN    : 7.862, 7.881   eV per channel (separate by commas if more than one detector)
#OFFSET      : 18.5, -22.4         eV of first channel  (separate by commas if more than one detector
#SIGNALTYPE  : XRF
#YP_TEMP     : 3.133
#LIVETIME    : 9.01974, 9.02411   seconds (separate by commas if more than one detector)
#REALTIME    : 10, 10.0   seconds (separate by commas if more than one detector)
#SPECTRUM    : start of spectrum data
0, 0
0, 0
0, 0
0, 0
0, 0
0, 0
0, 0
0, 0
2, 1
2, 3
3, 1
30, 30
39, 37
3, 1
5, 2
84, 58
508, 507
79, 67
2, 6
2, 2
42, 6
81, 35
16, 15
9, 9
38, 42
34, 45
33, 24
19, 12
3, 7
2, 2
2, 2
1, 5
4, 5
25, 38
46, 86
6, 14
17, 6
8, 9
2, 4
2, 4
6, 7
17, 12
15, 21
16, 15
4, 8
6, 8
10, 7
4, 5
10, 16
10, 67
12, 86
11, 44
17, 14
57, 49
72, 74
27, 21
37, 23
595, 693
3347, 3489
2044, 1723
183, 112
31, 15
44, 19
138, 145
475, 499
292, 251
24, 19
8, 10
7, 14
5, 7
3, 2
7, 1
1, 2
6, 1
5, 3
5, 2
3, 1
1, 2
5, 6
6, 5
5, 17
2, 11
6, 7
3, 5
4, 1
4, 4
6, 3
3, 4
4, 3
6, 3
1, 0
3, 2
2, 1
2, 3
3, 4
5, 5
3, 2
2, 2
4, 4
3, 12
2, 7
3, 6
1, 2
5, 2
1, 1
1, 1
2, 3
0, 1
2, 3
0, 3
1, 4
2, 2
6, 3
1, 1
2, 1
3, 2
4, 6
4, 4
1, 1
0, 1
1, 2
4, 2
3, 5
1, 2
3, 1
0, 0
1, 2
2, 0
1, 1
0, 1
1, 1
0, 0
1, 1
2, 0
1, 0
1, 1
1, 1
0, 2
0, 0
0, 0
1, 0
0, 0
0, 1
1, 1
1, 0
0, 0
0, 1
1, 0
0, 1
0, 0
0, 2
0, 0
0, 0
0, 0
0, 0
1, 0
0, 0
0, 0
0, 0
0, 0
0, 1
0, 2
0, 0
0, 1
0, 0
1, 0
0, 0
0, 0
0, 0
0, 0
1, 0
0, 0
1, 0
0, 0
0, 0
0, 0
1, 0
0, 0
0, 0
0, 1
0, 0
0, 0
0, 0
0, 0
0, 0
1, 0
0, 0
0, 0
0, 0
0, 0
0, 0
0, 0
0, 0
0, 0
0, 0
0, 0
0, 0
0, 0
0, 0
0, 0
0, 0
0, 0
0, 0
0, 0
0, 0
0, 0
1, 0
0, 0
0, 0
0, 0
0, 0
0, 0
0, 0
0, 0
0, 0
0, 0
0, 0
0, 0
0, 0
0, 0
0, 0
0, 0
0, 0
0, 0
0, 0
0, 0
0, 0
0, 0
0, 0
0, 0
0, 0
0, 0
0, 0
0, 0
0, 0
0, 0
0, 0
0, 0
0, 0
0, 0
0, 0
0, 0
0, 0
0, 0
0, 0
0, 0
0, 0
0, 0
0, 0
0, 0
0, 0
0, 0
0, 0
0, 0
0, 0
0, 0
0, 0
0, 0
0, 0
0, 0
0, 0
0, 0
0, 0
0, 0
0, 0
0, 0
0, 0
0, 0
0, 0
0, 0
0, 0
0, 0
0, 0
0, 0
0, 0
0, 0
0, 0
0, 0
0, 0
0, 0
0, 0
0, 0
0, 0
0, 0
0, 0
0, 0
0, 0
0, 0
0, 0
0, 0
0, 0
0, 0
0, 0
0, 0
#ENDOFDATA     end of spectrum data