File: host_upload/12-01-2023/Dourbes (shot-by-shot)/upload_4/ps__0257_0689790785_000rfs_shot_3094.msa
#FORMAT      : EMSA/MAS spectral data file
#VERSION     : TC202v2.0 PIXL
#TITLE       : N/A
#DATE        :       Date in the format DD-MMM-YYYY, for example 07-JUL-2010
#TIME        :             The time of day at which the spectrum was recorded, in 24-hour format
#OWNER       : PIXL Flight Model       (PIXL will use this to indicate which instrument took the data.)
#NPOINTS     : 4096     Number of data points in the spectrum (This can be zero for configuration only files)
#NCOLUMNS    : 2     Number of data columns in the spectrum (This can be zero for configuration only files)
#XUNITS      : eV
#YUNITS      : COUNTS
#DATATYPE    : YY
#XPERCHAN    : 7.862, 7.881   eV per channel (separate by commas if more than one detector)
#OFFSET      : 18.5, -22.4         eV of first channel  (separate by commas if more than one detector
#SIGNALTYPE  : XRF
#YP_TEMP     : 3.198
#LIVETIME    : 9.00301, 8.99361   seconds (separate by commas if more than one detector)
#REALTIME    : 10, 10.0   seconds (separate by commas if more than one detector)
#SPECTRUM    : start of spectrum data
0, 0
0, 0
0, 0
0, 0
0, 0
0, 0
0, 0
0, 0
0, 2
0, 1
1, 0
33, 31
57, 41
7, 5
2, 7
70, 59
461, 495
82, 69
5, 7
1, 1
1, 2
3, 2
1, 1
3, 2
15, 15
27, 15
20, 15
13, 9
6, 4
1, 2
2, 4
3, 7
4, 7
16, 22
23, 24
9, 22
59, 34
30, 15
6, 2
2, 4
9, 1
16, 9
13, 9
10, 13
8, 8
5, 15
8, 8
5, 4
10, 11
7, 9
7, 14
21, 9
10, 12
66, 63
82, 94
20, 20
34, 46
666, 807
3636, 3788
2345, 1823
165, 127
20, 13
11, 36
132, 206
551, 591
327, 277
36, 18
2, 12
6, 14
5, 5
3, 5
8, 14
4, 7
4, 3
6, 5
6, 4
1, 4
4, 10
8, 3
2, 4
4, 9
2, 4
3, 5
6, 3
3, 2
1, 3
6, 2
9, 4
1, 1
2, 2
3, 2
6, 3
6, 3
9, 2
4, 2
3, 3
4, 2
3, 1
2, 6
1, 8
1, 8
3, 2
3, 6
1, 6
1, 7
1, 2
3, 2
2, 2
2, 2
5, 1
1, 0
2, 1
0, 3
4, 2
1, 1
2, 4
9, 5
5, 4
2, 1
2, 2
1, 3
2, 1
2, 0
2, 2
3, 2
0, 2
0, 0
1, 1
0, 2
3, 2
5, 3
3, 0
1, 1
1, 0
1, 0
2, 2
2, 1
1, 0
0, 0
1, 0
0, 0
0, 0
0, 0
1, 1
0, 2
0, 0
0, 0
0, 0
0, 0
1, 0
0, 1
1, 0
0, 0
0, 0
0, 0
0, 0
0, 0
0, 0
2, 2
0, 1
0, 0
0, 0
0, 1
0, 0
0, 0
0, 1
0, 0
1, 1
0, 0
0, 0
1, 0
0, 0
0, 0
0, 0
0, 1
0, 0
0, 0
0, 0
0, 0
0, 0
0, 0
0, 0
0, 0
0, 0
0, 0
1, 0
0, 0
0, 1
0, 0
0, 0
0, 0
0, 0
0, 0
0, 0
0, 0
0, 0
0, 0
0, 0
0, 0
0, 0
0, 0
0, 0
0, 0
0, 0
0, 0
0, 0
0, 0
0, 0
0, 0
0, 0
1, 0
0, 0
0, 0
0, 0
0, 0
0, 0
0, 0
0, 0
0, 0
0, 0
0, 0
0, 0
0, 0
0, 0
0, 0
0, 0
0, 0
0, 0
0, 0
0, 0
0, 0
0, 0
0, 0
0, 0
0, 0
0, 0
0, 0
0, 0
0, 0
0, 0
0, 0
0, 0
0, 0
0, 0
0, 0
0, 0
0, 0
0, 0
0, 0
0, 0
0, 0
0, 0
0, 0
0, 0
0, 0
0, 0
0, 0
0, 0
0, 0
0, 0
0, 0
0, 0
0, 0
0, 0
0, 0
0, 0
0, 0
0, 0
0, 0
0, 0
0, 0
0, 0
0, 0
0, 0
0, 0
0, 0
0, 0
0, 0
0, 0
0, 0
0, 0
0, 0
0, 0
0, 0
0, 0
0, 0
0, 0
0, 0
0, 0
0, 0
0, 0
0, 0
0, 0
0, 0
#ENDOFDATA     end of spectrum data