File: host_upload/12-01-2023/Dourbes (shot-by-shot)/upload_4/ps__0257_0689790785_000rfs_shot_3180.msa
#FORMAT      : EMSA/MAS spectral data file
#VERSION     : TC202v2.0 PIXL
#TITLE       : N/A
#DATE        :       Date in the format DD-MMM-YYYY, for example 07-JUL-2010
#TIME        :             The time of day at which the spectrum was recorded, in 24-hour format
#OWNER       : PIXL Flight Model       (PIXL will use this to indicate which instrument took the data.)
#NPOINTS     : 4096     Number of data points in the spectrum (This can be zero for configuration only files)
#NCOLUMNS    : 2     Number of data columns in the spectrum (This can be zero for configuration only files)
#XUNITS      : eV
#YUNITS      : COUNTS
#DATATYPE    : YY
#XPERCHAN    : 7.862, 7.881   eV per channel (separate by commas if more than one detector)
#OFFSET      : 18.5, -22.4         eV of first channel  (separate by commas if more than one detector
#SIGNALTYPE  : XRF
#YP_TEMP     : 2.877
#LIVETIME    : 9.00359, 9.00785   seconds (separate by commas if more than one detector)
#REALTIME    : 10, 10.0   seconds (separate by commas if more than one detector)
#SPECTRUM    : start of spectrum data
0, 0
0, 0
0, 0
0, 0
0, 0
0, 0
0, 0
1, 0
0, 0
1, 0
0, 2
31, 20
39, 48
5, 3
6, 4
99, 77
512, 493
84, 65
4, 4
9, 0
2, 2
3, 5
3, 2
3, 4
25, 22
28, 26
20, 20
9, 4
5, 5
7, 2
4, 4
5, 3
1, 2
44, 43
65, 51
8, 9
10, 6
12, 8
3, 1
7, 3
5, 3
7, 11
16, 24
16, 14
3, 7
9, 5
6, 4
3, 6
8, 8
11, 11
7, 8
8, 11
4, 11
74, 58
102, 89
30, 23
48, 41
638, 756
3586, 3806
2317, 1866
193, 100
15, 70
19, 85
138, 163
548, 540
312, 263
12, 41
19, 9
10, 7
4, 5
1, 3
4, 16
3, 8
5, 7
7, 4
5, 8
1, 2
3, 5
5, 3
8, 4
3, 2
2, 5
0, 1
1, 1
0, 0
4, 4
3, 3
3, 3
0, 4
4, 3
7, 8
0, 6
4, 4
3, 1
2, 1
3, 1
1, 4
3, 1
1, 2
3, 3
3, 5
4, 1
2, 1
1, 2
1, 2
2, 2
1, 2
1, 4
1, 0
0, 2
3, 1
1, 1
2, 4
1, 1
0, 1
4, 2
13, 8
1, 4
1, 4
0, 1
0, 3
1, 1
2, 4
1, 5
3, 0
2, 0
0, 0
2, 2
0, 1
2, 1
0, 0
0, 1
1, 0
4, 1
0, 1
1, 0
1, 1
1, 0
0, 0
0, 0
0, 1
0, 0
0, 0
0, 0
1, 0
0, 1
0, 0
0, 0
0, 0
0, 0
0, 0
1, 1
1, 1
0, 0
0, 0
0, 0
0, 0
1, 0
0, 0
1, 0
0, 0
0, 0
1, 0
0, 1
0, 0
0, 0
0, 0
0, 1
0, 0
0, 0
0, 0
0, 0
1, 0
0, 0
0, 0
1, 0
0, 0
0, 0
0, 0
0, 0
0, 0
0, 0
0, 0
0, 0
0, 0
0, 1
0, 0
0, 0
0, 0
0, 0
0, 0
0, 0
0, 0
0, 0
0, 0
0, 0
0, 0
0, 0
0, 0
0, 0
0, 0
0, 0
0, 0
0, 0
0, 0
0, 0
0, 0
0, 0
0, 0
0, 0
0, 0
0, 0
1, 0
0, 0
0, 0
0, 0
0, 0
0, 0
0, 0
0, 0
0, 0
0, 0
0, 0
0, 0
0, 0
0, 0
0, 0
0, 0
0, 0
0, 0
0, 0
0, 0
0, 0
0, 0
0, 0
0, 0
0, 0
0, 0
0, 0
0, 0
0, 0
0, 0
0, 0
0, 0
0, 0
0, 0
0, 0
0, 0
0, 0
0, 0
0, 0
0, 0
0, 0
0, 0
0, 0
0, 0
0, 0
0, 0
0, 0
0, 0
0, 0
0, 0
0, 0
0, 0
0, 0
0, 0
0, 0
0, 0
0, 0
0, 0
0, 0
0, 0
0, 0
0, 0
0, 0
0, 0
0, 0
0, 0
0, 0
0, 0
0, 0
0, 0
0, 0
0, 0
0, 0
0, 0
0, 0
0, 0
0, 0
0, 0
0, 0
0, 0
0, 0
0, 0
#ENDOFDATA     end of spectrum data