File: host_upload/12-01-2023/Dourbes (shot-by-shot)/upload_4/ps__0257_0689790785_000rfs_shot_3304.msa
#FORMAT      : EMSA/MAS spectral data file
#VERSION     : TC202v2.0 PIXL
#TITLE       : N/A
#DATE        :       Date in the format DD-MMM-YYYY, for example 07-JUL-2010
#TIME        :             The time of day at which the spectrum was recorded, in 24-hour format
#OWNER       : PIXL Flight Model       (PIXL will use this to indicate which instrument took the data.)
#NPOINTS     : 4096     Number of data points in the spectrum (This can be zero for configuration only files)
#NCOLUMNS    : 2     Number of data columns in the spectrum (This can be zero for configuration only files)
#XUNITS      : eV
#YUNITS      : COUNTS
#DATATYPE    : YY
#XPERCHAN    : 7.862, 7.881   eV per channel (separate by commas if more than one detector)
#OFFSET      : 18.5, -22.4         eV of first channel  (separate by commas if more than one detector
#SIGNALTYPE  : XRF
#YP_TEMP     : 3.069
#LIVETIME    : 8.99434, 9.00379   seconds (separate by commas if more than one detector)
#REALTIME    : 10, 10.0   seconds (separate by commas if more than one detector)
#SPECTRUM    : start of spectrum data
0, 0
0, 0
0, 0
0, 0
0, 0
0, 0
0, 0
1, 1
0, 1
1, 3
3, 2
31, 26
26, 26
14, 7
21, 23
84, 72
599, 615
100, 92
20, 25
8, 15
6, 2
9, 4
6, 3
10, 13
50, 55
64, 90
29, 61
18, 32
9, 3
3, 7
29, 31
12, 12
11, 11
61, 67
79, 100
9, 13
25, 9
19, 8
5, 7
5, 5
17, 16
31, 43
26, 31
21, 15
16, 9
9, 8
10, 10
5, 5
12, 12
24, 18
23, 17
8, 14
10, 33
56, 66
95, 80
28, 18
29, 42
637, 741
3358, 3468
2047, 1746
160, 111
28, 22
47, 32
115, 182
499, 518
268, 232
24, 19
7, 9
15, 14
10, 7
5, 12
6, 10
5, 10
6, 4
7, 7
2, 5
4, 9
6, 4
5, 2
8, 5
5, 5
6, 5
2, 3
2, 7
1, 4
1, 4
6, 8
0, 6
4, 4
2, 5
5, 5
5, 3
5, 7
2, 5
2, 3
4, 2
7, 6
4, 2
1, 6
1, 0
1, 2
3, 1
4, 4
0, 1
2, 2
2, 2
2, 2
0, 2
0, 2
4, 2
0, 1
2, 4
3, 7
2, 3
2, 6
3, 2
1, 3
5, 3
1, 0
1, 1
4, 2
1, 1
1, 6
2, 4
2, 2
1, 1
0, 1
1, 1
0, 0
0, 1
2, 3
4, 2
0, 0
0, 1
0, 0
1, 1
1, 0
1, 0
1, 1
0, 1
1, 1
0, 1
0, 2
1, 0
1, 2
0, 0
0, 0
0, 1
0, 1
0, 0
0, 0
0, 1
2, 0
0, 1
0, 0
0, 0
0, 0
1, 0
0, 0
0, 0
1, 0
0, 0
0, 0
0, 0
0, 0
0, 0
0, 0
1, 0
0, 0
0, 0
0, 2
0, 0
0, 0
1, 0
0, 0
0, 1
0, 1
0, 2
0, 0
0, 0
0, 0
0, 0
0, 0
0, 0
0, 0
0, 0
0, 0
0, 0
1, 0
1, 0
1, 0
0, 0
0, 0
1, 0
0, 0
0, 0
0, 0
0, 0
0, 0
0, 0
0, 0
0, 0
0, 0
0, 0
0, 0
0, 0
0, 0
0, 0
0, 0
0, 0
0, 1
0, 0
0, 0
0, 0
0, 0
0, 0
0, 0
0, 0
0, 0
0, 0
0, 0
0, 0
0, 0
0, 0
0, 0
0, 0
0, 0
0, 0
0, 0
0, 0
0, 0
0, 0
0, 0
0, 0
0, 0
0, 0
0, 0
0, 0
0, 0
0, 0
0, 0
0, 0
0, 0
0, 0
0, 0
0, 0
0, 0
0, 0
0, 0
0, 0
0, 0
0, 0
0, 0
0, 0
0, 0
0, 0
0, 0
0, 0
0, 0
0, 0
0, 0
0, 0
0, 0
0, 0
0, 0
0, 0
0, 0
0, 0
0, 0
0, 0
0, 0
0, 0
0, 0
0, 0
0, 0
0, 0
0, 0
0, 0
0, 0
0, 0
0, 0
0, 0
0, 0
0, 0
0, 0
0, 0
0, 0
0, 0
0, 0
0, 0
0, 0
0, 0
0, 0
0, 0
#ENDOFDATA     end of spectrum data