File: host_upload/12-01-2023/Dourbes (shot-by-shot)/upload_4/ps__0257_0689790785_000rfs_shot_3101.msa
#FORMAT      : EMSA/MAS spectral data file
#VERSION     : TC202v2.0 PIXL
#TITLE       : N/A
#DATE        :       Date in the format DD-MMM-YYYY, for example 07-JUL-2010
#TIME        :             The time of day at which the spectrum was recorded, in 24-hour format
#OWNER       : PIXL Flight Model       (PIXL will use this to indicate which instrument took the data.)
#NPOINTS     : 4096     Number of data points in the spectrum (This can be zero for configuration only files)
#NCOLUMNS    : 2     Number of data columns in the spectrum (This can be zero for configuration only files)
#XUNITS      : eV
#YUNITS      : COUNTS
#DATATYPE    : YY
#XPERCHAN    : 7.862, 7.881   eV per channel (separate by commas if more than one detector)
#OFFSET      : 18.5, -22.4         eV of first channel  (separate by commas if more than one detector
#SIGNALTYPE  : XRF
#YP_TEMP     : 3.101
#LIVETIME    : 8.99691, 8.99725   seconds (separate by commas if more than one detector)
#REALTIME    : 10, 10.0   seconds (separate by commas if more than one detector)
#SPECTRUM    : start of spectrum data
0, 0
0, 0
0, 0
0, 0
0, 0
0, 0
0, 0
0, 0
1, 0
2, 2
2, 2
28, 17
39, 34
5, 4
5, 3
72, 65
496, 418
94, 77
6, 6
2, 4
2, 2
8, 3
4, 5
18, 16
86, 67
66, 49
28, 28
16, 15
11, 1
6, 4
2, 2
5, 4
3, 4
15, 10
17, 22
5, 8
6, 2
10, 4
2, 5
5, 5
5, 35
11, 66
27, 39
14, 12
4, 5
11, 4
7, 7
10, 5
5, 11
10, 15
10, 6
9, 11
10, 14
46, 67
88, 72
32, 27
45, 55
671, 784
3617, 3783
2339, 1846
187, 124
16, 16
21, 29
141, 154
570, 550
292, 263
25, 26
1, 1
11, 8
5, 4
7, 3
6, 24
5, 17
8, 7
10, 4
5, 4
3, 1
0, 5
3, 2
4, 6
4, 2
2, 2
3, 3
1, 2
4, 1
0, 4
1, 13
3, 16
2, 4
1, 4
3, 2
4, 3
2, 3
0, 3
1, 2
6, 4
4, 5
1, 2
5, 2
13, 1
4, 1
4, 3
2, 3
5, 2
1, 3
1, 0
1, 0
1, 0
1, 0
0, 1
2, 0
4, 5
2, 3
1, 4
2, 0
5, 5
8, 6
4, 4
2, 0
0, 2
2, 1
0, 1
3, 1
2, 2
2, 0
0, 0
2, 2
1, 0
2, 0
1, 0
2, 1
0, 0
2, 1
1, 0
0, 0
0, 0
2, 0
0, 0
0, 2
0, 0
2, 0
0, 2
0, 0
1, 1
1, 1
0, 0
1, 1
0, 0
0, 1
0, 1
2, 2
0, 1
0, 0
1, 0
0, 1
1, 0
1, 0
1, 0
0, 1
0, 0
1, 1
0, 0
0, 0
0, 0
1, 0
0, 0
0, 0
0, 0
0, 0
0, 0
0, 0
1, 0
0, 0
0, 0
0, 0
0, 0
0, 0
0, 0
0, 0
0, 0
0, 0
0, 0
0, 0
0, 0
0, 0
0, 0
0, 0
1, 0
0, 0
0, 0
0, 0
0, 0
0, 0
0, 0
0, 0
0, 0
0, 0
0, 0
0, 0
1, 0
0, 0
0, 0
0, 0
0, 0
0, 0
0, 0
1, 0
0, 0
0, 0
0, 0
0, 0
0, 0
0, 0
0, 0
0, 0
0, 0
0, 0
0, 0
0, 0
0, 0
0, 0
0, 0
0, 0
0, 0
0, 0
0, 0
0, 0
0, 0
0, 0
0, 0
0, 0
0, 0
0, 0
0, 0
0, 0
0, 0
0, 0
0, 0
0, 0
0, 0
0, 0
0, 0
0, 0
0, 0
0, 0
0, 0
0, 0
0, 0
0, 0
0, 0
0, 0
0, 0
0, 0
0, 0
0, 0
0, 0
0, 0
0, 0
0, 0
0, 0
0, 0
0, 0
0, 0
0, 0
0, 0
0, 0
0, 0
0, 0
0, 0
0, 0
0, 0
0, 0
0, 0
0, 0
0, 0
0, 0
0, 0
0, 0
0, 0
0, 0
0, 0
0, 0
0, 0
0, 0
0, 0
0, 0
0, 0
0, 0
0, 0
0, 0
0, 0
0, 0
0, 0
0, 0
#ENDOFDATA     end of spectrum data