File: host_upload/12-01-2023/Dourbes (shot-by-shot)/upload_4/ps__0257_0689790785_000rfs_shot_3025.msa
#FORMAT      : EMSA/MAS spectral data file
#VERSION     : TC202v2.0 PIXL
#TITLE       : N/A
#DATE        :       Date in the format DD-MMM-YYYY, for example 07-JUL-2010
#TIME        :             The time of day at which the spectrum was recorded, in 24-hour format
#OWNER       : PIXL Flight Model       (PIXL will use this to indicate which instrument took the data.)
#NPOINTS     : 4096     Number of data points in the spectrum (This can be zero for configuration only files)
#NCOLUMNS    : 2     Number of data columns in the spectrum (This can be zero for configuration only files)
#XUNITS      : eV
#YUNITS      : COUNTS
#DATATYPE    : YY
#XPERCHAN    : 7.862, 7.881   eV per channel (separate by commas if more than one detector)
#OFFSET      : 18.5, -22.4         eV of first channel  (separate by commas if more than one detector
#SIGNALTYPE  : XRF
#YP_TEMP     : 2.909
#LIVETIME    : 8.99188, 8.99687   seconds (separate by commas if more than one detector)
#REALTIME    : 10, 10.0   seconds (separate by commas if more than one detector)
#SPECTRUM    : start of spectrum data
0, 0
0, 0
0, 0
0, 0
0, 0
0, 0
0, 0
0, 1
3, 2
3, 3
2, 3
21, 18
29, 25
3, 6
17, 13
107, 70
623, 509
106, 92
5, 5
4, 4
12, 19
92, 101
34, 40
31, 29
160, 162
116, 134
43, 39
28, 27
19, 11
5, 7
14, 10
8, 7
9, 9
87, 62
100, 110
15, 15
16, 16
16, 18
20, 10
15, 7
12, 14
29, 24
52, 25
22, 16
18, 4
9, 17
15, 17
14, 14
16, 21
24, 42
21, 15
20, 19
11, 16
74, 85
120, 87
34, 20
35, 33
607, 668
3178, 3320
2059, 1780
202, 123
21, 22
29, 37
140, 175
513, 524
288, 217
23, 19
2, 11
4, 6
7, 5
5, 5
7, 5
7, 11
6, 5
7, 6
8, 4
2, 8
5, 4
6, 3
9, 6
5, 4
4, 5
8, 7
4, 3
6, 6
1, 2
2, 5
2, 6
3, 3
6, 1
5, 4
4, 0
7, 3
7, 5
6, 0
5, 2
2, 3
0, 3
4, 3
6, 2
3, 3
3, 4
2, 2
0, 0
2, 3
2, 1
3, 1
2, 4
0, 4
1, 1
0, 1
1, 4
2, 4
2, 1
0, 4
6, 1
5, 10
8, 5
3, 2
0, 0
0, 1
3, 3
2, 0
0, 2
2, 1
0, 1
2, 0
2, 2
1, 1
0, 0
0, 0
0, 1
0, 0
1, 1
1, 0
0, 1
1, 0
1, 2
1, 0
0, 0
1, 1
1, 1
0, 0
2, 1
0, 1
0, 0
1, 1
0, 1
1, 0
2, 0
0, 1
0, 1
0, 1
0, 2
0, 1
1, 2
1, 1
0, 0
0, 0
1, 0
0, 1
0, 0
0, 1
0, 0
0, 0
0, 0
0, 0
0, 2
0, 0
0, 0
0, 1
0, 0
0, 0
0, 0
0, 0
0, 0
0, 0
0, 0
0, 0
0, 0
1, 1
0, 0
0, 0
2, 0
0, 0
0, 0
0, 0
0, 0
0, 0
0, 0
0, 0
0, 0
0, 0
0, 0
0, 0
0, 0
0, 0
0, 0
0, 0
0, 0
0, 0
0, 0
0, 1
0, 0
0, 0
0, 0
0, 1
0, 0
0, 0
0, 0
0, 0
0, 0
0, 0
0, 0
0, 0
0, 0
0, 0
0, 0
0, 0
0, 0
0, 0
0, 0
0, 0
0, 0
0, 0
0, 0
0, 0
0, 0
0, 0
0, 0
0, 0
0, 0
0, 0
0, 0
0, 0
0, 0
0, 0
0, 0
0, 0
0, 0
0, 0
0, 0
0, 0
0, 0
0, 0
0, 0
0, 0
0, 0
0, 0
0, 0
0, 0
0, 0
0, 0
0, 0
0, 0
0, 0
0, 0
0, 0
0, 0
0, 0
0, 0
0, 0
0, 0
0, 0
0, 0
0, 0
0, 0
0, 0
0, 0
0, 0
0, 0
0, 0
0, 0
0, 0
0, 0
0, 0
0, 0
0, 0
0, 0
0, 0
0, 0
0, 0
0, 0
0, 0
0, 0
0, 0
0, 0
0, 0
0, 0
0, 0
0, 0
0, 0
0, 0
0, 0
#ENDOFDATA     end of spectrum data