File: host_upload/12-01-2023/Dourbes (shot-by-shot)/upload_4/ps__0257_0689790785_000rfs_shot_3115.msa
#FORMAT      : EMSA/MAS spectral data file
#VERSION     : TC202v2.0 PIXL
#TITLE       : N/A
#DATE        :       Date in the format DD-MMM-YYYY, for example 07-JUL-2010
#TIME        :             The time of day at which the spectrum was recorded, in 24-hour format
#OWNER       : PIXL Flight Model       (PIXL will use this to indicate which instrument took the data.)
#NPOINTS     : 4096     Number of data points in the spectrum (This can be zero for configuration only files)
#NCOLUMNS    : 2     Number of data columns in the spectrum (This can be zero for configuration only files)
#XUNITS      : eV
#YUNITS      : COUNTS
#DATATYPE    : YY
#XPERCHAN    : 7.862, 7.881   eV per channel (separate by commas if more than one detector)
#OFFSET      : 18.5, -22.4         eV of first channel  (separate by commas if more than one detector
#SIGNALTYPE  : XRF
#YP_TEMP     : 3.005
#LIVETIME    : 9.1445, 9.14328   seconds (separate by commas if more than one detector)
#REALTIME    : 10, 10.0   seconds (separate by commas if more than one detector)
#SPECTRUM    : start of spectrum data
0, 0
0, 0
0, 0
0, 0
0, 0
0, 0
0, 0
0, 0
0, 0
2, 0
2, 0
24, 24
37, 28
11, 8
9, 11
159, 132
931, 971
138, 145
20, 14
1, 3
2, 3
8, 11
4, 3
13, 6
41, 47
32, 40
16, 19
6, 8
5, 6
3, 1
1, 7
1, 5
23, 30
608, 643
994, 947
112, 80
105, 107
139, 120
15, 13
1, 3
9, 9
31, 29
15, 9
7, 5
0, 3
6, 3
7, 10
5, 4
8, 10
64, 39
32, 26
2, 4
10, 5
16, 31
52, 55
13, 15
12, 19
192, 272
1108, 1193
681, 644
86, 39
16, 11
8, 12
49, 56
182, 206
100, 107
17, 9
29, 9
35, 7
14, 3
13, 7
5, 4
4, 1
8, 5
3, 4
8, 3
4, 6
7, 21
6, 10
5, 4
0, 3
5, 8
4, 4
5, 4
2, 12
11, 8
4, 8
5, 4
5, 17
5, 23
3, 4
10, 1
3, 1
3, 2
1, 2
3, 0
2, 6
4, 3
4, 2
5, 2
2, 1
2, 2
2, 3
2, 3
1, 3
1, 1
2, 3
3, 3
3, 3
3, 4
3, 1
5, 2
3, 2
1, 3
0, 1
3, 6
0, 1
0, 2
0, 3
0, 2
3, 2
4, 2
0, 1
1, 3
3, 2
0, 0
3, 1
1, 0
1, 0
2, 1
2, 2
2, 1
0, 3
0, 0
2, 1
2, 1
2, 1
0, 1
2, 1
1, 1
1, 0
0, 1
1, 1
1, 1
0, 0
0, 0
1, 0
1, 1
0, 0
2, 1
0, 0
0, 0
1, 1
1, 0
0, 1
0, 1
1, 0
1, 0
1, 0
2, 2
1, 0
0, 0
0, 0
0, 0
0, 0
0, 0
0, 0
0, 0
0, 1
1, 0
1, 0
0, 0
0, 0
0, 1
0, 1
0, 1
0, 0
0, 0
0, 0
0, 0
0, 0
0, 0
0, 1
1, 0
0, 1
0, 0
0, 0
1, 0
0, 0
0, 0
0, 0
0, 0
0, 0
0, 0
0, 0
0, 0
0, 0
0, 0
0, 0
0, 0
0, 0
0, 0
0, 0
0, 0
0, 0
0, 0
0, 0
0, 0
0, 0
0, 0
0, 0
0, 0
0, 0
0, 0
0, 0
0, 0
0, 0
0, 0
0, 0
0, 0
0, 0
0, 0
0, 0
0, 0
0, 0
0, 0
0, 0
0, 0
0, 0
0, 0
0, 0
0, 0
0, 0
0, 0
0, 0
0, 0
0, 0
0, 0
0, 0
0, 0
0, 0
0, 0
0, 0
0, 0
0, 0
0, 0
0, 0
0, 0
0, 0
0, 0
0, 0
0, 0
0, 0
0, 0
0, 0
0, 0
0, 0
0, 0
0, 0
0, 0
0, 0
0, 0
0, 0
0, 0
0, 0
0, 0
0, 0
0, 0
0, 0
0, 0
0, 0
0, 0
0, 0
0, 0
0, 0
0, 0
0, 0
0, 0
0, 0
0, 0
0, 0
0, 0
0, 0
0, 0
0, 0
0, 0
0, 0
0, 0
0, 0
0, 0
0, 0
0, 0
0, 0
0, 0
#ENDOFDATA     end of spectrum data