File: host_upload/12-01-2023/Dourbes (shot-by-shot)/upload_4/ps__0257_0689790785_000rfs_shot_3051.msa
#FORMAT      : EMSA/MAS spectral data file
#VERSION     : TC202v2.0 PIXL
#TITLE       : N/A
#DATE        :       Date in the format DD-MMM-YYYY, for example 07-JUL-2010
#TIME        :             The time of day at which the spectrum was recorded, in 24-hour format
#OWNER       : PIXL Flight Model       (PIXL will use this to indicate which instrument took the data.)
#NPOINTS     : 4096     Number of data points in the spectrum (This can be zero for configuration only files)
#NCOLUMNS    : 2     Number of data columns in the spectrum (This can be zero for configuration only files)
#XUNITS      : eV
#YUNITS      : COUNTS
#DATATYPE    : YY
#XPERCHAN    : 7.862, 7.881   eV per channel (separate by commas if more than one detector)
#OFFSET      : 18.5, -22.4         eV of first channel  (separate by commas if more than one detector
#SIGNALTYPE  : XRF
#YP_TEMP     : 3.069
#LIVETIME    : 8.97167, 9.00476   seconds (separate by commas if more than one detector)
#REALTIME    : 10, 10.0   seconds (separate by commas if more than one detector)
#SPECTRUM    : start of spectrum data
0, 0
0, 0
0, 0
0, 0
0, 0
0, 0
0, 0
0, 0
9, 1
14, 5
6, 4
36, 22
30, 26
5, 2
7, 3
79, 71
449, 487
94, 74
5, 8
5, 1
20, 15
93, 126
27, 39
32, 22
762, 149
1163, 141
120, 56
19, 16
6, 3
4, 7
3, 3
2, 0
5, 7
67, 73
100, 114
14, 11
29, 12
17, 17
8, 4
7, 8
9, 12
16, 24
26, 82
20, 47
10, 10
8, 9
11, 10
6, 12
10, 9
17, 11
10, 10
10, 14
17, 11
60, 55
90, 82
29, 38
24, 39
555, 732
3175, 3494
2026, 1769
174, 115
43, 22
60, 33
127, 154
467, 526
306, 250
25, 27
9, 4
11, 7
5, 7
3, 2
6, 12
3, 7
3, 6
3, 6
6, 4
5, 6
3, 6
2, 7
8, 4
3, 11
5, 4
8, 6
9, 9
5, 14
7, 13
5, 6
3, 2
8, 6
2, 2
3, 0
1, 5
3, 0
4, 2
2, 0
4, 0
1, 5
4, 2
4, 2
10, 3
7, 2
1, 6
3, 3
2, 0
4, 3
1, 0
3, 1
1, 0
3, 1
1, 3
2, 2
2, 1
0, 4
1, 3
2, 2
4, 5
2, 1
4, 3
1, 0
1, 0
0, 1
3, 3
4, 2
0, 1
3, 3
0, 0
0, 0
1, 1
1, 1
0, 0
0, 1
0, 0
1, 0
0, 0
0, 0
3, 0
2, 0
0, 0
0, 2
1, 0
0, 0
0, 1
1, 0
0, 0
0, 1
0, 0
0, 0
2, 1
0, 1
1, 1
0, 0
0, 1
0, 1
0, 0
0, 0
0, 0
0, 0
0, 0
1, 0
0, 0
1, 0
0, 0
1, 1
0, 2
0, 1
0, 0
0, 0
0, 0
0, 0
0, 0
0, 0
0, 0
0, 0
0, 0
0, 0
0, 0
0, 1
0, 0
0, 0
0, 0
0, 0
0, 0
0, 1
1, 0
1, 0
0, 0
0, 0
0, 0
0, 0
0, 0
0, 0
1, 0
0, 0
0, 0
0, 0
0, 0
0, 0
0, 0
0, 0
0, 0
0, 0
0, 0
0, 0
0, 0
0, 1
0, 0
0, 0
0, 0
0, 0
0, 0
0, 0
0, 0
0, 0
0, 0
0, 0
0, 0
0, 0
0, 0
0, 0
0, 0
0, 0
0, 0
0, 0
0, 0
0, 0
0, 0
0, 0
0, 0
0, 0
0, 0
0, 0
0, 0
0, 0
0, 0
0, 0
0, 0
0, 0
0, 0
0, 0
0, 0
0, 0
0, 0
0, 0
0, 0
0, 0
0, 0
0, 0
0, 0
0, 0
0, 0
0, 0
0, 0
0, 0
0, 0
0, 0
0, 0
0, 0
0, 0
0, 0
0, 0
0, 0
0, 0
0, 0
0, 0
0, 0
0, 0
0, 0
0, 0
0, 0
0, 0
0, 0
0, 0
0, 0
0, 0
0, 0
0, 0
0, 0
0, 0
0, 0
0, 0
0, 0
0, 0
0, 0
0, 0
0, 0
0, 0
0, 0
0, 0
0, 0
0, 0
0, 0
0, 0
0, 0
0, 0
#ENDOFDATA     end of spectrum data