File: host_upload/12-01-2023/Dourbes (shot-by-shot)/upload_4/ps__0257_0689790785_000rfs_shot_3271.msa
#FORMAT      : EMSA/MAS spectral data file
#VERSION     : TC202v2.0 PIXL
#TITLE       : N/A
#DATE        :       Date in the format DD-MMM-YYYY, for example 07-JUL-2010
#TIME        :             The time of day at which the spectrum was recorded, in 24-hour format
#OWNER       : PIXL Flight Model       (PIXL will use this to indicate which instrument took the data.)
#NPOINTS     : 4096     Number of data points in the spectrum (This can be zero for configuration only files)
#NCOLUMNS    : 2     Number of data columns in the spectrum (This can be zero for configuration only files)
#XUNITS      : eV
#YUNITS      : COUNTS
#DATATYPE    : YY
#XPERCHAN    : 7.862, 7.881   eV per channel (separate by commas if more than one detector)
#OFFSET      : 18.5, -22.4         eV of first channel  (separate by commas if more than one detector
#SIGNALTYPE  : XRF
#YP_TEMP     : 3.39
#LIVETIME    : 9.09022, 9.09474   seconds (separate by commas if more than one detector)
#REALTIME    : 10, 10.0   seconds (separate by commas if more than one detector)
#SPECTRUM    : start of spectrum data
0, 0
0, 0
0, 0
0, 0
0, 0
0, 0
0, 0
0, 0
1, 2
1, 3
3, 4
20, 17
29, 23
14, 12
28, 26
98, 124
687, 751
102, 109
4, 9
2, 5
3, 11
6, 15
4, 2
12, 15
36, 119
44, 156
22, 52
16, 14
8, 5
5, 11
45, 40
22, 13
22, 16
160, 178
258, 270
35, 22
27, 34
39, 49
12, 10
4, 5
6, 10
29, 29
20, 15
12, 7
11, 3
11, 19
4, 27
6, 18
11, 13
30, 33
28, 50
19, 44
20, 13
38, 53
77, 46
21, 25
56, 39
429, 541
2035, 2344
1325, 1171
106, 73
16, 17
24, 28
92, 98
323, 361
179, 139
8, 20
10, 7
9, 8
10, 4
3, 4
3, 14
3, 9
4, 2
5, 8
11, 5
10, 2
4, 6
6, 8
5, 3
3, 5
5, 6
3, 1
8, 6
7, 4
5, 10
4, 16
7, 12
1, 7
7, 4
1, 6
7, 8
6, 12
7, 3
6, 4
6, 2
4, 5
3, 3
3, 2
5, 5
2, 4
3, 4
2, 2
3, 4
3, 5
7, 3
8, 2
5, 5
2, 1
1, 2
3, 0
0, 2
1, 1
2, 1
2, 4
4, 2
3, 4
2, 3
0, 2
1, 1
3, 0
0, 2
1, 0
2, 3
1, 2
1, 5
0, 2
1, 2
1, 2
1, 1
1, 0
0, 1
1, 1
0, 2
0, 0
0, 1
0, 1
0, 0
1, 0
0, 0
3, 2
0, 0
0, 2
0, 0
0, 0
1, 0
0, 0
0, 1
1, 0
0, 0
0, 0
0, 0
0, 0
0, 0
0, 0
0, 0
0, 0
0, 0
0, 0
0, 0
1, 0
0, 1
0, 0
0, 0
0, 0
0, 0
0, 0
1, 0
0, 0
0, 0
0, 1
1, 1
0, 0
0, 0
0, 1
0, 0
0, 0
0, 0
0, 0
0, 0
0, 0
0, 0
0, 0
1, 0
1, 0
2, 0
0, 0
0, 1
1, 0
0, 0
0, 0
0, 0
0, 0
0, 0
0, 0
0, 0
0, 0
1, 0
1, 0
0, 0
0, 0
0, 0
0, 0
0, 0
0, 0
0, 0
0, 0
0, 0
0, 0
0, 0
0, 0
0, 0
0, 0
0, 0
0, 0
0, 0
0, 0
0, 0
0, 0
0, 0
0, 0
0, 0
0, 0
0, 0
0, 0
0, 0
0, 0
0, 0
0, 0
0, 0
0, 0
0, 0
0, 0
0, 0
0, 0
0, 0
0, 0
0, 0
0, 0
0, 0
0, 0
0, 0
0, 0
0, 0
0, 0
0, 0
0, 0
0, 0
0, 0
0, 0
0, 0
0, 0
0, 0
0, 0
0, 0
0, 0
0, 0
0, 0
0, 0
0, 0
0, 0
0, 0
0, 0
0, 0
0, 0
0, 0
0, 0
0, 0
0, 0
0, 0
0, 0
0, 0
0, 0
0, 0
0, 0
0, 0
0, 0
0, 0
0, 0
0, 0
0, 0
0, 0
0, 0
0, 0
0, 0
0, 0
0, 0
0, 0
0, 0
0, 0
0, 0
0, 0
0, 0
0, 0
#ENDOFDATA     end of spectrum data