File: host_upload/12-01-2023/Dourbes (shot-by-shot)/upload_4/ps__0257_0689790785_000rfs_shot_3078.msa
#FORMAT      : EMSA/MAS spectral data file
#VERSION     : TC202v2.0 PIXL
#TITLE       : N/A
#DATE        :       Date in the format DD-MMM-YYYY, for example 07-JUL-2010
#TIME        :             The time of day at which the spectrum was recorded, in 24-hour format
#OWNER       : PIXL Flight Model       (PIXL will use this to indicate which instrument took the data.)
#NPOINTS     : 4096     Number of data points in the spectrum (This can be zero for configuration only files)
#NCOLUMNS    : 2     Number of data columns in the spectrum (This can be zero for configuration only files)
#XUNITS      : eV
#YUNITS      : COUNTS
#DATATYPE    : YY
#XPERCHAN    : 7.862, 7.881   eV per channel (separate by commas if more than one detector)
#OFFSET      : 18.5, -22.4         eV of first channel  (separate by commas if more than one detector
#SIGNALTYPE  : XRF
#YP_TEMP     : 2.973
#LIVETIME    : 9.15615, 9.12748   seconds (separate by commas if more than one detector)
#REALTIME    : 10, 10.0   seconds (separate by commas if more than one detector)
#SPECTRUM    : start of spectrum data
0, 0
0, 0
0, 0
0, 0
0, 0
0, 0
0, 0
0, 0
0, 0
2, 1
1, 2
25, 21
28, 22
4, 6
18, 18
111, 166
768, 991
107, 132
22, 21
5, 2
2, 3
3, 10
4, 6
3, 5
27, 14
30, 24
14, 25
10, 29
1, 20
4, 2
5, 3
3, 4
36, 33
598, 716
927, 1156
91, 98
105, 150
125, 156
15, 18
1, 3
8, 6
32, 45
15, 22
2, 7
1, 9
14, 13
6, 21
3, 20
13, 21
41, 54
31, 30
2, 5
4, 6
26, 36
52, 58
28, 12
175, 21
415, 275
1021, 1205
619, 645
45, 50
6, 7
9, 16
49, 53
157, 181
106, 85
15, 21
5, 11
8, 5
3, 4
1, 3
6, 2
3, 5
5, 7
8, 3
12, 6
16, 6
9, 3
3, 9
6, 7
3, 3
3, 2
3, 3
1, 4
3, 6
2, 26
4, 41
6, 22
2, 4
0, 2
4, 1
7, 12
3, 14
6, 17
6, 8
2, 0
1, 0
4, 3
3, 2
0, 1
1, 3
3, 5
4, 4
2, 3
3, 3
7, 3
7, 4
5, 3
1, 3
1, 1
4, 4
1, 8
1, 5
0, 2
2, 0
3, 1
4, 4
1, 1
3, 3
3, 1
3, 1
2, 3
2, 3
1, 6
0, 0
2, 1
0, 0
1, 1
1, 4
0, 1
1, 2
1, 1
0, 3
2, 1
1, 2
0, 3
0, 1
1, 2
1, 2
0, 1
2, 0
2, 1
1, 0
0, 0
0, 1
0, 1
1, 0
2, 1
1, 0
0, 2
0, 0
0, 0
0, 1
0, 0
1, 0
0, 1
0, 2
0, 1
0, 1
2, 0
0, 1
0, 0
1, 0
1, 1
0, 1
0, 1
0, 0
0, 0
0, 1
1, 0
1, 0
1, 0
0, 0
1, 1
1, 1
0, 0
0, 0
0, 0
0, 1
0, 0
0, 0
0, 0
0, 0
0, 1
0, 0
0, 0
0, 0
0, 0
0, 1
1, 0
0, 0
0, 0
0, 0
0, 0
0, 0
0, 0
0, 0
0, 0
0, 0
0, 0
0, 0
0, 0
0, 0
0, 0
0, 0
1, 0
0, 0
0, 0
0, 0
0, 0
0, 0
0, 0
0, 0
0, 0
0, 0
0, 0
0, 0
0, 0
0, 0
0, 0
0, 0
0, 0
0, 0
0, 0
0, 0
0, 0
0, 0
0, 0
0, 0
0, 0
0, 0
0, 0
0, 0
0, 0
0, 0
0, 0
0, 0
0, 0
0, 0
0, 0
0, 0
0, 0
0, 0
0, 0
0, 0
0, 0
0, 0
0, 0
0, 0
0, 0
0, 0
0, 0
0, 0
0, 0
0, 0
0, 0
0, 0
0, 0
0, 0
0, 0
0, 0
0, 0
0, 0
0, 0
0, 0
0, 0
0, 0
0, 0
0, 0
0, 0
0, 0
0, 0
0, 0
0, 0
0, 0
0, 0
0, 0
0, 0
0, 0
0, 0
0, 0
0, 0
0, 0
0, 0
0, 0
0, 0
0, 0
0, 0
0, 0
0, 0
0, 0
0, 0
0, 0
0, 0
#ENDOFDATA     end of spectrum data