File: host_upload/12-01-2023/Dourbes (shot-by-shot)/upload_4/ps__0257_0689790785_000rfs_shot_3202.msa
#FORMAT      : EMSA/MAS spectral data file
#VERSION     : TC202v2.0 PIXL
#TITLE       : N/A
#DATE        :       Date in the format DD-MMM-YYYY, for example 07-JUL-2010
#TIME        :             The time of day at which the spectrum was recorded, in 24-hour format
#OWNER       : PIXL Flight Model       (PIXL will use this to indicate which instrument took the data.)
#NPOINTS     : 4096     Number of data points in the spectrum (This can be zero for configuration only files)
#NCOLUMNS    : 2     Number of data columns in the spectrum (This can be zero for configuration only files)
#XUNITS      : eV
#YUNITS      : COUNTS
#DATATYPE    : YY
#XPERCHAN    : 7.862, 7.881   eV per channel (separate by commas if more than one detector)
#OFFSET      : 18.5, -22.4         eV of first channel  (separate by commas if more than one detector
#SIGNALTYPE  : XRF
#YP_TEMP     : 3.005
#LIVETIME    : 9.12568, 9.10955   seconds (separate by commas if more than one detector)
#REALTIME    : 10, 10.0   seconds (separate by commas if more than one detector)
#SPECTRUM    : start of spectrum data
0, 0
0, 0
0, 0
0, 0
0, 0
0, 0
0, 0
0, 0
2, 1
1, 1
0, 2
24, 21
24, 31
12, 12
26, 29
111, 116
599, 710
115, 108
17, 27
18, 13
10, 11
42, 56
23, 16
30, 32
129, 154
94, 73
46, 54
16, 22
3, 4
11, 6
44, 38
25, 23
9, 13
47, 59
61, 79
11, 21
6, 16
11, 12
7, 2
10, 6
8, 13
25, 28
21, 20
18, 16
11, 29
11, 30
7, 13
12, 10
30, 13
53, 1
18, 9
11, 5
11, 12
20, 60
35, 48
17, 17
23, 23
359, 441
1886, 2240
1194, 1044
88, 63
15, 9
27, 18
120, 102
305, 353
160, 148
13, 16
7, 2
5, 12
13, 10
7, 4
6, 5
8, 7
4, 9
5, 7
8, 5
4, 7
9, 4
7, 8
4, 4
11, 4
12, 4
7, 8
6, 4
4, 11
8, 5
4, 10
3, 3
4, 5
5, 7
2, 6
3, 4
6, 5
1, 7
6, 4
4, 5
4, 6
4, 8
4, 2
6, 2
3, 8
2, 3
5, 5
1, 7
2, 5
2, 9
5, 4
1, 5
3, 3
4, 0
1, 4
2, 4
4, 1
1, 2
1, 3
1, 3
3, 4
2, 3
1, 3
1, 1
2, 5
3, 1
4, 6
2, 2
2, 3
2, 1
2, 0
2, 0
2, 1
2, 1
1, 1
0, 1
0, 0
0, 1
0, 0
0, 2
2, 0
1, 1
1, 1
0, 0
0, 0
0, 3
2, 0
0, 1
0, 1
1, 2
0, 1
0, 1
0, 0
0, 1
1, 0
0, 1
0, 3
0, 0
0, 0
0, 0
1, 1
0, 0
0, 1
0, 0
0, 0
0, 1
0, 2
0, 1
0, 0
0, 0
0, 0
1, 0
0, 0
0, 0
0, 0
0, 2
0, 0
0, 1
0, 0
0, 0
1, 0
0, 0
0, 0
0, 0
0, 0
0, 1
0, 0
0, 0
0, 1
0, 0
0, 0
0, 0
0, 0
0, 0
0, 0
0, 0
0, 0
0, 0
0, 0
0, 0
0, 1
0, 0
0, 0
0, 0
0, 0
0, 0
0, 0
0, 0
0, 0
0, 1
1, 0
0, 0
0, 0
0, 0
0, 0
0, 0
0, 0
0, 0
0, 0
0, 0
0, 0
0, 0
0, 0
0, 0
0, 0
0, 0
0, 0
0, 0
0, 0
0, 0
0, 0
0, 0
0, 0
0, 0
0, 0
0, 0
0, 0
0, 0
0, 0
0, 0
0, 0
0, 0
0, 0
0, 0
0, 0
0, 0
0, 0
0, 0
0, 0
0, 0
0, 0
0, 0
0, 0
0, 0
0, 0
0, 0
0, 0
0, 0
0, 0
0, 0
0, 0
0, 0
0, 0
0, 0
0, 0
0, 0
0, 0
0, 0
0, 0
0, 0
0, 0
0, 0
0, 0
0, 0
0, 0
0, 0
0, 0
0, 0
0, 0
0, 0
0, 0
0, 0
0, 0
0, 0
0, 0
0, 0
0, 0
0, 0
0, 0
0, 0
0, 0
0, 0
0, 0
0, 0
0, 0
0, 0
0, 0
0, 0
#ENDOFDATA     end of spectrum data