File: host_upload/12-01-2023/Dourbes (shot-by-shot)/upload_4/ps__0257_0689790785_000rfs_shot_3242.msa
#FORMAT      : EMSA/MAS spectral data file
#VERSION     : TC202v2.0 PIXL
#TITLE       : N/A
#DATE        :       Date in the format DD-MMM-YYYY, for example 07-JUL-2010
#TIME        :             The time of day at which the spectrum was recorded, in 24-hour format
#OWNER       : PIXL Flight Model       (PIXL will use this to indicate which instrument took the data.)
#NPOINTS     : 4096     Number of data points in the spectrum (This can be zero for configuration only files)
#NCOLUMNS    : 2     Number of data columns in the spectrum (This can be zero for configuration only files)
#XUNITS      : eV
#YUNITS      : COUNTS
#DATATYPE    : YY
#XPERCHAN    : 7.862, 7.881   eV per channel (separate by commas if more than one detector)
#OFFSET      : 18.5, -22.4         eV of first channel  (separate by commas if more than one detector
#SIGNALTYPE  : XRF
#YP_TEMP     : 3.23
#LIVETIME    : 9.03941, 9.05897   seconds (separate by commas if more than one detector)
#REALTIME    : 10, 10.0   seconds (separate by commas if more than one detector)
#SPECTRUM    : start of spectrum data
0, 0
0, 0
0, 0
0, 0
0, 0
0, 0
0, 0
0, 0
1, 3
4, 2
1, 3
24, 13
24, 22
5, 5
9, 8
131, 137
965, 909
185, 138
10, 10
3, 2
4, 5
27, 32
12, 7
35, 28
190, 183
146, 128
55, 49
14, 36
15, 11
2, 6
12, 9
4, 2
6, 3
34, 32
47, 46
5, 9
13, 5
12, 13
13, 8
11, 8
5, 9
18, 12
21, 21
18, 24
13, 8
14, 15
12, 11
14, 13
14, 12
19, 17
14, 19
10, 9
16, 16
47, 55
73, 62
22, 24
32, 50
566, 582
2823, 2712
1750, 1321
139, 88
23, 27
31, 25
125, 138
430, 439
243, 166
23, 19
8, 8
10, 8
15, 10
11, 6
6, 7
6, 8
14, 8
7, 10
5, 5
4, 8
4, 8
11, 1
7, 4
11, 4
8, 3
5, 3
10, 2
9, 10
3, 2
6, 8
2, 7
6, 8
5, 3
9, 2
4, 7
4, 3
3, 3
4, 3
5, 3
4, 5
4, 2
4, 4
3, 2
4, 5
4, 2
4, 1
3, 3
1, 2
6, 1
4, 1
3, 1
2, 2
1, 3
2, 2
3, 2
5, 0
1, 5
3, 3
1, 2
3, 2
4, 4
3, 4
2, 0
0, 3
3, 4
1, 2
2, 1
3, 2
4, 2
1, 0
0, 4
4, 1
2, 2
2, 1
0, 1
1, 0
0, 2
1, 0
0, 3
2, 1
0, 1
0, 0
0, 0
1, 0
0, 0
2, 0
0, 0
0, 0
0, 2
0, 1
0, 0
1, 0
0, 0
0, 2
0, 0
0, 0
0, 1
0, 1
0, 0
1, 0
0, 0
0, 0
0, 1
1, 0
0, 0
0, 2
0, 0
0, 0
0, 0
0, 0
0, 0
0, 1
0, 0
0, 0
0, 0
0, 2
0, 0
0, 0
1, 0
0, 0
0, 0
0, 0
0, 0
0, 0
0, 0
0, 0
0, 1
0, 0
0, 0
0, 0
0, 0
0, 0
0, 0
0, 0
1, 0
0, 0
0, 0
0, 0
0, 1
0, 0
0, 0
0, 0
0, 0
0, 0
0, 0
0, 0
0, 0
0, 0
0, 0
0, 0
0, 0
0, 0
1, 0
0, 0
0, 0
0, 0
0, 0
0, 0
0, 0
0, 0
0, 0
0, 0
0, 0
0, 0
0, 0
0, 0
0, 0
0, 0
0, 0
0, 0
0, 0
0, 0
0, 0
0, 0
0, 0
0, 0
0, 0
0, 0
0, 0
0, 0
0, 0
0, 0
0, 0
0, 0
0, 0
0, 0
0, 0
0, 0
0, 0
0, 0
0, 0
0, 0
0, 0
0, 0
0, 0
0, 0
0, 0
0, 0
0, 0
0, 0
0, 0
0, 0
0, 0
0, 0
0, 0
0, 0
0, 0
0, 0
0, 0
0, 0
0, 0
0, 0
0, 0
0, 0
0, 0
0, 0
0, 0
0, 0
0, 0
0, 0
0, 0
0, 0
0, 0
0, 0
0, 0
0, 0
0, 0
0, 0
0, 0
0, 0
0, 0
0, 0
0, 0
0, 0
0, 0
0, 0
0, 0
#ENDOFDATA     end of spectrum data