File: host_upload/12-01-2023/Dourbes (shot-by-shot)/upload_4/ps__0257_0689790785_000rfs_shot_3162.msa
#FORMAT      : EMSA/MAS spectral data file
#VERSION     : TC202v2.0 PIXL
#TITLE       : N/A
#DATE        :       Date in the format DD-MMM-YYYY, for example 07-JUL-2010
#TIME        :             The time of day at which the spectrum was recorded, in 24-hour format
#OWNER       : PIXL Flight Model       (PIXL will use this to indicate which instrument took the data.)
#NPOINTS     : 4096     Number of data points in the spectrum (This can be zero for configuration only files)
#NCOLUMNS    : 2     Number of data columns in the spectrum (This can be zero for configuration only files)
#XUNITS      : eV
#YUNITS      : COUNTS
#DATATYPE    : YY
#XPERCHAN    : 7.862, 7.881   eV per channel (separate by commas if more than one detector)
#OFFSET      : 18.5, -22.4         eV of first channel  (separate by commas if more than one detector
#SIGNALTYPE  : XRF
#YP_TEMP     : 3.133
#LIVETIME    : 8.98476, 8.9909   seconds (separate by commas if more than one detector)
#REALTIME    : 10, 10.0   seconds (separate by commas if more than one detector)
#SPECTRUM    : start of spectrum data
0, 0
0, 0
0, 0
0, 0
0, 0
0, 0
0, 0
0, 0
0, 1
1, 1
2, 3
33, 33
25, 40
5, 3
6, 9
82, 77
526, 509
89, 93
5, 6
3, 1
4, 5
13, 8
4, 10
13, 8
68, 52
97, 77
43, 40
19, 21
5, 7
4, 0
2, 6
2, 4
13, 7
32, 29
48, 35
9, 5
7, 3
12, 14
13, 20
10, 14
14, 15
49, 39
35, 33
23, 22
8, 12
7, 12
8, 9
9, 7
15, 17
19, 29
20, 17
14, 20
15, 24
63, 77
93, 108
40, 27
40, 48
685, 792
3721, 3715
2211, 1873
193, 125
21, 28
33, 43
145, 203
521, 533
303, 267
28, 26
6, 13
16, 7
6, 7
3, 2
4, 6
2, 6
2, 1
4, 8
11, 2
8, 1
1, 7
4, 5
2, 2
5, 2
2, 5
4, 3
5, 2
1, 4
6, 3
4, 5
5, 10
5, 1
2, 4
1, 1
8, 0
4, 1
4, 4
4, 3
5, 2
2, 4
2, 2
2, 3
2, 2
0, 2
2, 0
0, 1
3, 1
0, 2
1, 3
2, 3
2, 1
2, 2
1, 4
2, 1
4, 3
2, 4
1, 4
2, 1
1, 1
6, 8
4, 6
4, 1
3, 1
0, 0
2, 0
1, 6
3, 2
1, 1
2, 0
1, 3
0, 1
1, 2
1, 1
2, 1
0, 1
0, 1
0, 0
1, 1
0, 0
0, 0
1, 1
1, 1
1, 0
1, 0
1, 0
0, 1
0, 0
0, 0
0, 0
0, 0
0, 1
0, 0
0, 0
0, 0
0, 0
1, 1
0, 0
0, 0
0, 0
0, 0
0, 0
0, 0
0, 0
0, 0
1, 0
0, 0
1, 1
0, 0
1, 1
0, 0
0, 1
0, 1
0, 1
0, 0
0, 1
0, 0
1, 0
0, 0
0, 0
1, 0
0, 0
0, 0
0, 0
0, 0
0, 0
0, 0
0, 1
0, 1
0, 0
0, 0
0, 0
0, 0
0, 0
0, 0
0, 0
0, 0
0, 0
0, 0
1, 0
1, 0
0, 0
0, 0
0, 0
0, 0
0, 0
0, 0
0, 0
0, 0
0, 0
0, 0
0, 0
0, 0
0, 0
0, 0
0, 0
0, 0
0, 0
0, 0
0, 0
0, 0
0, 0
0, 0
0, 0
0, 0
0, 0
0, 0
0, 0
0, 0
0, 0
0, 0
0, 0
0, 0
0, 0
0, 0
0, 0
0, 0
0, 0
0, 0
0, 0
0, 0
0, 0
0, 0
0, 0
0, 0
0, 0
0, 0
0, 0
0, 0
0, 0
0, 0
0, 0
0, 0
0, 0
0, 0
0, 0
0, 0
0, 0
0, 0
0, 0
0, 0
0, 0
0, 0
0, 0
0, 0
0, 0
0, 0
0, 0
0, 0
0, 0
0, 0
0, 0
0, 0
0, 0
0, 0
0, 0
0, 0
0, 0
0, 0
0, 0
0, 0
0, 0
0, 0
0, 0
0, 0
0, 0
0, 0
0, 0
0, 0
0, 0
0, 0
0, 0
0, 0
0, 0
0, 0
0, 0
0, 0
0, 0
#ENDOFDATA     end of spectrum data