File: host_upload/12-01-2023/Dourbes (shot-by-shot)/upload_4/ps__0257_0689790785_000rfs_shot_3301.msa
#FORMAT      : EMSA/MAS spectral data file
#VERSION     : TC202v2.0 PIXL
#TITLE       : N/A
#DATE        :       Date in the format DD-MMM-YYYY, for example 07-JUL-2010
#TIME        :             The time of day at which the spectrum was recorded, in 24-hour format
#OWNER       : PIXL Flight Model       (PIXL will use this to indicate which instrument took the data.)
#NPOINTS     : 4096     Number of data points in the spectrum (This can be zero for configuration only files)
#NCOLUMNS    : 2     Number of data columns in the spectrum (This can be zero for configuration only files)
#XUNITS      : eV
#YUNITS      : COUNTS
#DATATYPE    : YY
#XPERCHAN    : 7.862, 7.881   eV per channel (separate by commas if more than one detector)
#OFFSET      : 18.5, -22.4         eV of first channel  (separate by commas if more than one detector
#SIGNALTYPE  : XRF
#YP_TEMP     : 3.037
#LIVETIME    : 9.00778, 9.00297   seconds (separate by commas if more than one detector)
#REALTIME    : 10, 10.0   seconds (separate by commas if more than one detector)
#SPECTRUM    : start of spectrum data
0, 0
0, 0
0, 0
0, 0
0, 0
0, 0
0, 0
0, 0
0, 0
3, 3
2, 1
18, 20
38, 33
9, 13
8, 20
80, 84
505, 560
83, 86
7, 7
5, 5
4, 6
23, 18
10, 4
13, 19
67, 87
61, 66
44, 34
22, 33
3, 3
2, 4
10, 23
3, 15
6, 7
49, 33
81, 85
9, 15
12, 10
12, 12
11, 14
0, 9
17, 28
58, 105
46, 43
24, 22
19, 20
18, 24
19, 12
8, 7
13, 11
39, 71
32, 30
24, 15
23, 27
52, 79
95, 103
35, 38
42, 40
670, 810
3323, 3583
2113, 1881
160, 112
21, 27
32, 29
140, 171
495, 503
284, 224
25, 21
6, 6
9, 12
4, 4
4, 3
1, 5
5, 6
5, 3
2, 6
11, 8
4, 5
1, 7
7, 10
3, 6
6, 4
2, 7
3, 3
1, 5
4, 3
5, 6
2, 2
5, 5
3, 6
2, 1
6, 3
2, 7
4, 4
0, 3
5, 6
2, 3
1, 3
5, 5
3, 4
3, 3
2, 4
3, 0
1, 3
2, 3
3, 4
0, 2
1, 3
4, 1
3, 3
4, 2
3, 2
1, 2
2, 6
0, 4
2, 2
7, 7
8, 8
2, 6
1, 2
1, 0
0, 0
2, 4
3, 3
4, 1
2, 1
0, 0
2, 1
2, 2
2, 1
0, 3
0, 3
1, 1
1, 1
3, 0
0, 1
0, 2
2, 0
1, 2
2, 1
2, 0
0, 0
2, 0
0, 1
0, 0
0, 0
0, 0
0, 0
0, 1
0, 0
1, 1
1, 0
0, 0
0, 3
1, 0
0, 1
0, 0
0, 0
0, 0
1, 0
0, 0
0, 0
2, 0
1, 1
0, 1
1, 0
0, 0
0, 0
0, 0
0, 0
0, 1
0, 0
0, 0
0, 0
0, 0
0, 0
0, 0
0, 0
0, 0
0, 0
0, 0
0, 0
1, 0
0, 0
0, 0
1, 0
0, 0
0, 0
0, 0
0, 0
0, 0
0, 0
0, 1
0, 0
0, 0
0, 0
0, 0
0, 0
1, 0
0, 0
0, 0
0, 0
0, 0
0, 0
0, 0
0, 0
0, 0
0, 0
0, 0
0, 0
0, 0
0, 0
0, 0
0, 0
0, 0
0, 0
0, 0
0, 0
0, 0
0, 0
0, 0
0, 0
0, 0
0, 0
0, 0
0, 0
0, 0
0, 0
0, 0
0, 0
0, 0
0, 0
0, 0
0, 0
0, 0
0, 0
0, 0
0, 0
0, 0
0, 0
0, 0
0, 0
0, 0
0, 0
0, 0
0, 0
0, 0
0, 0
0, 0
0, 0
0, 0
0, 0
0, 0
0, 0
0, 0
0, 0
0, 0
0, 0
0, 0
0, 0
0, 0
0, 0
0, 0
0, 0
0, 0
0, 0
0, 0
0, 0
0, 0
0, 0
0, 0
0, 0
0, 0
0, 0
0, 0
0, 0
0, 0
0, 0
0, 0
0, 0
0, 0
0, 0
0, 0
0, 0
0, 0
0, 0
0, 0
0, 0
0, 0
0, 0
0, 0
0, 0
0, 0
0, 0
0, 0
#ENDOFDATA     end of spectrum data