File: host_upload/12-01-2023/Dourbes (shot-by-shot)/upload_4/ps__0257_0689790785_000rfs_shot_3310.msa
#FORMAT      : EMSA/MAS spectral data file
#VERSION     : TC202v2.0 PIXL
#TITLE       : N/A
#DATE        :       Date in the format DD-MMM-YYYY, for example 07-JUL-2010
#TIME        :             The time of day at which the spectrum was recorded, in 24-hour format
#OWNER       : PIXL Flight Model       (PIXL will use this to indicate which instrument took the data.)
#NPOINTS     : 4096     Number of data points in the spectrum (This can be zero for configuration only files)
#NCOLUMNS    : 2     Number of data columns in the spectrum (This can be zero for configuration only files)
#XUNITS      : eV
#YUNITS      : COUNTS
#DATATYPE    : YY
#XPERCHAN    : 7.862, 7.881   eV per channel (separate by commas if more than one detector)
#OFFSET      : 18.5, -22.4         eV of first channel  (separate by commas if more than one detector
#SIGNALTYPE  : XRF
#YP_TEMP     : 2.909
#LIVETIME    : 9.12964, 9.11779   seconds (separate by commas if more than one detector)
#REALTIME    : 10, 10.0   seconds (separate by commas if more than one detector)
#SPECTRUM    : start of spectrum data
0, 0
0, 0
0, 0
0, 0
0, 0
0, 0
0, 0
0, 0
1, 0
0, 1
2, 1
28, 25
36, 42
12, 3
13, 22
99, 112
688, 758
128, 111
19, 10
3, 4
4, 2
8, 12
6, 2
16, 15
51, 73
59, 62
29, 22
10, 18
5, 4
5, 6
13, 21
7, 4
12, 19
320, 413
534, 594
50, 59
45, 73
72, 65
13, 10
13, 5
11, 11
42, 33
17, 20
16, 15
9, 12
5, 13
10, 3
4, 7
18, 9
35, 26
27, 27
13, 10
14, 15
39, 38
54, 50
16, 21
19, 23
312, 390
1579, 1991
1013, 951
104, 55
10, 15
18, 13
80, 80
270, 303
145, 134
26, 17
30, 9
28, 9
17, 1
8, 12
11, 2
5, 4
0, 4
7, 9
8, 9
9, 13
5, 5
7, 5
3, 8
7, 6
3, 4
9, 5
5, 6
2, 15
3, 7
3, 4
9, 2
5, 4
5, 7
5, 7
6, 9
10, 4
3, 2
5, 3
1, 6
1, 4
0, 2
2, 3
5, 3
11, 7
4, 2
6, 2
1, 6
3, 2
1, 4
2, 3
5, 3
2, 1
5, 6
5, 2
1, 4
2, 3
2, 1
0, 1
3, 4
3, 4
1, 3
4, 5
0, 1
1, 0
1, 4
0, 2
1, 2
1, 2
0, 1
0, 2
0, 2
0, 1
1, 1
2, 0
2, 0
1, 2
1, 0
3, 2
2, 0
4, 2
1, 3
1, 1
0, 2
1, 0
3, 1
1, 1
1, 0
0, 0
0, 1
0, 1
1, 0
2, 0
0, 0
0, 2
1, 2
0, 1
0, 0
1, 0
0, 1
0, 0
0, 0
0, 0
0, 0
0, 1
0, 0
1, 0
0, 0
0, 1
1, 1
0, 0
2, 0
0, 0
0, 0
0, 0
0, 2
1, 0
0, 0
0, 0
0, 2
0, 0
0, 0
0, 0
1, 0
0, 0
0, 0
0, 0
0, 0
0, 0
0, 0
0, 0
0, 0
0, 0
0, 0
1, 0
0, 0
0, 0
0, 0
0, 0
0, 0
0, 0
0, 0
0, 0
0, 0
0, 0
0, 0
0, 0
0, 0
0, 0
1, 0
0, 0
0, 0
1, 0
0, 0
0, 0
0, 0
0, 0
0, 0
0, 0
0, 0
0, 0
0, 0
0, 0
0, 0
0, 0
0, 0
0, 0
0, 0
0, 0
0, 0
0, 0
0, 0
0, 0
0, 0
0, 0
0, 0
0, 0
0, 0
0, 0
0, 0
0, 0
0, 0
0, 0
0, 0
0, 0
0, 0
0, 0
0, 0
0, 0
0, 0
0, 0
0, 0
0, 0
0, 0
0, 0
0, 0
0, 0
0, 0
0, 0
0, 0
0, 0
0, 0
0, 0
0, 0
0, 0
0, 0
0, 0
0, 0
0, 0
0, 0
0, 0
0, 0
0, 0
0, 0
0, 0
0, 0
0, 0
0, 0
0, 0
0, 0
0, 0
0, 0
0, 0
0, 0
0, 0
0, 0
0, 0
0, 0
0, 0
0, 0
0, 0
0, 0
0, 0
0, 0
0, 0
0, 0
0, 0
0, 0
#ENDOFDATA     end of spectrum data