File: host_upload/12-01-2023/Dourbes (shot-by-shot)/upload_4/ps__0257_0689790785_000rfs_shot_3294.msa
#FORMAT      : EMSA/MAS spectral data file
#VERSION     : TC202v2.0 PIXL
#TITLE       : N/A
#DATE        :       Date in the format DD-MMM-YYYY, for example 07-JUL-2010
#TIME        :             The time of day at which the spectrum was recorded, in 24-hour format
#OWNER       : PIXL Flight Model       (PIXL will use this to indicate which instrument took the data.)
#NPOINTS     : 4096     Number of data points in the spectrum (This can be zero for configuration only files)
#NCOLUMNS    : 2     Number of data columns in the spectrum (This can be zero for configuration only files)
#XUNITS      : eV
#YUNITS      : COUNTS
#DATATYPE    : YY
#XPERCHAN    : 7.862, 7.881   eV per channel (separate by commas if more than one detector)
#OFFSET      : 18.5, -22.4         eV of first channel  (separate by commas if more than one detector
#SIGNALTYPE  : XRF
#YP_TEMP     : 2.909
#LIVETIME    : 8.9898, 9.00908   seconds (separate by commas if more than one detector)
#REALTIME    : 10, 10.0   seconds (separate by commas if more than one detector)
#SPECTRUM    : start of spectrum data
0, 0
0, 0
0, 0
0, 0
0, 0
0, 0
0, 0
0, 0
0, 0
2, 0
2, 2
28, 28
37, 42
6, 6
4, 14
101, 76
479, 495
84, 75
8, 3
0, 0
3, 1
6, 9
5, 5
9, 8
31, 18
45, 32
25, 22
9, 11
7, 5
10, 1
13, 3
4, 3
3, 3
8, 28
34, 30
10, 47
14, 108
14, 26
5, 8
12, 2
3, 8
9, 11
14, 19
49, 12
136, 6
42, 9
12, 5
5, 10
6, 8
10, 11
19, 11
12, 7
9, 9
62, 63
85, 92
32, 21
29, 45
721, 769
3789, 3626
2279, 1772
188, 114
15, 12
18, 29
153, 160
542, 556
281, 244
31, 17
7, 7
8, 9
5, 2
1, 7
4, 24
7, 33
6, 6
12, 5
9, 3
1, 5
1, 1
4, 2
2, 9
2, 4
3, 6
5, 3
1, 0
4, 5
3, 4
2, 4
6, 3
4, 3
5, 3
4, 2
1, 2
4, 3
10, 3
11, 1
3, 3
1, 0
5, 1
4, 3
2, 5
0, 2
0, 1
5, 2
2, 1
0, 3
1, 2
1, 1
1, 1
2, 0
3, 2
3, 3
1, 2
0, 0
0, 1
1, 0
1, 5
5, 8
6, 8
2, 0
2, 1
3, 1
1, 3
1, 4
1, 4
1, 0
1, 4
0, 1
0, 1
1, 1
3, 3
2, 1
1, 0
0, 0
1, 0
0, 0
0, 1
0, 1
0, 0
0, 0
2, 0
3, 0
0, 0
0, 1
0, 0
0, 1
1, 0
0, 0
0, 0
0, 1
0, 0
1, 1
0, 0
3, 1
0, 1
0, 1
1, 0
0, 2
0, 0
0, 0
0, 0
0, 0
0, 0
0, 0
0, 0
0, 0
0, 0
0, 1
0, 0
0, 0
0, 0
0, 0
0, 0
1, 0
0, 0
0, 0
0, 0
0, 0
0, 0
0, 0
0, 0
0, 0
0, 0
0, 0
0, 1
1, 0
0, 0
0, 0
0, 0
0, 0
0, 0
0, 0
0, 0
0, 0
0, 0
0, 0
0, 0
0, 0
0, 0
0, 0
0, 0
0, 0
0, 0
0, 0
0, 0
0, 0
0, 0
0, 0
0, 0
0, 0
0, 0
0, 0
0, 0
0, 0
0, 0
0, 0
0, 0
0, 0
0, 0
0, 0
0, 0
0, 0
0, 0
0, 0
0, 0
0, 0
0, 0
0, 0
0, 0
0, 0
0, 0
0, 0
0, 0
0, 0
0, 0
0, 0
0, 0
0, 0
0, 0
0, 0
0, 0
0, 0
0, 0
0, 0
0, 0
0, 0
0, 0
0, 0
0, 0
0, 0
0, 0
0, 0
0, 0
0, 0
0, 0
0, 0
0, 0
0, 0
0, 0
0, 0
0, 0
0, 0
0, 0
0, 0
0, 0
0, 0
0, 0
0, 0
0, 0
0, 0
0, 0
0, 0
0, 0
0, 0
0, 0
0, 0
0, 0
0, 0
0, 0
0, 0
0, 0
0, 0
0, 0
0, 0
0, 0
0, 0
0, 0
0, 0
0, 0
0, 0
0, 0
0, 0
0, 0
0, 0
0, 0
#ENDOFDATA     end of spectrum data