File: host_upload/12-01-2023/Dourbes (shot-by-shot)/upload_4/ps__0257_0689790785_000rfs_shot_3194.msa
#FORMAT      : EMSA/MAS spectral data file
#VERSION     : TC202v2.0 PIXL
#TITLE       : N/A
#DATE        :       Date in the format DD-MMM-YYYY, for example 07-JUL-2010
#TIME        :             The time of day at which the spectrum was recorded, in 24-hour format
#OWNER       : PIXL Flight Model       (PIXL will use this to indicate which instrument took the data.)
#NPOINTS     : 4096     Number of data points in the spectrum (This can be zero for configuration only files)
#NCOLUMNS    : 2     Number of data columns in the spectrum (This can be zero for configuration only files)
#XUNITS      : eV
#YUNITS      : COUNTS
#DATATYPE    : YY
#XPERCHAN    : 7.862, 7.881   eV per channel (separate by commas if more than one detector)
#OFFSET      : 18.5, -22.4         eV of first channel  (separate by commas if more than one detector
#SIGNALTYPE  : XRF
#YP_TEMP     : 3.165
#LIVETIME    : 9.16005, 9.16932   seconds (separate by commas if more than one detector)
#REALTIME    : 10, 10.0   seconds (separate by commas if more than one detector)
#SPECTRUM    : start of spectrum data
0, 0
0, 0
0, 0
0, 0
0, 0
0, 0
0, 0
0, 0
0, 0
3, 2
6, 5
13, 14
14, 17
57, 39
86, 87
148, 132
918, 935
166, 152
5, 15
3, 3
5, 4
8, 6
3, 1
14, 15
63, 73
52, 72
31, 40
17, 14
7, 6
17, 14
125, 133
63, 53
20, 15
40, 58
47, 42
9, 5
13, 5
10, 5
4, 7
2, 4
10, 7
29, 23
14, 24
12, 12
11, 8
11, 23
6, 26
3, 17
15, 20
71, 75
40, 51
24, 23
15, 11
24, 30
40, 47
23, 19
19, 28
266, 283
1294, 1332
790, 726
75, 36
13, 10
24, 21
78, 81
204, 243
121, 118
19, 21
7, 9
7, 7
11, 8
8, 7
9, 4
9, 6
12, 6
4, 16
6, 4
4, 7
3, 3
8, 4
7, 4
6, 5
10, 7
5, 6
6, 6
6, 6
10, 9
9, 6
6, 5
4, 4
5, 7
6, 6
7, 2
2, 8
5, 4
4, 5
2, 2
9, 2
3, 3
4, 3
3, 2
3, 5
3, 3
4, 1
3, 4
1, 3
0, 5
5, 2
2, 1
2, 3
5, 1
2, 2
2, 1
3, 3
1, 1
1, 0
2, 2
2, 1
2, 1
4, 4
2, 1
2, 0
1, 3
0, 0
3, 1
0, 2
0, 0
0, 2
1, 0
0, 1
0, 0
0, 0
1, 0
0, 1
0, 2
1, 0
0, 2
0, 0
1, 0
0, 0
0, 0
0, 1
0, 0
1, 1
0, 0
0, 0
0, 1
1, 0
0, 0
0, 1
0, 0
0, 0
0, 1
1, 0
0, 0
0, 1
0, 2
0, 2
0, 2
0, 0
0, 0
0, 0
1, 0
0, 1
1, 0
0, 1
0, 0
0, 0
0, 0
0, 0
0, 0
2, 0
0, 2
0, 0
0, 0
0, 0
1, 1
0, 0
0, 0
1, 0
0, 0
0, 0
0, 0
0, 0
0, 0
0, 0
0, 0
0, 0
0, 0
0, 0
0, 0
0, 0
0, 0
0, 1
0, 0
0, 0
0, 0
0, 0
0, 0
0, 0
0, 0
0, 0
0, 0
0, 0
0, 0
0, 0
0, 0
0, 0
0, 0
0, 0
0, 0
0, 0
0, 0
0, 0
0, 0
0, 0
0, 0
0, 0
0, 0
0, 0
0, 0
0, 0
0, 0
0, 0
0, 0
0, 0
0, 0
0, 0
0, 0
0, 0
0, 0
0, 0
0, 0
0, 0
0, 0
0, 0
0, 0
0, 0
0, 0
0, 0
0, 0
0, 0
0, 0
0, 0
0, 0
0, 0
0, 0
0, 0
0, 0
0, 0
0, 0
0, 0
0, 0
0, 0
0, 0
0, 0
0, 0
0, 0
0, 0
0, 0
0, 0
0, 0
0, 0
0, 0
0, 0
0, 0
0, 0
0, 0
0, 0
0, 0
0, 0
0, 0
0, 0
0, 0
0, 0
0, 0
0, 0
0, 0
0, 0
0, 0
0, 0
0, 0
0, 0
0, 0
0, 0
0, 0
0, 0
0, 0
0, 0
0, 0
0, 0
0, 0
0, 0
0, 0
0, 0
#ENDOFDATA     end of spectrum data