File: host_upload/12-01-2023/Dourbes (shot-by-shot)/upload_4/ps__0257_0689790785_000rfs_shot_3139.msa
#FORMAT      : EMSA/MAS spectral data file
#VERSION     : TC202v2.0 PIXL
#TITLE       : N/A
#DATE        :       Date in the format DD-MMM-YYYY, for example 07-JUL-2010
#TIME        :             The time of day at which the spectrum was recorded, in 24-hour format
#OWNER       : PIXL Flight Model       (PIXL will use this to indicate which instrument took the data.)
#NPOINTS     : 4096     Number of data points in the spectrum (This can be zero for configuration only files)
#NCOLUMNS    : 2     Number of data columns in the spectrum (This can be zero for configuration only files)
#XUNITS      : eV
#YUNITS      : COUNTS
#DATATYPE    : YY
#XPERCHAN    : 7.862, 7.881   eV per channel (separate by commas if more than one detector)
#OFFSET      : 18.5, -22.4         eV of first channel  (separate by commas if more than one detector
#SIGNALTYPE  : XRF
#YP_TEMP     : 2.813
#LIVETIME    : 9.12106, 9.12646   seconds (separate by commas if more than one detector)
#REALTIME    : 10, 10.0   seconds (separate by commas if more than one detector)
#SPECTRUM    : start of spectrum data
0, 0
0, 0
0, 0
0, 0
0, 0
0, 0
0, 0
0, 0
1, 1
4, 1
6, 3
33, 27
31, 25
9, 3
20, 6
118, 100
742, 671
128, 101
14, 17
6, 6
6, 3
19, 26
11, 8
19, 11
50, 48
52, 58
39, 25
22, 29
9, 10
1, 8
9, 6
8, 2
20, 20
480, 492
791, 709
79, 71
97, 85
145, 107
20, 9
9, 7
15, 12
27, 34
22, 20
10, 11
7, 4
14, 15
9, 13
8, 5
12, 19
52, 35
30, 26
8, 5
7, 10
51, 50
54, 75
26, 20
21, 25
303, 334
1539, 1508
954, 786
74, 59
12, 12
14, 12
70, 64
242, 253
132, 115
24, 19
18, 3
15, 11
12, 8
3, 9
6, 10
7, 2
7, 7
11, 3
10, 4
8, 7
4, 4
2, 7
6, 6
4, 9
6, 6
7, 8
2, 6
7, 1
10, 6
12, 6
5, 8
3, 4
8, 3
1, 2
2, 8
4, 3
5, 2
3, 6
6, 4
4, 3
6, 2
2, 2
3, 4
2, 1
5, 3
2, 2
7, 2
3, 3
2, 2
1, 5
0, 8
1, 1
3, 3
0, 1
1, 4
2, 1
3, 1
3, 4
3, 1
2, 10
1, 1
3, 1
2, 5
3, 1
0, 1
1, 6
3, 2
2, 0
2, 1
2, 0
3, 0
1, 2
0, 0
3, 1
1, 0
1, 2
1, 3
0, 1
0, 1
2, 2
1, 0
1, 0
1, 2
0, 0
1, 0
0, 0
1, 1
1, 0
1, 0
0, 1
1, 0
0, 0
0, 0
0, 0
1, 0
0, 0
2, 0
0, 1
1, 1
0, 0
1, 0
1, 0
0, 0
0, 0
0, 1
1, 0
0, 0
0, 0
1, 0
0, 0
0, 0
0, 1
0, 0
1, 0
0, 2
0, 1
2, 0
2, 0
0, 0
0, 0
0, 0
0, 0
0, 0
1, 0
0, 0
0, 1
0, 0
0, 0
0, 0
0, 0
0, 0
0, 0
0, 0
0, 0
0, 0
0, 0
0, 0
0, 0
0, 0
0, 0
0, 0
0, 0
0, 0
0, 0
0, 0
0, 0
0, 0
0, 0
0, 0
0, 0
0, 0
2, 0
0, 0
0, 0
0, 0
0, 0
0, 0
0, 0
0, 0
0, 0
0, 0
0, 0
0, 0
0, 0
0, 0
0, 0
0, 0
0, 0
0, 0
0, 0
0, 0
0, 0
0, 0
0, 0
0, 0
0, 0
0, 0
0, 0
0, 0
0, 0
0, 0
0, 0
0, 0
0, 0
0, 0
0, 0
0, 0
0, 0
0, 0
0, 0
0, 0
0, 0
0, 0
0, 0
0, 0
0, 0
0, 0
0, 0
0, 0
0, 0
0, 0
0, 0
0, 0
0, 0
0, 0
0, 0
0, 0
0, 0
0, 0
0, 0
0, 0
0, 0
0, 0
0, 0
0, 0
0, 0
0, 0
0, 0
0, 0
0, 0
0, 0
0, 0
0, 0
0, 0
0, 0
0, 0
0, 0
0, 0
0, 0
0, 0
0, 0
0, 0
0, 0
0, 0
0, 0
0, 0
0, 0
#ENDOFDATA     end of spectrum data