File: host_upload/12-01-2023/Dourbes (shot-by-shot)/upload_4/ps__0257_0689790785_000rfs_shot_3093.msa
#FORMAT      : EMSA/MAS spectral data file
#VERSION     : TC202v2.0 PIXL
#TITLE       : N/A
#DATE        :       Date in the format DD-MMM-YYYY, for example 07-JUL-2010
#TIME        :             The time of day at which the spectrum was recorded, in 24-hour format
#OWNER       : PIXL Flight Model       (PIXL will use this to indicate which instrument took the data.)
#NPOINTS     : 4096     Number of data points in the spectrum (This can be zero for configuration only files)
#NCOLUMNS    : 2     Number of data columns in the spectrum (This can be zero for configuration only files)
#XUNITS      : eV
#YUNITS      : COUNTS
#DATATYPE    : YY
#XPERCHAN    : 7.862, 7.881   eV per channel (separate by commas if more than one detector)
#OFFSET      : 18.5, -22.4         eV of first channel  (separate by commas if more than one detector
#SIGNALTYPE  : XRF
#YP_TEMP     : 3.165
#LIVETIME    : 8.99746, 8.98895   seconds (separate by commas if more than one detector)
#REALTIME    : 10, 10.0   seconds (separate by commas if more than one detector)
#SPECTRUM    : start of spectrum data
0, 0
0, 0
0, 0
0, 0
0, 0
0, 0
0, 0
0, 0
0, 0
1, 0
1, 0
25, 30
34, 46
3, 1
12, 6
76, 52
475, 491
78, 79
7, 2
1, 6
3, 4
6, 3
4, 7
3, 14
19, 27
44, 31
24, 23
10, 12
6, 4
2, 2
5, 5
5, 2
7, 1
21, 30
43, 43
9, 14
41, 40
22, 19
7, 7
3, 3
4, 8
10, 21
18, 21
18, 14
7, 6
7, 17
12, 5
5, 4
11, 12
21, 16
30, 17
25, 17
19, 9
52, 77
79, 97
25, 25
33, 41
602, 813
3421, 3724
2167, 1861
187, 136
25, 20
30, 25
133, 197
511, 585
315, 280
34, 12
4, 11
6, 10
6, 3
2, 4
4, 17
6, 15
6, 8
5, 6
3, 6
5, 4
6, 3
7, 6
5, 1
6, 3
3, 10
4, 3
2, 1
3, 4
2, 2
3, 2
6, 3
4, 4
2, 4
2, 1
0, 4
2, 3
4, 1
6, 2
6, 5
4, 2
0, 1
5, 7
1, 8
1, 5
1, 2
3, 1
2, 7
1, 3
2, 6
1, 0
3, 1
5, 0
2, 3
1, 2
3, 3
1, 2
0, 0
3, 1
5, 4
7, 12
4, 10
0, 2
1, 1
0, 4
1, 0
3, 2
3, 2
1, 0
0, 1
0, 2
2, 1
0, 2
4, 2
4, 1
4, 1
1, 0
0, 1
0, 3
0, 1
0, 0
2, 2
2, 0
4, 0
1, 3
0, 0
0, 0
0, 3
0, 0
0, 0
1, 1
0, 1
0, 0
0, 0
1, 0
0, 0
0, 1
0, 0
0, 0
0, 0
0, 0
0, 2
1, 0
0, 1
0, 0
0, 0
0, 0
1, 0
0, 0
0, 0
0, 0
0, 0
0, 0
0, 0
0, 0
0, 0
1, 0
0, 0
0, 0
0, 0
0, 0
0, 0
0, 0
0, 1
0, 0
0, 0
0, 0
0, 0
0, 0
0, 1
0, 0
0, 0
0, 0
0, 0
0, 0
0, 0
0, 0
0, 0
0, 0
0, 0
0, 0
0, 0
0, 0
0, 0
0, 0
0, 0
0, 1
0, 0
0, 0
0, 0
0, 0
0, 0
0, 0
1, 0
0, 0
0, 0
0, 0
0, 0
0, 0
0, 0
0, 0
0, 0
0, 0
0, 0
0, 0
0, 0
0, 0
0, 0
0, 0
0, 0
0, 0
0, 0
0, 0
0, 0
0, 0
0, 0
0, 0
0, 0
0, 0
0, 0
0, 0
0, 0
0, 0
0, 0
0, 0
0, 0
0, 0
0, 0
0, 0
0, 0
0, 0
0, 0
0, 0
0, 0
0, 0
0, 0
0, 0
0, 0
0, 0
0, 0
0, 0
0, 0
0, 0
0, 0
0, 0
0, 0
0, 0
0, 0
0, 0
0, 0
0, 0
0, 0
0, 0
0, 0
0, 0
0, 0
0, 0
0, 0
0, 0
0, 0
0, 0
0, 0
0, 0
0, 0
0, 0
0, 0
0, 0
0, 0
0, 0
0, 0
0, 0
0, 0
0, 0
0, 0
0, 0
0, 0
0, 0
0, 0
#ENDOFDATA     end of spectrum data