File: host_upload/12-01-2023/Dourbes (shot-by-shot)/upload_4/ps__0257_0689790785_000rfs_shot_3261.msa
#FORMAT      : EMSA/MAS spectral data file
#VERSION     : TC202v2.0 PIXL
#TITLE       : N/A
#DATE        :       Date in the format DD-MMM-YYYY, for example 07-JUL-2010
#TIME        :             The time of day at which the spectrum was recorded, in 24-hour format
#OWNER       : PIXL Flight Model       (PIXL will use this to indicate which instrument took the data.)
#NPOINTS     : 4096     Number of data points in the spectrum (This can be zero for configuration only files)
#NCOLUMNS    : 2     Number of data columns in the spectrum (This can be zero for configuration only files)
#XUNITS      : eV
#YUNITS      : COUNTS
#DATATYPE    : YY
#XPERCHAN    : 7.862, 7.881   eV per channel (separate by commas if more than one detector)
#OFFSET      : 18.5, -22.4         eV of first channel  (separate by commas if more than one detector
#SIGNALTYPE  : XRF
#YP_TEMP     : 3.23
#LIVETIME    : 9.02984, 8.99832   seconds (separate by commas if more than one detector)
#REALTIME    : 10, 10.0   seconds (separate by commas if more than one detector)
#SPECTRUM    : start of spectrum data
0, 0
0, 0
0, 0
0, 0
0, 0
0, 0
0, 0
0, 0
0, 1
2, 0
1, 0
24, 34
35, 47
9, 1
3, 5
78, 96
440, 567
72, 91
2, 7
2, 3
4, 1
24, 16
7, 10
7, 5
43, 46
33, 27
21, 19
15, 12
5, 3
5, 3
2, 6
2, 3
1, 1
17, 33
18, 25
3, 4
8, 11
3, 3
4, 1
0, 5
5, 5
14, 30
17, 38
17, 18
5, 5
9, 8
7, 12
11, 9
10, 8
18, 17
9, 17
8, 3
9, 15
51, 75
89, 93
27, 29
37, 44
594, 828
3212, 3977
1952, 2009
135, 130
16, 18
40, 25
144, 177
465, 609
229, 269
21, 20
6, 2
8, 14
4, 5
4, 3
4, 3
2, 3
3, 11
9, 2
2, 5
2, 6
0, 2
7, 3
4, 7
3, 4
1, 2
2, 0
1, 5
4, 2
1, 5
3, 4
2, 0
2, 7
6, 5
2, 5
3, 2
2, 3
3, 4
2, 6
1, 3
1, 5
3, 5
1, 2
3, 1
0, 3
2, 1
1, 0
1, 3
3, 0
1, 1
2, 1
2, 0
3, 2
1, 1
1, 1
0, 3
1, 1
0, 0
3, 2
6, 6
7, 3
2, 3
2, 1
1, 1
1, 1
1, 3
4, 6
1, 5
0, 0
0, 1
2, 1
3, 2
1, 2
1, 3
0, 3
0, 0
1, 0
1, 1
1, 0
0, 1
1, 2
0, 0
0, 2
0, 1
0, 0
0, 0
0, 0
1, 0
2, 1
1, 0
1, 0
0, 0
0, 2
0, 1
1, 1
0, 0
1, 1
0, 1
0, 2
0, 0
0, 2
0, 0
0, 0
0, 1
0, 0
0, 0
1, 0
0, 0
0, 0
0, 1
1, 1
0, 1
0, 0
0, 1
0, 0
0, 0
0, 0
0, 1
0, 0
0, 0
1, 1
0, 0
0, 1
0, 1
0, 0
0, 0
0, 0
0, 0
0, 0
0, 0
1, 0
0, 0
0, 0
0, 0
0, 0
0, 0
0, 0
0, 0
0, 0
0, 0
0, 0
0, 0
0, 0
0, 0
0, 0
0, 0
0, 0
1, 0
0, 0
0, 0
0, 0
0, 0
0, 0
0, 0
0, 0
0, 0
0, 0
0, 0
0, 0
0, 0
0, 0
0, 0
0, 0
0, 0
0, 0
0, 0
0, 0
0, 0
0, 0
0, 0
0, 0
0, 0
0, 0
0, 0
0, 0
0, 0
0, 0
0, 0
0, 0
0, 0
0, 0
0, 0
0, 0
0, 0
0, 0
0, 0
0, 0
0, 0
0, 0
0, 0
0, 0
0, 0
0, 0
0, 0
0, 0
0, 0
0, 0
0, 0
0, 0
0, 0
0, 0
0, 0
0, 0
0, 0
0, 0
0, 0
0, 0
0, 0
0, 0
0, 0
0, 0
0, 0
0, 0
0, 0
0, 0
0, 0
0, 0
0, 0
0, 0
0, 0
0, 0
0, 0
0, 0
0, 0
0, 0
0, 0
0, 0
0, 0
0, 0
0, 0
0, 0
0, 0
0, 0
0, 0
0, 0
0, 0
0, 0
0, 0
#ENDOFDATA     end of spectrum data