File: host_upload/12-01-2023/Dourbes (shot-by-shot)/upload_4/ps__0257_0689790785_000rfs_shot_3039.msa
#FORMAT      : EMSA/MAS spectral data file
#VERSION     : TC202v2.0 PIXL
#TITLE       : N/A
#DATE        :       Date in the format DD-MMM-YYYY, for example 07-JUL-2010
#TIME        :             The time of day at which the spectrum was recorded, in 24-hour format
#OWNER       : PIXL Flight Model       (PIXL will use this to indicate which instrument took the data.)
#NPOINTS     : 4096     Number of data points in the spectrum (This can be zero for configuration only files)
#NCOLUMNS    : 2     Number of data columns in the spectrum (This can be zero for configuration only files)
#XUNITS      : eV
#YUNITS      : COUNTS
#DATATYPE    : YY
#XPERCHAN    : 7.862, 7.881   eV per channel (separate by commas if more than one detector)
#OFFSET      : 18.5, -22.4         eV of first channel  (separate by commas if more than one detector
#SIGNALTYPE  : XRF
#YP_TEMP     : 3.198
#LIVETIME    : 9.00558, 9.00582   seconds (separate by commas if more than one detector)
#REALTIME    : 10, 10.0   seconds (separate by commas if more than one detector)
#SPECTRUM    : start of spectrum data
0, 0
0, 0
0, 0
0, 0
0, 0
0, 0
0, 0
0, 1
2, 2
2, 3
3, 2
27, 22
36, 26
1, 0
6, 2
74, 65
459, 446
70, 65
4, 4
6, 3
12, 8
58, 42
15, 18
21, 26
151, 136
122, 108
40, 50
39, 23
14, 12
5, 7
4, 9
1, 8
6, 7
66, 70
123, 127
9, 13
19, 19
20, 22
13, 9
4, 8
5, 4
15, 18
32, 13
11, 25
17, 10
20, 13
6, 13
15, 12
16, 16
16, 20
12, 26
15, 14
16, 32
69, 70
90, 102
41, 20
46, 39
556, 714
3294, 3371
2298, 1755
164, 134
35, 21
30, 38
137, 161
474, 507
287, 235
26, 20
6, 10
4, 8
12, 6
5, 3
6, 6
6, 8
6, 9
9, 7
8, 6
8, 6
5, 4
6, 2
9, 5
6, 4
7, 2
5, 3
3, 5
6, 4
6, 1
5, 5
9, 3
1, 7
2, 4
0, 4
3, 7
2, 0
4, 6
6, 5
5, 1
4, 4
1, 1
6, 0
5, 2
3, 6
1, 3
3, 5
1, 5
4, 2
3, 4
0, 3
1, 1
4, 2
5, 2
6, 2
2, 2
3, 1
3, 1
7, 2
4, 2
6, 7
6, 4
1, 2
3, 1
2, 1
3, 1
1, 3
1, 2
2, 1
1, 1
3, 0
1, 1
1, 0
1, 1
1, 2
3, 1
0, 1
0, 1
1, 1
1, 0
1, 0
0, 2
1, 0
0, 1
1, 0
1, 1
0, 2
0, 0
0, 2
0, 0
1, 1
0, 1
1, 1
0, 1
0, 0
0, 1
0, 0
1, 0
1, 1
0, 0
0, 0
0, 0
0, 1
0, 0
1, 1
2, 0
1, 0
0, 0
0, 0
1, 1
0, 2
0, 1
0, 0
0, 1
0, 0
1, 1
0, 0
0, 0
0, 0
0, 1
0, 0
0, 0
1, 0
0, 0
0, 0
0, 0
1, 1
0, 0
0, 0
0, 0
0, 0
0, 0
0, 0
0, 0
0, 0
0, 0
0, 0
0, 0
0, 0
0, 0
0, 0
0, 0
0, 0
0, 0
0, 0
0, 0
0, 0
0, 0
0, 0
0, 0
0, 0
0, 0
0, 0
0, 0
0, 0
0, 0
0, 0
0, 0
0, 0
0, 0
0, 0
0, 0
0, 0
0, 0
0, 0
0, 0
0, 0
0, 0
1, 0
0, 0
0, 0
0, 0
0, 0
0, 0
0, 0
0, 0
0, 0
0, 0
0, 0
0, 0
0, 0
0, 0
0, 0
0, 0
0, 0
0, 0
0, 0
0, 0
0, 0
0, 0
0, 0
0, 0
0, 0
0, 0
0, 0
0, 0
0, 0
0, 0
0, 0
0, 0
0, 0
0, 0
0, 0
0, 0
0, 0
0, 0
0, 0
0, 0
0, 0
0, 0
0, 0
0, 0
0, 0
0, 0
0, 0
0, 0
0, 0
0, 0
0, 0
0, 0
0, 0
0, 0
0, 0
0, 0
0, 0
0, 0
0, 0
0, 0
0, 0
0, 0
0, 0
0, 0
0, 0
0, 0
0, 0
0, 0
0, 0
0, 0
#ENDOFDATA     end of spectrum data