File: host_upload/12-01-2023/Dourbes (shot-by-shot)/upload_4/ps__0257_0689790785_000rfs_shot_3050.msa
#FORMAT      : EMSA/MAS spectral data file
#VERSION     : TC202v2.0 PIXL
#TITLE       : N/A
#DATE        :       Date in the format DD-MMM-YYYY, for example 07-JUL-2010
#TIME        :             The time of day at which the spectrum was recorded, in 24-hour format
#OWNER       : PIXL Flight Model       (PIXL will use this to indicate which instrument took the data.)
#NPOINTS     : 4096     Number of data points in the spectrum (This can be zero for configuration only files)
#NCOLUMNS    : 2     Number of data columns in the spectrum (This can be zero for configuration only files)
#XUNITS      : eV
#YUNITS      : COUNTS
#DATATYPE    : YY
#XPERCHAN    : 7.862, 7.881   eV per channel (separate by commas if more than one detector)
#OFFSET      : 18.5, -22.4         eV of first channel  (separate by commas if more than one detector
#SIGNALTYPE  : XRF
#YP_TEMP     : 2.877
#LIVETIME    : 8.9301, 8.98782   seconds (separate by commas if more than one detector)
#REALTIME    : 10, 10.0   seconds (separate by commas if more than one detector)
#SPECTRUM    : start of spectrum data
0, 0
0, 0
0, 0
0, 0
0, 0
0, 0
0, 0
0, 1
6, 2
28, 4
6, 1
35, 25
40, 29
4, 3
9, 2
87, 77
534, 504
101, 92
6, 3
3, 3
14, 17
72, 75
29, 29
48, 22
1177, 125
1802, 129
152, 33
22, 15
8, 10
5, 4
4, 11
6, 2
7, 7
55, 41
76, 83
7, 8
7, 12
11, 12
11, 11
4, 4
8, 10
20, 22
22, 71
16, 48
12, 10
5, 12
10, 10
11, 9
16, 17
10, 9
16, 9
12, 8
16, 17
71, 66
102, 101
21, 32
32, 35
578, 726
3230, 3567
2195, 1860
180, 122
43, 26
69, 34
150, 163
471, 519
287, 245
29, 16
8, 6
9, 3
2, 5
3, 7
2, 10
3, 7
6, 5
4, 3
4, 6
6, 0
5, 2
4, 4
6, 5
6, 2
5, 4
9, 3
9, 6
6, 4
6, 6
4, 6
1, 3
2, 9
2, 4
3, 2
1, 0
3, 7
3, 3
3, 4
1, 1
0, 3
6, 0
13, 2
6, 1
1, 3
3, 2
1, 1
3, 3
0, 3
4, 5
0, 0
5, 1
1, 1
3, 2
2, 0
3, 0
1, 0
0, 0
1, 2
5, 6
7, 5
2, 4
3, 0
2, 1
1, 0
1, 5
1, 2
2, 4
0, 2
1, 2
0, 1
0, 1
0, 0
1, 2
0, 0
0, 2
2, 2
1, 1
0, 0
0, 0
1, 0
1, 0
0, 0
1, 1
0, 1
0, 0
1, 1
1, 0
0, 1
0, 0
2, 0
0, 1
0, 1
0, 0
2, 0
1, 0
0, 0
0, 0
0, 1
0, 0
0, 0
1, 1
1, 0
0, 0
0, 0
0, 1
3, 0
0, 0
0, 0
0, 0
0, 1
0, 0
0, 0
0, 1
0, 0
0, 1
0, 0
0, 0
1, 1
0, 0
0, 0
0, 0
0, 0
0, 0
0, 0
0, 0
0, 0
0, 0
0, 0
1, 0
0, 0
0, 0
0, 0
0, 0
0, 0
0, 0
0, 0
0, 0
0, 0
0, 0
0, 0
0, 0
0, 0
0, 0
0, 0
0, 0
0, 0
0, 0
0, 0
0, 0
0, 0
0, 0
0, 0
0, 0
0, 0
0, 0
0, 0
0, 0
0, 0
0, 0
0, 0
0, 0
0, 0
0, 0
0, 0
0, 0
0, 0
0, 0
0, 0
0, 0
0, 0
0, 0
0, 0
0, 0
0, 0
0, 0
0, 0
0, 0
0, 0
0, 0
0, 0
0, 0
0, 0
0, 0
0, 0
0, 0
0, 0
0, 0
0, 0
0, 0
0, 0
0, 0
0, 0
0, 0
0, 0
0, 0
1, 0
0, 0
0, 0
0, 0
0, 0
0, 0
0, 0
0, 0
0, 0
0, 0
0, 0
0, 0
0, 0
0, 0
0, 0
0, 0
0, 0
0, 0
0, 0
0, 0
0, 0
0, 0
0, 0
0, 0
0, 0
0, 0
0, 0
0, 0
0, 0
0, 0
0, 0
0, 0
0, 0
0, 0
0, 0
0, 0
0, 0
0, 0
0, 0
0, 0
0, 0
0, 0
#ENDOFDATA     end of spectrum data