File: host_upload/12-01-2023/Dourbes (shot-by-shot)/upload_4/ps__0257_0689790785_000rfs_shot_3234.msa
#FORMAT      : EMSA/MAS spectral data file
#VERSION     : TC202v2.0 PIXL
#TITLE       : N/A
#DATE        :       Date in the format DD-MMM-YYYY, for example 07-JUL-2010
#TIME        :             The time of day at which the spectrum was recorded, in 24-hour format
#OWNER       : PIXL Flight Model       (PIXL will use this to indicate which instrument took the data.)
#NPOINTS     : 4096     Number of data points in the spectrum (This can be zero for configuration only files)
#NCOLUMNS    : 2     Number of data columns in the spectrum (This can be zero for configuration only files)
#XUNITS      : eV
#YUNITS      : COUNTS
#DATATYPE    : YY
#XPERCHAN    : 7.862, 7.881   eV per channel (separate by commas if more than one detector)
#OFFSET      : 18.5, -22.4         eV of first channel  (separate by commas if more than one detector
#SIGNALTYPE  : XRF
#YP_TEMP     : 2.941
#LIVETIME    : 9.11689, 9.12852   seconds (separate by commas if more than one detector)
#REALTIME    : 10, 10.0   seconds (separate by commas if more than one detector)
#SPECTRUM    : start of spectrum data
0, 0
0, 0
0, 0
0, 0
0, 0
0, 0
0, 0
1, 0
2, 6
4, 6
4, 5
27, 19
28, 22
8, 7
17, 18
81, 53
551, 521
99, 75
8, 7
3, 4
2, 8
34, 25
18, 13
47, 44
254, 251
168, 153
65, 54
32, 29
8, 11
10, 7
28, 17
9, 11
9, 6
28, 46
59, 67
4, 9
7, 8
16, 20
9, 15
10, 7
10, 6
18, 18
24, 23
29, 11
12, 9
15, 15
9, 13
12, 19
12, 21
15, 17
7, 11
14, 10
15, 9
46, 34
48, 44
23, 23
26, 25
378, 466
2025, 2088
1219, 1086
86, 70
23, 16
28, 26
97, 109
313, 340
186, 153
19, 15
7, 12
7, 8
6, 3
4, 3
6, 6
5, 6
7, 6
11, 16
10, 7
4, 11
12, 9
9, 10
8, 9
4, 6
7, 6
5, 8
8, 7
2, 1
9, 7
8, 8
8, 4
1, 6
3, 3
4, 6
8, 4
4, 4
4, 5
6, 2
10, 5
7, 1
2, 4
3, 3
4, 2
2, 9
3, 3
4, 3
2, 2
4, 5
2, 3
3, 4
2, 3
2, 1
2, 0
4, 6
5, 2
1, 2
1, 3
3, 2
4, 1
4, 3
4, 5
1, 4
2, 0
0, 1
1, 4
3, 1
1, 0
0, 0
2, 0
0, 2
1, 2
3, 1
0, 2
3, 0
0, 3
0, 0
1, 0
2, 1
0, 0
1, 1
2, 0
0, 1
1, 2
1, 1
2, 0
0, 0
0, 2
1, 1
0, 1
0, 1
1, 2
0, 0
0, 0
0, 0
0, 1
0, 0
0, 1
0, 1
0, 0
0, 1
0, 0
0, 0
0, 0
1, 0
1, 0
0, 0
1, 0
0, 0
0, 0
1, 0
0, 1
1, 0
0, 1
0, 1
0, 1
0, 0
0, 0
0, 0
0, 0
0, 0
0, 0
0, 0
0, 0
0, 0
0, 0
0, 0
0, 0
0, 0
0, 1
0, 0
0, 0
0, 0
0, 0
0, 0
0, 0
0, 0
0, 0
0, 0
0, 0
0, 0
0, 0
0, 0
0, 1
0, 0
0, 0
0, 0
0, 0
0, 0
0, 0
0, 0
0, 0
0, 0
0, 0
0, 0
0, 0
0, 0
0, 0
0, 0
0, 0
0, 0
0, 0
0, 0
0, 0
0, 0
0, 0
0, 0
0, 0
0, 0
0, 0
0, 0
0, 0
0, 0
0, 0
0, 0
0, 0
0, 0
0, 0
0, 0
0, 0
0, 0
0, 0
0, 0
0, 0
0, 0
0, 0
0, 0
0, 0
0, 0
0, 0
0, 0
0, 0
0, 0
0, 0
0, 0
0, 0
0, 0
0, 0
0, 0
0, 0
0, 0
0, 0
0, 0
0, 0
0, 0
0, 0
0, 0
0, 0
0, 0
0, 0
0, 0
0, 0
0, 0
0, 0
0, 0
0, 0
0, 0
0, 0
0, 0
0, 0
0, 0
0, 0
0, 0
0, 0
0, 0
0, 0
0, 0
0, 0
0, 0
0, 0
0, 0
0, 0
0, 0
0, 0
0, 0
0, 0
0, 0
0, 0
#ENDOFDATA     end of spectrum data