File: host_upload/12-01-2023/Dourbes (shot-by-shot)/upload_4/ps__0257_0689790785_000rfs_shot_3144.msa
#FORMAT      : EMSA/MAS spectral data file
#VERSION     : TC202v2.0 PIXL
#TITLE       : N/A
#DATE        :       Date in the format DD-MMM-YYYY, for example 07-JUL-2010
#TIME        :             The time of day at which the spectrum was recorded, in 24-hour format
#OWNER       : PIXL Flight Model       (PIXL will use this to indicate which instrument took the data.)
#NPOINTS     : 4096     Number of data points in the spectrum (This can be zero for configuration only files)
#NCOLUMNS    : 2     Number of data columns in the spectrum (This can be zero for configuration only files)
#XUNITS      : eV
#YUNITS      : COUNTS
#DATATYPE    : YY
#XPERCHAN    : 7.862, 7.881   eV per channel (separate by commas if more than one detector)
#OFFSET      : 18.5, -22.4         eV of first channel  (separate by commas if more than one detector
#SIGNALTYPE  : XRF
#YP_TEMP     : 3.39
#LIVETIME    : 9.15848, 9.14735   seconds (separate by commas if more than one detector)
#REALTIME    : 10, 10.0   seconds (separate by commas if more than one detector)
#SPECTRUM    : start of spectrum data
0, 0
0, 0
0, 0
0, 0
0, 0
0, 0
0, 0
0, 0
1, 2
3, 2
1, 2
25, 19
23, 31
4, 4
7, 14
138, 132
825, 905
141, 159
21, 18
1, 2
3, 5
4, 7
1, 3
4, 3
23, 20
24, 23
18, 25
10, 8
4, 5
2, 4
1, 4
8, 4
25, 29
599, 750
947, 1056
112, 69
112, 115
130, 135
17, 19
1, 2
5, 9
22, 27
18, 14
8, 7
4, 3
9, 10
5, 3
3, 3
7, 14
50, 57
36, 23
3, 6
4, 6
29, 30
48, 43
6, 19
10, 10
187, 261
1069, 1274
591, 622
69, 33
13, 7
8, 17
39, 78
145, 181
66, 114
11, 16
17, 6
28, 10
16, 7
6, 5
2, 4
3, 2
3, 5
3, 3
3, 5
5, 8
5, 4
6, 1
10, 1
2, 7
5, 7
2, 9
1, 10
3, 2
5, 8
9, 3
8, 13
3, 15
1, 9
4, 1
6, 4
3, 4
2, 7
5, 3
0, 0
1, 3
2, 2
3, 2
3, 4
0, 1
4, 1
1, 4
3, 2
0, 2
3, 7
1, 7
2, 2
2, 2
1, 1
4, 2
2, 0
3, 2
4, 1
1, 2
5, 0
6, 7
2, 3
0, 3
2, 2
0, 0
2, 2
1, 4
1, 2
3, 0
0, 1
1, 2
3, 0
2, 0
1, 1
1, 2
0, 1
0, 1
0, 2
0, 0
0, 0
1, 3
1, 0
0, 1
1, 1
1, 0
1, 0
0, 0
0, 2
1, 1
1, 0
2, 2
0, 0
0, 0
1, 2
0, 1
0, 1
0, 1
0, 1
1, 0
1, 1
0, 0
1, 0
0, 0
0, 1
0, 0
1, 1
0, 0
0, 0
0, 1
0, 0
0, 1
0, 0
0, 0
0, 0
0, 0
0, 0
0, 0
0, 0
0, 0
0, 0
0, 0
0, 0
0, 0
0, 0
1, 0
0, 0
0, 0
0, 0
0, 0
0, 0
0, 1
0, 0
0, 0
1, 0
0, 0
0, 0
0, 0
0, 0
0, 0
0, 0
0, 0
0, 0
0, 0
0, 0
0, 0
0, 0
0, 0
0, 0
0, 0
0, 0
0, 0
0, 0
0, 0
0, 0
0, 0
0, 1
0, 0
0, 0
0, 0
0, 0
0, 0
0, 0
0, 0
0, 0
0, 0
0, 0
0, 0
0, 0
0, 0
0, 0
0, 0
0, 0
0, 0
1, 0
0, 0
0, 0
0, 0
0, 0
0, 0
0, 0
0, 0
0, 0
0, 0
0, 0
0, 0
0, 0
0, 0
0, 0
0, 0
0, 0
0, 0
0, 0
0, 0
0, 0
0, 0
0, 0
0, 0
0, 0
0, 0
0, 0
0, 0
0, 0
0, 0
0, 0
0, 0
0, 0
0, 0
0, 0
0, 0
0, 0
0, 0
0, 0
0, 0
0, 0
0, 0
0, 0
0, 0
0, 0
0, 0
0, 0
0, 0
0, 0
0, 0
0, 0
0, 0
0, 0
0, 0
0, 0
0, 0
0, 0
0, 0
0, 0
0, 0
0, 0
0, 0
0, 0
0, 0
0, 0
#ENDOFDATA     end of spectrum data