File: host_upload/12-01-2023/Dourbes (shot-by-shot)/upload_4/ps__0257_0689790785_000rfs_shot_3084.msa
#FORMAT      : EMSA/MAS spectral data file
#VERSION     : TC202v2.0 PIXL
#TITLE       : N/A
#DATE        :       Date in the format DD-MMM-YYYY, for example 07-JUL-2010
#TIME        :             The time of day at which the spectrum was recorded, in 24-hour format
#OWNER       : PIXL Flight Model       (PIXL will use this to indicate which instrument took the data.)
#NPOINTS     : 4096     Number of data points in the spectrum (This can be zero for configuration only files)
#NCOLUMNS    : 2     Number of data columns in the spectrum (This can be zero for configuration only files)
#XUNITS      : eV
#YUNITS      : COUNTS
#DATATYPE    : YY
#XPERCHAN    : 7.862, 7.881   eV per channel (separate by commas if more than one detector)
#OFFSET      : 18.5, -22.4         eV of first channel  (separate by commas if more than one detector
#SIGNALTYPE  : XRF
#YP_TEMP     : 3.198
#LIVETIME    : 9.09482, 9.0701   seconds (separate by commas if more than one detector)
#REALTIME    : 10, 10.0   seconds (separate by commas if more than one detector)
#SPECTRUM    : start of spectrum data
0, 0
0, 0
0, 0
0, 0
0, 0
0, 0
0, 0
0, 0
0, 2
1, 3
1, 3
20, 14
26, 31
32, 20
59, 63
104, 111
703, 673
110, 117
6, 4
1, 2
2, 0
3, 5
1, 1
9, 9
36, 53
32, 30
25, 13
11, 13
3, 13
5, 12
37, 35
18, 15
4, 7
35, 38
52, 48
14, 11
24, 16
16, 9
2, 1
2, 2
9, 6
9, 15
13, 16
12, 12
6, 8
9, 19
5, 11
4, 4
13, 12
13, 16
8, 16
14, 4
9, 7
39, 42
57, 66
18, 17
15, 40
414, 567
2317, 2827
1418, 1471
127, 88
11, 14
20, 36
114, 132
346, 440
194, 226
17, 19
4, 8
10, 12
8, 3
4, 8
7, 3
6, 6
6, 5
5, 2
9, 6
6, 6
9, 6
2, 7
4, 2
4, 5
4, 11
3, 4
1, 2
2, 4
5, 4
4, 5
11, 4
5, 3
5, 6
7, 8
4, 2
6, 2
4, 4
8, 1
2, 4
2, 1
2, 3
1, 3
3, 3
1, 2
5, 5
4, 3
2, 2
1, 1
2, 5
4, 3
4, 1
3, 3
2, 2
2, 2
0, 3
0, 0
1, 2
2, 2
4, 2
3, 5
2, 5
0, 10
0, 4
2, 2
0, 1
1, 1
0, 2
0, 1
0, 1
2, 0
1, 1
0, 2
2, 2
1, 1
5, 0
0, 1
0, 0
0, 1
1, 1
0, 0
1, 0
1, 2
1, 0
1, 1
0, 0
0, 1
0, 0
0, 1
0, 0
0, 0
0, 1
0, 1
0, 0
0, 0
0, 0
0, 2
0, 0
2, 1
0, 0
0, 0
0, 0
1, 0
0, 0
0, 0
0, 0
0, 0
0, 0
0, 0
1, 0
2, 1
0, 0
1, 0
1, 0
0, 0
0, 1
1, 1
0, 0
0, 0
0, 0
0, 0
1, 1
0, 0
1, 0
1, 0
0, 0
0, 0
0, 1
0, 0
0, 0
0, 0
0, 0
0, 0
0, 0
0, 0
0, 0
0, 0
0, 0
0, 0
0, 0
0, 0
0, 0
0, 0
0, 0
0, 0
0, 0
0, 0
0, 0
0, 0
0, 0
0, 0
0, 0
1, 0
0, 0
0, 0
0, 0
0, 0
0, 0
0, 0
0, 0
0, 0
0, 0
0, 0
0, 0
0, 0
0, 0
0, 0
0, 0
0, 0
0, 0
0, 0
0, 0
0, 0
0, 0
0, 0
0, 0
0, 0
0, 0
0, 0
0, 0
0, 0
0, 0
0, 0
0, 0
0, 0
0, 0
0, 0
0, 0
0, 0
0, 0
0, 0
0, 0
0, 0
0, 0
0, 0
0, 0
0, 0
0, 0
0, 0
0, 0
0, 0
0, 0
0, 0
0, 0
0, 0
0, 0
0, 0
0, 0
0, 0
0, 0
0, 0
0, 0
0, 0
0, 0
0, 0
0, 0
0, 0
0, 0
0, 0
0, 0
0, 0
0, 0
0, 0
0, 0
0, 0
0, 0
0, 0
0, 0
0, 0
0, 0
0, 0
0, 0
0, 0
0, 0
0, 0
0, 0
0, 0
0, 0
#ENDOFDATA     end of spectrum data