File: host_upload/12-01-2023/Dourbes (shot-by-shot)/upload_4/ps__0257_0689790785_000rfs_shot_3157.msa
#FORMAT      : EMSA/MAS spectral data file
#VERSION     : TC202v2.0 PIXL
#TITLE       : N/A
#DATE        :       Date in the format DD-MMM-YYYY, for example 07-JUL-2010
#TIME        :             The time of day at which the spectrum was recorded, in 24-hour format
#OWNER       : PIXL Flight Model       (PIXL will use this to indicate which instrument took the data.)
#NPOINTS     : 4096     Number of data points in the spectrum (This can be zero for configuration only files)
#NCOLUMNS    : 2     Number of data columns in the spectrum (This can be zero for configuration only files)
#XUNITS      : eV
#YUNITS      : COUNTS
#DATATYPE    : YY
#XPERCHAN    : 7.862, 7.881   eV per channel (separate by commas if more than one detector)
#OFFSET      : 18.5, -22.4         eV of first channel  (separate by commas if more than one detector
#SIGNALTYPE  : XRF
#YP_TEMP     : 3.037
#LIVETIME    : 9.01653, 8.98945   seconds (separate by commas if more than one detector)
#REALTIME    : 10, 10.0   seconds (separate by commas if more than one detector)
#SPECTRUM    : start of spectrum data
0, 0
0, 0
0, 0
0, 0
0, 0
0, 0
0, 0
0, 0
1, 1
0, 0
0, 0
33, 25
41, 36
3, 2
3, 2
94, 84
492, 530
85, 74
1, 5
3, 2
2, 2
3, 4
1, 1
5, 7
40, 41
45, 32
25, 19
8, 23
1, 8
2, 1
2, 4
1, 2
1, 3
37, 44
57, 56
8, 8
7, 6
7, 15
4, 8
5, 5
10, 31
17, 87
32, 48
17, 15
13, 15
7, 12
4, 9
10, 8
12, 9
14, 9
10, 5
6, 23
15, 23
64, 63
90, 91
31, 30
31, 55
625, 815
3325, 3805
2164, 1826
152, 109
17, 20
23, 24
167, 167
542, 507
327, 255
28, 20
14, 7
8, 5
12, 4
1, 3
4, 14
5, 6
4, 3
7, 9
9, 13
5, 3
4, 6
1, 3
2, 2
4, 2
2, 3
3, 6
2, 2
1, 5
2, 3
1, 7
4, 5
4, 9
1, 2
2, 1
2, 2
1, 9
0, 2
1, 1
1, 0
3, 3
2, 4
3, 8
5, 1
5, 1
1, 4
2, 1
5, 2
0, 0
6, 0
4, 2
1, 1
4, 4
0, 1
2, 0
2, 2
2, 5
3, 4
1, 1
1, 5
5, 6
6, 6
1, 2
1, 2
1, 1
3, 1
3, 3
2, 2
0, 2
1, 1
0, 1
1, 1
0, 1
1, 0
1, 0
0, 0
0, 0
1, 0
1, 0
1, 0
0, 0
1, 0
0, 0
1, 0
3, 0
0, 0
3, 1
0, 0
1, 0
1, 2
0, 0
0, 0
0, 0
0, 0
1, 0
0, 0
0, 1
1, 1
0, 1
0, 0
0, 0
0, 1
1, 0
0, 0
0, 1
0, 0
0, 1
0, 0
0, 0
0, 0
0, 0
0, 0
2, 0
0, 0
0, 1
0, 0
0, 0
0, 0
0, 0
0, 0
1, 0
1, 0
0, 0
0, 0
0, 0
0, 0
0, 0
0, 0
1, 1
0, 0
1, 0
0, 0
0, 0
0, 0
0, 0
0, 0
0, 0
0, 0
0, 0
0, 0
0, 0
0, 0
0, 0
0, 0
0, 0
0, 0
0, 0
0, 0
0, 0
0, 0
0, 0
0, 0
0, 0
0, 0
0, 0
0, 0
0, 0
0, 0
0, 0
0, 0
0, 0
0, 0
0, 0
0, 0
0, 0
0, 0
0, 0
0, 0
0, 0
0, 0
0, 0
0, 0
0, 0
0, 0
0, 0
0, 0
0, 0
0, 0
0, 0
0, 0
0, 0
0, 0
0, 0
0, 0
0, 0
0, 0
0, 0
0, 0
0, 0
0, 0
0, 0
0, 0
0, 0
0, 0
0, 0
0, 0
0, 0
0, 0
0, 0
0, 0
0, 0
0, 0
0, 0
0, 0
0, 0
0, 0
0, 0
0, 0
0, 0
0, 0
0, 0
0, 0
0, 0
0, 0
0, 0
0, 0
0, 0
0, 0
0, 0
0, 0
0, 0
0, 0
0, 0
0, 0
0, 0
0, 0
0, 0
0, 0
0, 0
0, 0
0, 0
0, 0
0, 0
0, 0
0, 0
0, 0
0, 0
0, 0
#ENDOFDATA     end of spectrum data