File: host_upload/12-01-2023/Dourbes (shot-by-shot)/upload_4/ps__0257_0689790785_000rfs_shot_3033.msa
#FORMAT      : EMSA/MAS spectral data file
#VERSION     : TC202v2.0 PIXL
#TITLE       : N/A
#DATE        :       Date in the format DD-MMM-YYYY, for example 07-JUL-2010
#TIME        :             The time of day at which the spectrum was recorded, in 24-hour format
#OWNER       : PIXL Flight Model       (PIXL will use this to indicate which instrument took the data.)
#NPOINTS     : 4096     Number of data points in the spectrum (This can be zero for configuration only files)
#NCOLUMNS    : 2     Number of data columns in the spectrum (This can be zero for configuration only files)
#XUNITS      : eV
#YUNITS      : COUNTS
#DATATYPE    : YY
#XPERCHAN    : 7.862, 7.881   eV per channel (separate by commas if more than one detector)
#OFFSET      : 18.5, -22.4         eV of first channel  (separate by commas if more than one detector
#SIGNALTYPE  : XRF
#YP_TEMP     : 3.326
#LIVETIME    : 9.00758, 9.00088   seconds (separate by commas if more than one detector)
#REALTIME    : 10, 10.0   seconds (separate by commas if more than one detector)
#SPECTRUM    : start of spectrum data
0, 0
0, 0
0, 0
0, 0
0, 0
0, 0
0, 1
0, 0
1, 3
5, 1
2, 2
20, 17
28, 24
13, 9
14, 26
70, 65
386, 388
63, 38
0, 3
1, 1
4, 6
18, 25
7, 7
21, 23
138, 177
130, 174
38, 48
28, 35
14, 13
8, 4
18, 19
10, 11
9, 4
50, 55
104, 72
6, 5
10, 4
9, 20
9, 11
6, 4
9, 8
35, 33
31, 30
29, 19
7, 9
11, 10
14, 10
8, 15
10, 10
24, 25
23, 11
12, 13
19, 22
67, 79
94, 96
28, 27
46, 29
594, 784
3385, 3554
2209, 1846
176, 123
29, 13
28, 27
155, 170
497, 533
319, 254
34, 14
1, 2
3, 5
3, 8
2, 10
6, 7
7, 4
7, 6
7, 6
3, 5
2, 2
0, 4
5, 5
4, 1
6, 6
5, 4
5, 7
3, 1
4, 6
4, 9
4, 3
1, 1
10, 5
1, 2
3, 7
6, 2
6, 2
8, 4
1, 2
1, 2
3, 4
5, 3
2, 4
1, 7
1, 3
1, 7
0, 2
4, 6
2, 3
0, 4
3, 1
0, 1
1, 0
2, 1
2, 3
2, 1
5, 2
6, 8
3, 0
1, 4
3, 9
0, 3
1, 2
1, 4
2, 0
0, 1
1, 6
2, 2
1, 3
1, 0
1, 0
0, 2
1, 1
2, 1
0, 2
0, 1
0, 0
1, 2
0, 0
2, 3
1, 1
2, 2
3, 1
1, 0
1, 0
0, 0
1, 1
0, 0
1, 0
0, 1
0, 1
0, 0
0, 1
0, 0
0, 0
0, 0
0, 0
2, 0
0, 0
0, 0
0, 0
0, 0
1, 0
0, 0
0, 0
0, 0
0, 0
1, 0
0, 0
0, 1
0, 0
0, 0
0, 0
0, 0
0, 1
2, 0
0, 0
0, 0
0, 0
0, 1
0, 1
0, 0
1, 0
0, 0
0, 0
0, 0
0, 0
0, 1
0, 0
1, 0
0, 0
0, 0
0, 0
1, 0
0, 0
0, 0
0, 0
0, 2
0, 0
0, 0
0, 0
0, 0
0, 0
0, 0
0, 0
0, 0
0, 0
0, 0
0, 0
1, 0
0, 0
0, 0
0, 0
0, 0
0, 0
0, 0
0, 0
0, 0
0, 0
0, 0
0, 0
0, 0
0, 0
0, 0
0, 0
0, 0
0, 0
0, 0
0, 0
0, 0
0, 0
0, 0
0, 0
0, 0
0, 0
0, 0
0, 0
0, 0
0, 0
0, 0
0, 0
0, 0
0, 0
0, 0
0, 0
0, 0
0, 0
0, 0
0, 0
0, 0
0, 0
0, 0
0, 0
0, 0
0, 0
0, 0
0, 0
0, 0
0, 0
0, 0
0, 0
0, 0
0, 0
0, 0
0, 0
0, 0
0, 0
0, 0
0, 0
0, 0
0, 0
0, 0
0, 0
0, 0
0, 0
0, 0
0, 0
0, 0
0, 0
0, 0
0, 0
0, 0
0, 0
0, 0
0, 0
0, 0
0, 0
0, 0
0, 0
0, 0
0, 0
0, 0
0, 0
0, 0
0, 0
0, 0
0, 0
0, 0
#ENDOFDATA     end of spectrum data