File: host_upload/12-01-2023/Dourbes (shot-by-shot)/upload_4/ps__0257_0689790785_000rfs_shot_3053.msa
#FORMAT      : EMSA/MAS spectral data file
#VERSION     : TC202v2.0 PIXL
#TITLE       : N/A
#DATE        :       Date in the format DD-MMM-YYYY, for example 07-JUL-2010
#TIME        :             The time of day at which the spectrum was recorded, in 24-hour format
#OWNER       : PIXL Flight Model       (PIXL will use this to indicate which instrument took the data.)
#NPOINTS     : 4096     Number of data points in the spectrum (This can be zero for configuration only files)
#NCOLUMNS    : 2     Number of data columns in the spectrum (This can be zero for configuration only files)
#XUNITS      : eV
#YUNITS      : COUNTS
#DATATYPE    : YY
#XPERCHAN    : 7.862, 7.881   eV per channel (separate by commas if more than one detector)
#OFFSET      : 18.5, -22.4         eV of first channel  (separate by commas if more than one detector
#SIGNALTYPE  : XRF
#YP_TEMP     : 2.973
#LIVETIME    : 8.89554, 8.9707   seconds (separate by commas if more than one detector)
#REALTIME    : 10, 10.0   seconds (separate by commas if more than one detector)
#SPECTRUM    : start of spectrum data
0, 0
0, 0
0, 0
0, 0
0, 0
0, 0
0, 0
1, 0
9, 0
35, 2
10, 2
24, 25
32, 32
5, 2
9, 9
88, 89
566, 569
86, 96
6, 9
2, 0
14, 15
98, 105
46, 29
65, 37
1677, 131
2664, 89
207, 36
14, 20
6, 4
1, 11
5, 4
6, 5
3, 2
37, 35
49, 57
5, 9
8, 7
9, 12
7, 9
4, 9
10, 5
11, 31
12, 83
16, 53
5, 7
4, 10
11, 9
10, 12
10, 19
17, 16
16, 7
12, 16
13, 8
53, 69
95, 102
32, 36
28, 45
582, 787
3312, 3756
2075, 1888
208, 126
60, 18
76, 24
150, 160
483, 534
317, 243
27, 27
6, 2
7, 5
6, 4
3, 6
1, 7
2, 10
3, 2
6, 3
4, 7
4, 6
5, 1
5, 5
5, 5
5, 6
2, 2
8, 3
18, 3
3, 11
5, 6
7, 5
5, 7
5, 4
4, 2
1, 1
2, 4
3, 4
1, 3
2, 2
0, 1
1, 3
5, 1
7, 1
5, 1
5, 3
1, 1
3, 2
4, 1
1, 4
0, 2
0, 3
3, 2
1, 2
2, 1
4, 4
2, 2
2, 3
2, 1
0, 4
1, 3
4, 8
5, 3
2, 0
2, 1
0, 0
1, 2
4, 6
1, 1
0, 2
0, 1
0, 0
2, 1
0, 1
1, 4
0, 0
0, 2
0, 1
1, 1
1, 0
1, 0
0, 1
0, 0
1, 1
1, 0
1, 0
0, 0
0, 1
0, 1
0, 0
0, 1
1, 0
0, 0
0, 0
0, 0
0, 0
0, 1
0, 0
0, 0
2, 0
0, 0
0, 0
0, 0
0, 1
0, 0
0, 0
0, 1
0, 0
0, 0
0, 0
1, 0
0, 0
0, 0
0, 0
0, 0
0, 0
0, 0
0, 0
0, 0
0, 0
0, 0
1, 0
0, 0
0, 0
0, 0
0, 0
0, 0
0, 1
0, 0
1, 1
2, 0
0, 0
0, 0
0, 0
0, 0
0, 0
0, 0
0, 0
0, 0
0, 0
0, 0
0, 0
0, 0
0, 0
0, 0
0, 0
0, 0
0, 0
0, 0
0, 0
0, 0
0, 0
0, 0
0, 0
0, 0
0, 0
0, 0
0, 0
0, 0
0, 0
0, 0
0, 0
0, 0
0, 0
0, 0
0, 0
0, 0
0, 0
0, 0
0, 0
0, 0
0, 0
0, 0
0, 0
0, 0
0, 0
0, 0
0, 0
0, 0
0, 0
0, 0
0, 0
0, 0
0, 0
0, 0
0, 0
0, 0
0, 0
0, 0
0, 0
0, 0
0, 0
0, 0
0, 0
0, 0
0, 0
0, 0
0, 0
0, 0
0, 0
0, 0
0, 0
0, 0
0, 0
0, 0
0, 0
0, 0
0, 0
0, 0
0, 0
0, 0
0, 0
0, 0
0, 0
0, 0
0, 0
0, 0
0, 0
0, 0
0, 0
0, 0
0, 0
0, 0
0, 0
0, 0
0, 0
0, 0
0, 0
0, 0
0, 0
0, 0
0, 0
0, 0
0, 0
0, 0
0, 0
0, 0
0, 0
0, 0
#ENDOFDATA     end of spectrum data