File: host_upload/12-01-2023/Dourbes (shot-by-shot)/upload_4/ps__0257_0689790785_000rfs_shot_3164.msa
#FORMAT      : EMSA/MAS spectral data file
#VERSION     : TC202v2.0 PIXL
#TITLE       : N/A
#DATE        :       Date in the format DD-MMM-YYYY, for example 07-JUL-2010
#TIME        :             The time of day at which the spectrum was recorded, in 24-hour format
#OWNER       : PIXL Flight Model       (PIXL will use this to indicate which instrument took the data.)
#NPOINTS     : 4096     Number of data points in the spectrum (This can be zero for configuration only files)
#NCOLUMNS    : 2     Number of data columns in the spectrum (This can be zero for configuration only files)
#XUNITS      : eV
#YUNITS      : COUNTS
#DATATYPE    : YY
#XPERCHAN    : 7.862, 7.881   eV per channel (separate by commas if more than one detector)
#OFFSET      : 18.5, -22.4         eV of first channel  (separate by commas if more than one detector
#SIGNALTYPE  : XRF
#YP_TEMP     : 2.973
#LIVETIME    : 9.06887, 9.01818   seconds (separate by commas if more than one detector)
#REALTIME    : 10, 10.0   seconds (separate by commas if more than one detector)
#SPECTRUM    : start of spectrum data
0, 0
0, 0
0, 0
0, 0
0, 0
0, 0
0, 0
0, 0
0, 1
3, 2
2, 0
15, 15
18, 24
10, 14
25, 48
69, 84
399, 541
78, 77
5, 5
0, 4
1, 3
6, 6
3, 10
13, 34
51, 58
61, 58
22, 30
14, 11
8, 4
2, 16
17, 58
17, 35
6, 7
20, 29
32, 64
7, 26
7, 19
3, 4
6, 11
5, 9
80, 147
336, 616
116, 198
13, 30
23, 45
61, 126
29, 29
7, 9
34, 73
237, 471
161, 227
29, 37
31, 15
51, 77
84, 145
44, 47
23, 31
398, 666
2205, 2925
1350, 1434
105, 103
13, 18
34, 33
97, 136
316, 400
194, 229
23, 14
5, 10
5, 8
3, 8
5, 2
3, 9
3, 1
5, 5
5, 3
10, 3
8, 7
2, 10
0, 6
4, 4
3, 3
1, 4
4, 3
2, 8
3, 6
3, 4
1, 2
4, 8
0, 0
1, 3
1, 3
4, 4
4, 3
1, 7
5, 0
2, 2
4, 2
1, 0
1, 2
5, 7
1, 2
5, 3
4, 2
3, 0
2, 3
0, 3
2, 5
1, 4
0, 5
3, 3
0, 1
1, 1
1, 2
1, 1
0, 2
2, 2
4, 2
1, 5
2, 2
0, 2
0, 0
3, 1
0, 3
1, 0
3, 1
1, 1
0, 0
0, 0
2, 1
2, 0
1, 1
2, 2
1, 1
1, 1
1, 1
0, 1
0, 1
1, 0
0, 0
0, 0
0, 0
0, 0
1, 1
1, 0
1, 0
1, 0
0, 2
1, 0
0, 1
0, 0
0, 0
0, 0
0, 0
1, 0
0, 0
0, 0
0, 0
0, 0
0, 0
0, 0
0, 1
0, 0
0, 1
1, 0
0, 0
0, 1
0, 1
0, 0
0, 1
0, 0
1, 0
0, 0
0, 0
0, 0
0, 0
0, 0
0, 0
0, 0
0, 0
0, 0
1, 0
0, 0
0, 0
0, 0
0, 0
0, 0
0, 0
0, 0
0, 0
0, 0
0, 0
0, 0
0, 0
0, 0
0, 0
0, 0
0, 0
0, 0
0, 0
0, 0
0, 0
0, 0
0, 0
0, 0
0, 0
0, 0
1, 0
0, 0
0, 0
0, 0
0, 0
0, 0
0, 0
0, 0
0, 0
0, 0
0, 0
0, 0
0, 0
0, 0
0, 0
0, 0
0, 0
0, 0
0, 0
0, 0
0, 0
0, 0
0, 0
0, 0
0, 0
0, 0
0, 0
0, 0
0, 0
0, 0
0, 0
0, 0
0, 0
0, 0
0, 0
0, 0
0, 0
0, 0
0, 0
0, 0
0, 0
0, 0
0, 0
0, 0
0, 0
0, 0
0, 0
0, 0
0, 0
0, 0
0, 0
0, 0
0, 0
0, 0
0, 0
0, 0
0, 0
0, 0
0, 0
0, 0
0, 0
0, 0
0, 0
0, 0
0, 0
0, 0
0, 0
0, 0
0, 0
0, 0
0, 0
0, 0
0, 0
0, 0
0, 0
0, 0
0, 0
0, 0
0, 0
0, 0
0, 0
0, 0
0, 0
0, 0
0, 0
0, 0
0, 0
0, 0
#ENDOFDATA     end of spectrum data