File: host_upload/12-01-2023/Dourbes (shot-by-shot)/upload_4/ps__0257_0689790785_000rfs_shot_3110.msa
#FORMAT      : EMSA/MAS spectral data file
#VERSION     : TC202v2.0 PIXL
#TITLE       : N/A
#DATE        :       Date in the format DD-MMM-YYYY, for example 07-JUL-2010
#TIME        :             The time of day at which the spectrum was recorded, in 24-hour format
#OWNER       : PIXL Flight Model       (PIXL will use this to indicate which instrument took the data.)
#NPOINTS     : 4096     Number of data points in the spectrum (This can be zero for configuration only files)
#NCOLUMNS    : 2     Number of data columns in the spectrum (This can be zero for configuration only files)
#XUNITS      : eV
#YUNITS      : COUNTS
#DATATYPE    : YY
#XPERCHAN    : 7.862, 7.881   eV per channel (separate by commas if more than one detector)
#OFFSET      : 18.5, -22.4         eV of first channel  (separate by commas if more than one detector
#SIGNALTYPE  : XRF
#YP_TEMP     : 2.909
#LIVETIME    : 9.12455, 9.14824   seconds (separate by commas if more than one detector)
#REALTIME    : 10, 10.0   seconds (separate by commas if more than one detector)
#SPECTRUM    : start of spectrum data
0, 0
0, 0
0, 0
0, 0
0, 0
0, 0
0, 0
0, 0
0, 0
2, 2
3, 5
28, 18
27, 25
4, 6
18, 13
126, 94
888, 637
127, 111
17, 12
6, 3
1, 4
6, 7
5, 3
9, 11
31, 36
41, 49
33, 28
17, 12
8, 4
5, 3
6, 5
5, 2
23, 27
591, 513
1005, 732
101, 71
104, 89
134, 96
8, 17
4, 8
15, 12
54, 26
25, 19
15, 9
9, 7
11, 20
11, 8
12, 4
15, 8
50, 43
30, 32
15, 9
5, 4
37, 41
65, 50
25, 22
28, 18
270, 267
1424, 1260
865, 602
77, 49
10, 13
10, 10
60, 77
221, 185
121, 82
12, 9
13, 7
4, 7
7, 3
4, 10
11, 10
7, 9
6, 8
13, 10
11, 7
11, 2
10, 5
11, 4
4, 3
5, 6
9, 5
5, 2
5, 4
9, 2
3, 3
3, 1
4, 2
4, 10
6, 6
9, 6
3, 9
3, 1
6, 1
5, 4
2, 3
4, 3
3, 3
3, 4
6, 4
7, 2
7, 5
3, 2
5, 4
1, 2
2, 2
1, 2
2, 2
2, 5
2, 7
5, 1
10, 1
2, 10
3, 2
2, 1
4, 4
3, 0
3, 5
3, 2
1, 2
1, 0
1, 0
1, 2
0, 1
1, 2
1, 0
2, 1
2, 1
0, 2
2, 0
2, 1
1, 3
0, 0
0, 1
1, 0
0, 1
2, 2
1, 2
1, 2
0, 0
0, 1
1, 1
1, 0
1, 0
0, 1
0, 1
2, 0
0, 0
0, 0
0, 0
0, 0
2, 0
1, 2
0, 0
0, 0
0, 2
0, 0
1, 0
0, 0
0, 0
0, 1
0, 0
0, 0
1, 1
0, 0
0, 1
1, 0
0, 1
1, 0
0, 0
1, 1
0, 0
0, 0
0, 0
0, 0
0, 0
0, 0
0, 0
1, 0
1, 0
0, 0
0, 0
0, 0
1, 1
0, 0
0, 1
1, 0
0, 0
0, 0
0, 0
0, 1
1, 0
0, 0
0, 0
0, 0
0, 0
0, 0
0, 0
0, 0
0, 0
0, 0
0, 0
0, 0
0, 0
0, 0
0, 0
0, 0
0, 0
0, 0
0, 0
0, 0
0, 0
0, 0
0, 0
0, 0
0, 0
0, 0
0, 0
0, 0
0, 0
0, 0
0, 0
0, 0
0, 0
0, 0
0, 0
0, 0
0, 0
0, 0
0, 0
0, 0
0, 0
0, 0
0, 0
0, 0
0, 0
0, 0
0, 0
0, 0
0, 0
0, 0
0, 0
0, 0
0, 0
0, 0
0, 0
0, 0
0, 0
0, 0
0, 0
0, 0
0, 0
0, 0
0, 0
0, 0
0, 0
0, 0
0, 0
0, 0
0, 0
0, 0
0, 0
0, 0
0, 0
0, 0
0, 0
0, 0
0, 0
0, 0
0, 0
0, 0
0, 0
0, 0
0, 0
0, 0
0, 0
0, 0
0, 0
0, 0
0, 0
0, 0
0, 0
0, 0
0, 0
0, 0
0, 0
0, 0
0, 0
0, 0
0, 0
0, 0
0, 0
0, 0
0, 0
#ENDOFDATA     end of spectrum data