File: host_upload/12-01-2023/Dourbes (shot-by-shot)/upload_4/ps__0257_0689790785_000rfs_shot_3090.msa
#FORMAT      : EMSA/MAS spectral data file
#VERSION     : TC202v2.0 PIXL
#TITLE       : N/A
#DATE        :       Date in the format DD-MMM-YYYY, for example 07-JUL-2010
#TIME        :             The time of day at which the spectrum was recorded, in 24-hour format
#OWNER       : PIXL Flight Model       (PIXL will use this to indicate which instrument took the data.)
#NPOINTS     : 4096     Number of data points in the spectrum (This can be zero for configuration only files)
#NCOLUMNS    : 2     Number of data columns in the spectrum (This can be zero for configuration only files)
#XUNITS      : eV
#YUNITS      : COUNTS
#DATATYPE    : YY
#XPERCHAN    : 7.862, 7.881   eV per channel (separate by commas if more than one detector)
#OFFSET      : 18.5, -22.4         eV of first channel  (separate by commas if more than one detector
#SIGNALTYPE  : XRF
#YP_TEMP     : 3.294
#LIVETIME    : 9.00462, 8.98879   seconds (separate by commas if more than one detector)
#REALTIME    : 10, 10.0   seconds (separate by commas if more than one detector)
#SPECTRUM    : start of spectrum data
0, 0
0, 0
0, 0
0, 0
0, 0
0, 0
0, 0
0, 1
0, 0
0, 0
1, 1
28, 31
41, 37
6, 2
4, 2
71, 66
445, 462
89, 77
3, 6
2, 1
4, 3
6, 7
1, 0
3, 8
38, 31
37, 27
16, 17
7, 11
4, 4
0, 2
1, 3
3, 2
1, 6
23, 17
27, 44
23, 15
68, 23
44, 13
5, 8
7, 4
12, 3
5, 12
18, 11
15, 15
7, 11
5, 19
3, 17
3, 7
3, 7
10, 10
18, 11
18, 10
18, 11
57, 69
110, 91
36, 26
43, 49
596, 806
3451, 4052
2265, 1965
188, 133
15, 28
22, 20
139, 218
543, 587
302, 284
23, 19
4, 7
4, 4
5, 8
2, 6
4, 12
7, 11
1, 4
6, 8
5, 5
4, 7
2, 5
3, 2
3, 6
3, 10
3, 13
5, 7
4, 2
3, 4
3, 3
4, 4
6, 4
6, 2
4, 2
0, 5
2, 11
3, 3
6, 1
12, 2
4, 0
0, 3
1, 1
2, 6
4, 4
3, 3
2, 1
5, 0
3, 2
2, 0
3, 3
2, 2
1, 1
5, 0
4, 2
0, 2
1, 3
2, 2
4, 4
1, 0
4, 5
5, 6
6, 9
1, 2
1, 2
1, 2
5, 3
6, 3
1, 2
0, 1
1, 1
1, 1
0, 3
0, 1
2, 1
1, 0
1, 1
2, 1
1, 0
0, 1
0, 1
1, 2
0, 0
0, 0
1, 1
0, 0
1, 1
1, 1
0, 1
1, 1
2, 1
0, 0
1, 0
1, 0
0, 0
1, 0
0, 1
0, 0
0, 0
0, 1
0, 0
0, 0
1, 0
0, 0
0, 0
0, 0
0, 0
0, 0
0, 0
0, 0
1, 0
0, 1
0, 1
0, 0
0, 0
0, 0
0, 0
0, 0
0, 0
0, 0
0, 0
0, 0
0, 1
0, 0
0, 0
0, 0
0, 0
0, 0
0, 0
0, 0
0, 0
0, 0
0, 0
0, 0
0, 0
0, 0
0, 0
0, 0
0, 0
0, 0
0, 0
0, 0
0, 0
0, 0
0, 0
0, 0
0, 0
0, 0
0, 0
0, 0
0, 0
0, 0
0, 0
0, 0
0, 0
0, 0
0, 0
0, 0
0, 0
0, 0
0, 0
0, 0
0, 0
0, 0
0, 0
0, 0
0, 0
0, 0
0, 0
0, 0
0, 0
0, 0
0, 0
0, 0
0, 0
0, 0
0, 0
0, 0
0, 0
0, 0
0, 0
0, 0
0, 0
0, 0
0, 0
0, 0
0, 0
0, 0
0, 0
0, 0
0, 0
0, 0
0, 0
0, 0
0, 0
0, 0
0, 0
0, 0
0, 0
0, 0
0, 0
0, 0
0, 0
0, 0
0, 0
0, 0
0, 0
0, 0
0, 0
0, 0
0, 0
0, 0
0, 0
0, 0
0, 0
0, 0
0, 0
0, 0
0, 0
0, 0
0, 0
0, 0
0, 0
0, 0
0, 0
0, 0
0, 0
0, 0
0, 0
0, 0
0, 0
0, 0
0, 0
0, 0
0, 0
0, 0
0, 0
0, 0
0, 0
#ENDOFDATA     end of spectrum data