File: host_upload/12-01-2023/Dourbes (shot-by-shot)/upload_4/ps__0257_0689790785_000rfs_shot_3038.msa
#FORMAT      : EMSA/MAS spectral data file
#VERSION     : TC202v2.0 PIXL
#TITLE       : N/A
#DATE        :       Date in the format DD-MMM-YYYY, for example 07-JUL-2010
#TIME        :             The time of day at which the spectrum was recorded, in 24-hour format
#OWNER       : PIXL Flight Model       (PIXL will use this to indicate which instrument took the data.)
#NPOINTS     : 4096     Number of data points in the spectrum (This can be zero for configuration only files)
#NCOLUMNS    : 2     Number of data columns in the spectrum (This can be zero for configuration only files)
#XUNITS      : eV
#YUNITS      : COUNTS
#DATATYPE    : YY
#XPERCHAN    : 7.862, 7.881   eV per channel (separate by commas if more than one detector)
#OFFSET      : 18.5, -22.4         eV of first channel  (separate by commas if more than one detector
#SIGNALTYPE  : XRF
#YP_TEMP     : 3.165
#LIVETIME    : 9.00429, 9.0207   seconds (separate by commas if more than one detector)
#REALTIME    : 10, 10.0   seconds (separate by commas if more than one detector)
#SPECTRUM    : start of spectrum data
0, 0
0, 0
0, 0
0, 0
0, 0
0, 0
0, 0
0, 1
1, 3
0, 3
2, 3
32, 24
41, 26
4, 1
1, 0
29, 20
123, 146
26, 30
5, 3
3, 3
9, 14
97, 80
24, 21
20, 15
107, 100
101, 80
29, 32
42, 33
18, 13
2, 1
9, 7
7, 3
12, 8
141, 120
209, 213
18, 18
29, 13
27, 26
15, 8
10, 6
11, 9
23, 15
26, 37
23, 22
8, 13
26, 13
13, 11
13, 15
15, 15
16, 9
19, 13
18, 17
21, 14
91, 101
135, 103
40, 39
42, 41
625, 687
3319, 3362
2217, 1630
204, 128
34, 36
42, 43
145, 181
486, 477
309, 243
26, 15
8, 7
4, 12
2, 6
7, 6
7, 5
6, 6
9, 8
2, 8
1, 4
6, 4
7, 6
9, 6
9, 6
9, 5
4, 6
10, 1
2, 9
5, 6
5, 4
3, 5
3, 5
2, 3
7, 6
8, 3
7, 5
1, 5
2, 2
5, 3
7, 4
4, 5
7, 3
3, 3
5, 3
3, 1
3, 4
2, 9
4, 3
5, 3
6, 5
2, 1
2, 4
1, 3
4, 0
6, 2
4, 3
3, 5
1, 2
3, 1
3, 4
8, 4
7, 1
0, 0
2, 3
1, 0
4, 1
6, 2
3, 1
5, 1
0, 2
2, 0
1, 1
1, 3
1, 3
2, 1
2, 1
0, 1
0, 0
0, 2
1, 0
1, 0
1, 2
0, 0
1, 0
0, 0
0, 1
0, 0
0, 0
0, 0
0, 0
2, 1
0, 0
2, 2
2, 0
0, 1
0, 0
0, 1
0, 0
1, 0
1, 1
0, 0
0, 1
0, 0
1, 0
0, 0
1, 0
0, 0
0, 0
0, 0
0, 1
0, 1
0, 0
0, 0
0, 0
1, 0
0, 0
0, 1
0, 0
0, 0
0, 0
0, 1
0, 0
0, 0
0, 0
0, 0
0, 0
0, 0
0, 0
0, 0
0, 0
1, 0
0, 0
0, 0
0, 0
0, 0
0, 0
0, 0
0, 0
0, 0
0, 0
0, 0
0, 0
0, 0
0, 0
1, 0
0, 0
0, 1
0, 0
0, 0
0, 0
0, 0
1, 0
0, 0
0, 0
0, 0
0, 0
0, 0
0, 0
0, 0
0, 0
0, 0
0, 0
0, 0
0, 0
0, 0
0, 0
0, 0
0, 0
0, 0
0, 0
0, 0
0, 0
0, 0
0, 0
0, 0
0, 0
0, 0
0, 0
0, 0
0, 0
0, 0
0, 0
0, 0
0, 0
0, 0
0, 0
0, 0
0, 0
0, 0
0, 0
0, 0
0, 0
0, 0
0, 0
0, 0
0, 0
0, 0
0, 0
0, 0
0, 0
0, 0
0, 0
0, 0
0, 0
0, 0
0, 0
0, 0
0, 0
0, 0
0, 0
0, 0
0, 0
0, 0
0, 0
0, 0
0, 0
0, 0
0, 0
0, 0
0, 0
0, 0
0, 0
0, 0
0, 0
0, 0
0, 0
0, 0
0, 0
0, 0
0, 0
0, 0
0, 0
0, 0
0, 0
0, 0
0, 0
0, 0
0, 0
#ENDOFDATA     end of spectrum data