File: host_upload/12-01-2023/Dourbes (shot-by-shot)/upload_4/ps__0257_0689790785_000rfs_shot_3105.msa
#FORMAT      : EMSA/MAS spectral data file
#VERSION     : TC202v2.0 PIXL
#TITLE       : N/A
#DATE        :       Date in the format DD-MMM-YYYY, for example 07-JUL-2010
#TIME        :             The time of day at which the spectrum was recorded, in 24-hour format
#OWNER       : PIXL Flight Model       (PIXL will use this to indicate which instrument took the data.)
#NPOINTS     : 4096     Number of data points in the spectrum (This can be zero for configuration only files)
#NCOLUMNS    : 2     Number of data columns in the spectrum (This can be zero for configuration only files)
#XUNITS      : eV
#YUNITS      : COUNTS
#DATATYPE    : YY
#XPERCHAN    : 7.862, 7.881   eV per channel (separate by commas if more than one detector)
#OFFSET      : 18.5, -22.4         eV of first channel  (separate by commas if more than one detector
#SIGNALTYPE  : XRF
#YP_TEMP     : 3.037
#LIVETIME    : 9.00889, 9.01075   seconds (separate by commas if more than one detector)
#REALTIME    : 10, 10.0   seconds (separate by commas if more than one detector)
#SPECTRUM    : start of spectrum data
0, 0
0, 0
0, 0
0, 0
0, 0
0, 0
0, 0
0, 0
0, 1
0, 0
0, 1
24, 31
38, 41
1, 3
1, 5
73, 65
498, 505
76, 61
4, 4
1, 0
2, 2
6, 2
4, 5
4, 5
22, 21
33, 28
24, 17
20, 11
7, 4
4, 1
3, 2
4, 3
10, 2
33, 21
26, 31
7, 3
11, 8
7, 4
1, 5
3, 3
9, 17
25, 55
34, 34
15, 10
9, 3
8, 11
7, 10
9, 9
9, 9
9, 12
9, 11
12, 15
16, 21
66, 73
79, 108
31, 25
45, 54
628, 775
3552, 3813
2249, 1939
168, 136
14, 37
21, 43
165, 164
506, 597
337, 273
20, 17
15, 3
11, 7
6, 6
4, 2
5, 5
7, 7
2, 5
2, 9
5, 5
3, 6
4, 3
4, 7
3, 5
4, 0
4, 1
2, 4
3, 4
4, 4
3, 1
4, 3
8, 6
2, 6
5, 4
5, 3
3, 5
1, 6
2, 2
5, 1
3, 3
2, 1
5, 4
3, 0
4, 2
3, 0
2, 4
2, 0
1, 1
1, 3
3, 2
2, 1
2, 1
1, 3
1, 0
1, 3
3, 2
1, 6
2, 4
1, 4
5, 3
9, 4
7, 3
1, 1
0, 3
1, 1
5, 4
3, 3
0, 2
2, 0
1, 1
2, 0
0, 2
1, 1
2, 1
0, 1
0, 0
2, 1
1, 0
0, 1
1, 0
0, 2
0, 0
0, 0
1, 0
1, 0
2, 1
0, 0
1, 0
1, 1
0, 0
0, 0
0, 0
0, 1
0, 0
0, 0
0, 0
0, 1
1, 1
1, 1
0, 0
1, 0
0, 0
0, 1
0, 2
0, 0
0, 0
0, 0
1, 0
1, 1
0, 0
0, 0
0, 0
0, 0
1, 0
0, 0
0, 0
0, 0
0, 0
0, 1
0, 0
0, 0
0, 0
1, 0
0, 0
1, 0
0, 0
0, 1
0, 0
0, 0
0, 0
0, 0
0, 0
0, 0
0, 0
0, 0
0, 0
0, 0
0, 0
0, 0
0, 0
0, 0
0, 0
0, 0
0, 0
0, 0
0, 0
0, 0
0, 0
0, 0
0, 0
0, 0
0, 0
0, 0
0, 0
0, 0
0, 0
0, 0
0, 0
0, 0
0, 0
0, 0
0, 0
0, 0
0, 0
0, 0
0, 0
0, 0
0, 0
0, 0
0, 0
0, 0
0, 0
0, 0
0, 0
0, 0
0, 0
0, 0
0, 0
0, 0
0, 0
0, 0
0, 0
0, 0
0, 0
0, 0
0, 0
0, 0
0, 0
0, 0
0, 0
0, 0
0, 0
0, 0
0, 0
0, 0
0, 0
0, 0
0, 0
0, 0
0, 0
0, 0
0, 0
0, 0
0, 0
0, 0
0, 0
0, 0
0, 0
0, 0
0, 0
0, 0
0, 0
0, 0
0, 0
0, 0
0, 0
0, 0
0, 0
0, 0
0, 0
0, 0
0, 0
0, 0
0, 0
0, 0
0, 0
0, 0
0, 0
0, 0
0, 0
0, 0
0, 0
0, 0
0, 0
0, 0
0, 0
0, 0
0, 0
#ENDOFDATA     end of spectrum data