File: host_upload/12-01-2023/Dourbes (shot-by-shot)/upload_4/ps__0257_0689790785_000rfs_shot_3083.msa
#FORMAT      : EMSA/MAS spectral data file
#VERSION     : TC202v2.0 PIXL
#TITLE       : N/A
#DATE        :       Date in the format DD-MMM-YYYY, for example 07-JUL-2010
#TIME        :             The time of day at which the spectrum was recorded, in 24-hour format
#OWNER       : PIXL Flight Model       (PIXL will use this to indicate which instrument took the data.)
#NPOINTS     : 4096     Number of data points in the spectrum (This can be zero for configuration only files)
#NCOLUMNS    : 2     Number of data columns in the spectrum (This can be zero for configuration only files)
#XUNITS      : eV
#YUNITS      : COUNTS
#DATATYPE    : YY
#XPERCHAN    : 7.862, 7.881   eV per channel (separate by commas if more than one detector)
#OFFSET      : 18.5, -22.4         eV of first channel  (separate by commas if more than one detector
#SIGNALTYPE  : XRF
#YP_TEMP     : 3.198
#LIVETIME    : 9.09161, 9.09082   seconds (separate by commas if more than one detector)
#REALTIME    : 10, 10.0   seconds (separate by commas if more than one detector)
#SPECTRUM    : start of spectrum data
0, 0
0, 0
0, 0
0, 0
0, 0
0, 0
0, 0
0, 0
1, 1
0, 1
1, 3
26, 26
28, 27
32, 18
42, 54
119, 113
625, 640
128, 100
4, 5
2, 1
1, 2
3, 4
3, 0
6, 3
29, 26
33, 19
16, 16
12, 20
2, 11
6, 14
24, 32
26, 19
9, 6
38, 41
46, 35
8, 4
13, 7
18, 9
3, 2
4, 0
7, 6
19, 10
11, 15
9, 11
8, 4
1, 7
5, 9
8, 5
8, 8
10, 12
10, 7
6, 6
11, 14
48, 59
61, 58
36, 16
25, 26
458, 488
2601, 2558
1648, 1303
130, 71
13, 51
13, 50
109, 114
387, 387
224, 173
27, 30
20, 14
16, 6
12, 4
4, 9
3, 9
3, 6
6, 3
5, 7
9, 7
7, 4
10, 4
7, 5
8, 6
6, 3
6, 1
5, 3
7, 4
8, 2
8, 6
1, 5
7, 1
3, 3
3, 2
0, 2
3, 4
3, 2
6, 6
2, 3
3, 0
8, 3
3, 4
6, 6
5, 1
4, 5
3, 3
3, 1
4, 4
3, 3
3, 3
1, 4
2, 4
6, 4
2, 0
5, 2
4, 1
2, 2
2, 2
6, 1
3, 1
5, 1
4, 7
1, 1
5, 1
2, 0
1, 4
1, 2
2, 6
2, 0
2, 3
4, 1
4, 0
2, 3
3, 2
4, 0
1, 0
0, 0
1, 1
0, 0
3, 0
1, 0
1, 0
1, 0
1, 1
1, 1
1, 0
0, 2
1, 0
1, 0
1, 0
0, 0
1, 0
0, 0
0, 0
0, 0
0, 1
1, 0
0, 1
1, 0
0, 0
0, 1
0, 0
0, 0
1, 0
0, 1
0, 0
1, 0
1, 0
0, 0
0, 0
1, 0
0, 0
0, 0
0, 0
0, 0
1, 0
1, 0
1, 0
0, 0
0, 1
0, 0
1, 0
1, 0
1, 0
0, 1
0, 0
0, 0
0, 0
0, 0
0, 1
0, 0
0, 0
0, 1
0, 0
0, 0
0, 1
1, 0
0, 1
0, 0
0, 0
0, 0
0, 0
0, 0
0, 0
0, 0
0, 0
0, 0
0, 0
1, 0
0, 0
0, 0
1, 0
0, 1
0, 0
0, 0
0, 0
0, 0
0, 0
0, 0
0, 0
0, 0
0, 0
0, 0
0, 0
0, 0
0, 0
0, 0
0, 0
0, 0
0, 0
0, 0
0, 0
0, 0
0, 0
0, 0
0, 0
0, 0
0, 0
0, 0
0, 0
0, 0
0, 0
0, 0
0, 0
0, 0
0, 0
0, 0
0, 0
0, 0
0, 0
0, 0
0, 0
0, 0
0, 0
0, 0
0, 0
0, 0
0, 0
0, 0
0, 0
0, 0
0, 0
0, 0
0, 0
0, 0
0, 0
0, 0
0, 0
0, 0
0, 0
0, 0
0, 0
0, 0
0, 0
0, 0
0, 0
0, 0
0, 0
0, 0
0, 0
0, 0
0, 0
0, 0
0, 0
0, 0
0, 0
0, 0
0, 0
0, 0
0, 0
0, 0
0, 0
0, 0
0, 0
0, 0
0, 0
0, 0
0, 0
#ENDOFDATA     end of spectrum data