File: host_upload/12-01-2023/Dourbes (shot-by-shot)/upload_4/ps__0257_0689790785_000rfs_shot_3272.msa
#FORMAT      : EMSA/MAS spectral data file
#VERSION     : TC202v2.0 PIXL
#TITLE       : N/A
#DATE        :       Date in the format DD-MMM-YYYY, for example 07-JUL-2010
#TIME        :             The time of day at which the spectrum was recorded, in 24-hour format
#OWNER       : PIXL Flight Model       (PIXL will use this to indicate which instrument took the data.)
#NPOINTS     : 4096     Number of data points in the spectrum (This can be zero for configuration only files)
#NCOLUMNS    : 2     Number of data columns in the spectrum (This can be zero for configuration only files)
#XUNITS      : eV
#YUNITS      : COUNTS
#DATATYPE    : YY
#XPERCHAN    : 7.862, 7.881   eV per channel (separate by commas if more than one detector)
#OFFSET      : 18.5, -22.4         eV of first channel  (separate by commas if more than one detector
#SIGNALTYPE  : XRF
#YP_TEMP     : 3.39
#LIVETIME    : 9.075, 9.06155   seconds (separate by commas if more than one detector)
#REALTIME    : 10, 10.0   seconds (separate by commas if more than one detector)
#SPECTRUM    : start of spectrum data
0, 0
0, 0
0, 0
0, 0
0, 0
0, 0
0, 0
0, 0
0, 1
2, 4
2, 0
26, 16
38, 32
10, 12
20, 22
121, 115
727, 767
111, 104
8, 8
3, 9
1, 27
8, 13
6, 4
9, 6
25, 40
24, 199
21, 84
6, 11
2, 5
4, 3
17, 13
18, 12
31, 14
291, 331
475, 477
37, 45
54, 59
68, 61
8, 12
5, 18
9, 19
23, 28
16, 13
12, 7
9, 9
7, 17
4, 26
1, 13
10, 10
40, 43
36, 138
9, 72
10, 14
51, 47
75, 73
31, 13
67, 33
479, 507
2238, 2428
1365, 1205
101, 146
18, 18
25, 20
86, 126
363, 324
170, 159
23, 21
5, 7
10, 9
8, 6
4, 9
4, 18
4, 8
5, 3
8, 8
6, 7
4, 2
6, 6
4, 7
1, 7
3, 12
5, 1
8, 3
4, 4
6, 7
5, 11
7, 26
4, 6
4, 2
1, 2
6, 3
4, 14
6, 13
2, 7
2, 4
5, 2
2, 0
0, 1
0, 1
4, 3
3, 0
2, 5
4, 3
3, 2
4, 2
11, 3
6, 2
0, 2
3, 1
1, 1
2, 3
1, 1
2, 1
2, 1
3, 3
8, 1
1, 8
1, 0
1, 3
1, 0
1, 0
2, 0
2, 3
1, 0
1, 2
3, 1
1, 0
0, 1
1, 2
0, 1
0, 0
1, 0
0, 1
0, 0
0, 0
0, 0
0, 1
0, 1
0, 0
1, 0
0, 0
0, 1
0, 1
2, 1
0, 2
0, 1
0, 0
0, 1
3, 0
1, 0
1, 0
0, 0
0, 0
1, 0
1, 1
1, 0
0, 0
1, 0
0, 0
0, 1
0, 0
0, 0
1, 0
0, 0
0, 0
0, 0
0, 0
0, 1
0, 0
0, 0
0, 1
0, 0
0, 0
1, 0
0, 0
0, 0
0, 0
0, 0
1, 2
0, 0
0, 0
0, 1
0, 2
0, 0
0, 0
0, 0
0, 0
0, 0
1, 0
0, 0
0, 0
1, 0
0, 0
0, 0
0, 0
0, 0
0, 0
0, 0
0, 1
0, 0
1, 0
0, 0
0, 0
0, 0
0, 0
0, 0
0, 0
0, 0
0, 0
0, 0
0, 0
0, 0
0, 0
0, 0
0, 0
0, 0
0, 0
1, 0
0, 0
0, 0
0, 0
0, 0
0, 0
0, 0
0, 0
0, 0
0, 0
0, 0
0, 0
0, 0
0, 0
0, 0
0, 0
0, 0
0, 0
0, 0
0, 0
0, 0
0, 0
0, 0
0, 0
0, 0
0, 0
0, 0
0, 0
0, 0
0, 0
0, 0
0, 0
0, 0
0, 0
0, 0
0, 0
0, 0
0, 0
0, 0
0, 0
0, 0
0, 0
0, 0
0, 0
0, 0
0, 0
0, 0
0, 0
0, 0
0, 0
0, 0
0, 0
0, 0
0, 0
0, 0
0, 0
0, 0
0, 0
0, 0
0, 0
0, 0
0, 0
0, 0
0, 0
0, 0
0, 0
0, 0
0, 0
0, 0
0, 0
0, 0
0, 0
0, 0
0, 0
0, 0
0, 0
0, 0
#ENDOFDATA     end of spectrum data