File: host_upload/12-01-2023/Dourbes (shot-by-shot)/upload_4/ps__0257_0689790785_000rfs_shot_3160.msa
#FORMAT      : EMSA/MAS spectral data file
#VERSION     : TC202v2.0 PIXL
#TITLE       : N/A
#DATE        :       Date in the format DD-MMM-YYYY, for example 07-JUL-2010
#TIME        :             The time of day at which the spectrum was recorded, in 24-hour format
#OWNER       : PIXL Flight Model       (PIXL will use this to indicate which instrument took the data.)
#NPOINTS     : 4096     Number of data points in the spectrum (This can be zero for configuration only files)
#NCOLUMNS    : 2     Number of data columns in the spectrum (This can be zero for configuration only files)
#XUNITS      : eV
#YUNITS      : COUNTS
#DATATYPE    : YY
#XPERCHAN    : 7.862, 7.881   eV per channel (separate by commas if more than one detector)
#OFFSET      : 18.5, -22.4         eV of first channel  (separate by commas if more than one detector
#SIGNALTYPE  : XRF
#YP_TEMP     : 3.262
#LIVETIME    : 8.98912, 9.00134   seconds (separate by commas if more than one detector)
#REALTIME    : 10, 10.0   seconds (separate by commas if more than one detector)
#SPECTRUM    : start of spectrum data
0, 0
0, 0
0, 0
0, 0
0, 0
0, 0
0, 0
1, 0
1, 1
1, 1
1, 2
42, 25
39, 36
6, 0
2, 0
84, 70
518, 480
99, 70
3, 2
1, 1
5, 2
5, 3
7, 3
6, 12
40, 36
22, 39
28, 27
14, 27
8, 3
4, 1
2, 1
2, 2
6, 4
23, 10
20, 26
8, 3
11, 5
8, 8
0, 0
4, 2
6, 25
10, 58
16, 35
25, 16
13, 4
7, 6
8, 11
7, 7
13, 4
9, 7
8, 10
8, 8
8, 13
64, 61
112, 96
24, 31
53, 58
673, 796
3735, 3718
2331, 1890
169, 100
20, 29
27, 27
151, 180
520, 514
297, 221
20, 20
1, 5
13, 6
3, 3
3, 3
3, 15
10, 10
8, 0
7, 3
1, 1
3, 4
2, 5
4, 5
4, 5
4, 2
1, 3
4, 3
5, 2
1, 0
4, 7
4, 9
4, 5
6, 6
4, 0
2, 1
1, 2
4, 1
1, 0
1, 3
4, 2
1, 0
2, 2
4, 1
5, 0
6, 0
3, 3
3, 1
3, 2
6, 0
2, 2
2, 3
1, 2
2, 0
2, 1
2, 3
2, 5
3, 4
3, 1
1, 3
2, 4
5, 7
5, 5
1, 2
1, 0
0, 2
1, 1
5, 3
0, 0
0, 1
1, 1
0, 1
0, 1
0, 1
4, 0
3, 1
1, 0
1, 0
2, 0
0, 1
1, 1
1, 0
0, 2
0, 1
1, 0
1, 1
0, 2
0, 2
0, 1
1, 1
0, 0
2, 0
0, 0
0, 0
0, 0
0, 1
1, 0
0, 0
0, 0
0, 1
0, 0
0, 0
0, 0
0, 2
1, 0
0, 0
0, 0
0, 0
0, 1
0, 0
0, 0
0, 0
0, 0
0, 0
0, 0
0, 0
0, 0
0, 0
0, 0
0, 0
0, 1
0, 0
0, 1
0, 2
0, 0
0, 0
0, 0
1, 0
1, 1
0, 0
0, 0
0, 0
0, 0
0, 0
0, 0
0, 0
0, 0
0, 1
0, 0
0, 0
0, 0
0, 1
0, 0
0, 0
0, 0
0, 0
0, 0
0, 0
0, 1
0, 0
0, 0
0, 0
0, 0
0, 0
0, 0
0, 0
0, 0
0, 0
0, 0
0, 0
0, 0
0, 0
0, 0
0, 0
0, 0
0, 0
0, 0
0, 0
0, 0
0, 0
0, 0
0, 0
0, 0
0, 0
0, 0
0, 0
0, 0
0, 0
0, 0
0, 0
0, 0
0, 0
0, 0
0, 0
0, 0
0, 0
0, 0
0, 0
0, 0
0, 0
0, 0
0, 0
0, 0
0, 0
0, 0
0, 0
0, 0
0, 0
0, 0
0, 0
0, 0
0, 0
0, 0
0, 0
0, 0
0, 0
0, 0
0, 0
0, 0
0, 0
0, 0
0, 0
0, 0
0, 0
0, 0
0, 0
0, 0
0, 0
0, 0
0, 0
0, 0
0, 0
0, 0
0, 0
0, 0
0, 0
0, 0
0, 0
0, 0
0, 0
0, 0
0, 0
0, 0
0, 0
0, 0
0, 0
0, 0
0, 0
0, 0
#ENDOFDATA     end of spectrum data