File: host_upload/12-01-2023/Dourbes (shot-by-shot)/upload_4/ps__0257_0689790785_000rfs_shot_3036.msa
#FORMAT      : EMSA/MAS spectral data file
#VERSION     : TC202v2.0 PIXL
#TITLE       : N/A
#DATE        :       Date in the format DD-MMM-YYYY, for example 07-JUL-2010
#TIME        :             The time of day at which the spectrum was recorded, in 24-hour format
#OWNER       : PIXL Flight Model       (PIXL will use this to indicate which instrument took the data.)
#NPOINTS     : 4096     Number of data points in the spectrum (This can be zero for configuration only files)
#NCOLUMNS    : 2     Number of data columns in the spectrum (This can be zero for configuration only files)
#XUNITS      : eV
#YUNITS      : COUNTS
#DATATYPE    : YY
#XPERCHAN    : 7.862, 7.881   eV per channel (separate by commas if more than one detector)
#OFFSET      : 18.5, -22.4         eV of first channel  (separate by commas if more than one detector
#SIGNALTYPE  : XRF
#YP_TEMP     : 3.133
#LIVETIME    : 8.97805, 8.95646   seconds (separate by commas if more than one detector)
#REALTIME    : 10, 10.0   seconds (separate by commas if more than one detector)
#SPECTRUM    : start of spectrum data
0, 0
0, 0
0, 0
0, 0
0, 0
0, 0
0, 0
0, 0
1, 3
4, 3
1, 5
21, 32
27, 18
4, 4
2, 4
40, 38
222, 254
41, 31
8, 13
4, 8
17, 25
138, 161
45, 60
40, 42
177, 173
119, 109
47, 43
37, 31
11, 14
6, 7
8, 8
4, 10
15, 16
162, 195
282, 245
32, 27
23, 36
31, 35
13, 7
5, 10
10, 10
13, 20
24, 27
20, 26
16, 17
18, 16
16, 15
23, 22
14, 16
18, 11
13, 15
13, 19
26, 24
74, 82
113, 107
32, 32
33, 37
637, 799
3446, 3935
2226, 1999
197, 130
36, 34
41, 59
146, 186
521, 560
313, 281
26, 17
5, 4
6, 10
3, 5
7, 6
5, 0
2, 2
4, 9
2, 6
2, 6
7, 3
3, 7
3, 4
4, 9
3, 6
4, 7
1, 8
6, 5
3, 2
5, 3
2, 6
4, 5
1, 2
1, 4
3, 2
3, 4
5, 1
2, 4
4, 4
2, 3
0, 0
6, 1
3, 3
2, 2
3, 7
0, 6
2, 1
3, 2
0, 3
2, 3
1, 1
1, 2
6, 3
3, 2
1, 4
1, 1
3, 4
3, 2
4, 1
1, 5
12, 7
6, 7
2, 2
1, 1
1, 1
4, 4
1, 4
3, 0
0, 0
1, 2
1, 2
3, 1
1, 0
2, 0
0, 1
0, 0
1, 0
1, 4
0, 2
0, 0
0, 0
3, 1
0, 0
0, 0
1, 0
0, 1
0, 1
1, 0
0, 0
0, 0
1, 1
0, 0
0, 0
0, 0
0, 1
0, 0
0, 1
0, 0
1, 0
0, 0
0, 0
0, 0
1, 1
1, 0
0, 0
1, 1
0, 0
0, 0
0, 0
0, 0
1, 0
0, 2
0, 0
0, 0
0, 0
0, 0
1, 0
0, 0
0, 0
0, 0
1, 0
0, 1
0, 0
0, 0
0, 0
0, 0
0, 0
0, 0
0, 0
0, 0
0, 0
0, 0
0, 0
0, 0
0, 0
0, 0
0, 0
0, 0
0, 0
0, 1
0, 0
0, 0
0, 1
0, 0
0, 0
0, 0
0, 0
0, 0
0, 0
0, 0
0, 0
0, 0
0, 0
0, 0
1, 0
0, 0
0, 0
0, 0
0, 0
0, 0
0, 0
0, 0
0, 0
0, 0
0, 0
0, 0
0, 0
0, 0
0, 0
0, 0
0, 0
0, 0
0, 0
0, 0
0, 0
0, 0
0, 0
0, 0
0, 0
0, 0
0, 0
0, 0
0, 0
0, 0
0, 0
0, 0
0, 0
0, 0
0, 0
0, 0
1, 0
0, 0
0, 0
0, 0
0, 0
0, 0
0, 0
0, 0
0, 0
0, 0
0, 0
0, 0
0, 0
0, 0
0, 0
0, 0
0, 0
0, 0
0, 0
0, 0
0, 0
0, 0
0, 0
0, 0
0, 0
0, 0
0, 0
0, 0
0, 0
0, 0
0, 0
0, 0
0, 0
0, 0
0, 0
0, 0
0, 0
0, 0
0, 0
0, 0
0, 0
0, 0
0, 0
0, 0
0, 0
0, 0
0, 0
0, 0
#ENDOFDATA     end of spectrum data