File: host_upload/12-01-2023/Dourbes (shot-by-shot)/upload_4/ps__0257_0689790785_000rfs_shot_3263.msa
#FORMAT      : EMSA/MAS spectral data file
#VERSION     : TC202v2.0 PIXL
#TITLE       : N/A
#DATE        :       Date in the format DD-MMM-YYYY, for example 07-JUL-2010
#TIME        :             The time of day at which the spectrum was recorded, in 24-hour format
#OWNER       : PIXL Flight Model       (PIXL will use this to indicate which instrument took the data.)
#NPOINTS     : 4096     Number of data points in the spectrum (This can be zero for configuration only files)
#NCOLUMNS    : 2     Number of data columns in the spectrum (This can be zero for configuration only files)
#XUNITS      : eV
#YUNITS      : COUNTS
#DATATYPE    : YY
#XPERCHAN    : 7.862, 7.881   eV per channel (separate by commas if more than one detector)
#OFFSET      : 18.5, -22.4         eV of first channel  (separate by commas if more than one detector
#SIGNALTYPE  : XRF
#YP_TEMP     : 3.037
#LIVETIME    : 9.01112, 9.011   seconds (separate by commas if more than one detector)
#REALTIME    : 10, 10.0   seconds (separate by commas if more than one detector)
#SPECTRUM    : start of spectrum data
0, 0
0, 0
0, 0
0, 0
0, 0
0, 0
0, 0
0, 0
1, 0
2, 0
4, 2
42, 33
39, 34
1, 2
3, 4
88, 98
528, 542
81, 84
4, 2
2, 0
0, 1
2, 4
2, 0
3, 10
32, 37
32, 32
23, 28
14, 15
6, 5
5, 3
1, 0
1, 2
4, 1
22, 19
28, 28
5, 3
3, 6
6, 5
6, 5
3, 1
2, 3
9, 16
24, 30
12, 17
11, 5
4, 3
4, 11
5, 7
10, 8
16, 16
8, 13
15, 7
15, 10
63, 65
87, 84
19, 29
40, 34
636, 827
3546, 3812
2182, 1823
155, 120
18, 15
41, 24
137, 206
524, 523
285, 235
20, 21
7, 2
8, 4
6, 4
2, 2
4, 3
3, 4
9, 7
9, 8
2, 5
3, 2
4, 4
3, 3
4, 9
1, 2
2, 3
3, 3
1, 2
3, 4
3, 1
2, 5
4, 7
3, 7
0, 3
3, 1
2, 4
2, 5
3, 7
2, 1
5, 3
1, 2
2, 3
0, 2
1, 3
1, 2
3, 2
0, 2
2, 2
3, 2
1, 2
3, 1
1, 1
0, 1
2, 1
1, 2
2, 1
0, 2
0, 2
1, 3
4, 8
7, 3
3, 5
1, 3
2, 2
2, 1
4, 0
3, 2
4, 0
1, 0
0, 2
1, 2
1, 1
1, 1
0, 3
1, 1
2, 0
2, 2
0, 0
0, 0
1, 1
0, 1
0, 1
0, 0
0, 0
1, 2
2, 0
0, 0
0, 0
1, 0
1, 0
0, 1
0, 1
0, 0
0, 0
0, 0
1, 0
0, 0
0, 0
0, 1
0, 0
0, 0
0, 0
0, 0
0, 1
0, 0
0, 0
0, 0
1, 0
1, 0
1, 1
0, 0
0, 0
0, 0
0, 0
0, 0
1, 0
1, 0
0, 0
0, 0
0, 0
0, 0
0, 0
0, 0
0, 0
0, 1
1, 0
0, 0
1, 0
0, 1
1, 0
0, 0
0, 0
0, 0
0, 1
0, 0
0, 0
1, 0
0, 0
0, 0
0, 0
0, 0
0, 0
0, 0
0, 0
0, 0
0, 0
0, 0
0, 0
0, 0
0, 0
0, 0
0, 0
0, 0
0, 0
0, 0
0, 0
0, 0
0, 0
0, 0
0, 0
0, 0
0, 0
0, 0
0, 0
0, 0
0, 0
0, 0
0, 0
0, 0
0, 0
0, 0
0, 0
0, 0
0, 0
0, 0
0, 0
0, 0
0, 0
0, 0
0, 0
0, 0
0, 0
0, 0
0, 0
0, 0
0, 0
0, 0
0, 0
0, 0
0, 0
0, 0
0, 0
0, 0
0, 0
0, 0
0, 0
0, 0
0, 0
0, 0
0, 0
0, 0
0, 0
0, 0
0, 0
0, 0
0, 0
0, 0
0, 0
0, 0
0, 0
0, 0
0, 0
0, 0
0, 0
0, 0
0, 0
0, 0
0, 0
0, 0
0, 0
0, 0
0, 0
0, 0
0, 0
0, 0
0, 0
0, 0
0, 0
0, 0
0, 0
0, 0
0, 0
0, 0
0, 0
0, 0
0, 0
0, 0
0, 0
#ENDOFDATA     end of spectrum data