File: host_upload/12-01-2023/Dourbes (shot-by-shot)/upload_4/ps__0257_0689790785_000rfs_shot_3088.msa
#FORMAT      : EMSA/MAS spectral data file
#VERSION     : TC202v2.0 PIXL
#TITLE       : N/A
#DATE        :       Date in the format DD-MMM-YYYY, for example 07-JUL-2010
#TIME        :             The time of day at which the spectrum was recorded, in 24-hour format
#OWNER       : PIXL Flight Model       (PIXL will use this to indicate which instrument took the data.)
#NPOINTS     : 4096     Number of data points in the spectrum (This can be zero for configuration only files)
#NCOLUMNS    : 2     Number of data columns in the spectrum (This can be zero for configuration only files)
#XUNITS      : eV
#YUNITS      : COUNTS
#DATATYPE    : YY
#XPERCHAN    : 7.862, 7.881   eV per channel (separate by commas if more than one detector)
#OFFSET      : 18.5, -22.4         eV of first channel  (separate by commas if more than one detector
#SIGNALTYPE  : XRF
#YP_TEMP     : 3.069
#LIVETIME    : 9.00037, 9.01399   seconds (separate by commas if more than one detector)
#REALTIME    : 10, 10.0   seconds (separate by commas if more than one detector)
#SPECTRUM    : start of spectrum data
0, 0
0, 0
0, 0
0, 0
0, 0
0, 0
0, 0
0, 1
0, 1
0, 0
1, 1
26, 23
39, 45
7, 6
5, 8
82, 74
519, 478
101, 61
17, 14
14, 8
6, 3
8, 0
3, 4
11, 7
46, 49
40, 27
18, 27
7, 13
3, 2
5, 4
1, 5
2, 5
3, 1
47, 30
51, 50
20, 27
57, 37
43, 18
9, 2
4, 2
6, 6
20, 20
25, 24
16, 22
18, 11
7, 24
9, 8
2, 9
9, 11
15, 21
9, 15
11, 5
18, 7
43, 61
93, 81
32, 21
40, 42
615, 781
3540, 3583
2269, 1820
175, 128
13, 17
22, 27
123, 173
513, 547
295, 262
33, 27
6, 4
6, 6
7, 2
3, 3
3, 12
7, 7
6, 6
2, 6
6, 7
3, 2
0, 4
9, 3
6, 2
0, 5
3, 8
3, 7
4, 3
0, 5
3, 2
8, 0
3, 1
0, 1
7, 5
2, 3
4, 2
3, 2
5, 0
11, 3
3, 1
0, 0
1, 2
0, 6
2, 3
1, 1
5, 3
4, 1
2, 1
2, 3
1, 0
3, 1
3, 1
3, 1
1, 3
1, 1
2, 4
2, 5
0, 2
2, 2
3, 4
5, 2
1, 7
0, 0
0, 0
3, 2
2, 1
3, 0
0, 5
1, 0
1, 2
2, 2
2, 1
1, 1
1, 1
3, 1
2, 2
2, 0
1, 0
1, 1
0, 0
0, 1
1, 0
0, 2
1, 0
0, 3
0, 1
0, 0
0, 0
2, 1
0, 1
1, 0
1, 1
1, 0
0, 0
0, 0
0, 0
0, 0
0, 1
0, 0
0, 0
0, 0
0, 0
0, 0
0, 1
0, 1
0, 0
1, 0
0, 1
0, 0
0, 0
0, 1
0, 0
1, 0
0, 0
0, 0
0, 2
1, 0
0, 0
0, 0
0, 0
1, 0
0, 0
0, 0
0, 0
0, 0
0, 0
0, 0
0, 1
0, 0
0, 0
0, 0
0, 0
0, 1
0, 0
0, 1
0, 0
0, 0
0, 0
0, 0
0, 0
0, 0
0, 0
0, 0
0, 0
0, 0
0, 0
0, 0
0, 0
0, 0
0, 0
0, 0
0, 0
0, 0
0, 0
0, 0
0, 0
0, 0
0, 0
0, 0
0, 0
0, 0
0, 0
0, 0
0, 0
0, 0
0, 0
0, 0
0, 0
0, 0
0, 0
0, 0
0, 0
0, 0
0, 0
0, 0
0, 0
0, 0
0, 0
0, 0
0, 0
0, 0
0, 0
0, 0
0, 0
0, 0
0, 0
0, 0
0, 0
0, 0
0, 0
0, 0
0, 0
0, 0
0, 0
0, 0
0, 0
0, 0
0, 0
0, 0
0, 0
0, 0
0, 0
0, 0
0, 0
0, 0
0, 0
0, 0
0, 0
0, 0
0, 0
0, 0
0, 0
0, 0
0, 0
0, 0
0, 0
0, 0
0, 0
0, 0
0, 0
0, 0
0, 0
0, 0
0, 0
0, 0
0, 0
0, 0
0, 0
0, 0
0, 0
0, 0
0, 0
0, 0
0, 0
0, 0
0, 0
0, 0
0, 0
#ENDOFDATA     end of spectrum data