File: host_upload/12-01-2023/Dourbes (shot-by-shot)/upload_4/ps__0257_0689790785_000rfs_shot_3010.msa
#FORMAT      : EMSA/MAS spectral data file
#VERSION     : TC202v2.0 PIXL
#TITLE       : N/A
#DATE        :       Date in the format DD-MMM-YYYY, for example 07-JUL-2010
#TIME        :             The time of day at which the spectrum was recorded, in 24-hour format
#OWNER       : PIXL Flight Model       (PIXL will use this to indicate which instrument took the data.)
#NPOINTS     : 4096     Number of data points in the spectrum (This can be zero for configuration only files)
#NCOLUMNS    : 2     Number of data columns in the spectrum (This can be zero for configuration only files)
#XUNITS      : eV
#YUNITS      : COUNTS
#DATATYPE    : YY
#XPERCHAN    : 7.862, 7.881   eV per channel (separate by commas if more than one detector)
#OFFSET      : 18.5, -22.4         eV of first channel  (separate by commas if more than one detector
#SIGNALTYPE  : XRF
#YP_TEMP     : 2.941
#LIVETIME    : 9.06902, 9.09153   seconds (separate by commas if more than one detector)
#REALTIME    : 10, 10.0   seconds (separate by commas if more than one detector)
#SPECTRUM    : start of spectrum data
0, 0
0, 0
0, 0
0, 0
0, 0
0, 0
0, 0
0, 1
2, 2
2, 6
3, 4
23, 18
29, 29
3, 4
9, 11
121, 111
734, 668
143, 99
8, 9
1, 2
4, 4
48, 55
14, 12
24, 32
179, 163
189, 137
46, 36
25, 27
9, 14
5, 1
8, 4
7, 6
4, 9
67, 67
106, 90
8, 15
17, 18
13, 18
9, 11
10, 7
14, 7
15, 13
34, 29
19, 15
11, 14
10, 8
11, 6
12, 11
17, 14
19, 11
19, 11
13, 9
13, 20
62, 61
83, 66
31, 27
32, 36
454, 479
2476, 2314
1585, 1239
165, 87
21, 19
25, 25
124, 115
345, 338
242, 197
21, 12
10, 13
12, 8
12, 9
4, 5
5, 3
7, 7
5, 9
14, 6
10, 3
10, 13
10, 5
6, 5
8, 4
8, 5
10, 5
7, 5
5, 2
4, 3
4, 3
6, 4
5, 4
5, 5
3, 6
0, 5
3, 4
5, 3
5, 2
5, 5
7, 5
3, 3
2, 3
6, 2
6, 2
2, 4
3, 3
5, 2
4, 5
4, 2
3, 1
2, 3
3, 1
2, 2
4, 2
2, 2
3, 3
4, 2
1, 0
3, 2
1, 1
4, 1
1, 2
2, 2
3, 2
2, 0
2, 2
3, 1
2, 1
0, 1
2, 1
2, 2
3, 1
0, 0
1, 0
2, 0
2, 0
1, 0
2, 0
1, 3
0, 1
0, 0
2, 0
1, 1
0, 0
0, 0
0, 1
0, 1
0, 1
0, 1
0, 0
0, 0
0, 0
0, 1
0, 0
1, 0
0, 0
0, 0
0, 1
2, 0
2, 0
0, 0
0, 0
0, 0
0, 0
0, 0
0, 2
1, 1
0, 0
1, 1
2, 0
0, 0
0, 0
0, 0
0, 0
0, 0
0, 0
1, 0
0, 0
0, 0
2, 2
0, 0
0, 0
0, 0
0, 0
1, 0
0, 0
0, 1
0, 1
0, 0
0, 1
0, 0
0, 0
0, 0
0, 0
0, 0
0, 0
0, 0
0, 0
0, 0
0, 0
0, 0
0, 0
0, 0
0, 0
0, 0
0, 0
0, 0
0, 0
0, 0
0, 0
0, 0
0, 0
0, 0
0, 0
0, 0
0, 0
0, 0
0, 0
0, 0
0, 0
0, 0
0, 0
0, 0
0, 0
1, 0
0, 0
0, 0
0, 0
0, 0
0, 0
0, 0
0, 0
0, 0
0, 0
0, 0
0, 0
0, 0
0, 0
0, 0
0, 0
0, 0
0, 0
0, 0
0, 0
0, 0
0, 0
0, 0
0, 0
0, 0
0, 0
0, 0
0, 0
0, 0
0, 0
0, 0
0, 0
0, 0
0, 0
0, 0
0, 0
0, 0
0, 0
0, 0
0, 0
0, 0
0, 0
0, 0
0, 0
0, 0
0, 0
0, 0
0, 0
0, 0
0, 0
0, 0
0, 0
0, 0
0, 0
0, 0
0, 0
0, 0
0, 0
0, 0
0, 0
0, 0
0, 0
0, 0
0, 0
0, 0
0, 0
0, 0
0, 0
0, 0
0, 0
0, 0
0, 0
0, 0
0, 0
#ENDOFDATA     end of spectrum data