File: host_upload/12-01-2023/Dourbes (shot-by-shot)/upload_4/ps__0257_0689790785_000rfs_shot_3206.msa
#FORMAT      : EMSA/MAS spectral data file
#VERSION     : TC202v2.0 PIXL
#TITLE       : N/A
#DATE        :       Date in the format DD-MMM-YYYY, for example 07-JUL-2010
#TIME        :             The time of day at which the spectrum was recorded, in 24-hour format
#OWNER       : PIXL Flight Model       (PIXL will use this to indicate which instrument took the data.)
#NPOINTS     : 4096     Number of data points in the spectrum (This can be zero for configuration only files)
#NCOLUMNS    : 2     Number of data columns in the spectrum (This can be zero for configuration only files)
#XUNITS      : eV
#YUNITS      : COUNTS
#DATATYPE    : YY
#XPERCHAN    : 7.862, 7.881   eV per channel (separate by commas if more than one detector)
#OFFSET      : 18.5, -22.4         eV of first channel  (separate by commas if more than one detector
#SIGNALTYPE  : XRF
#YP_TEMP     : 3.165
#LIVETIME    : 8.94011, 8.98626   seconds (separate by commas if more than one detector)
#REALTIME    : 10, 10.0   seconds (separate by commas if more than one detector)
#SPECTRUM    : start of spectrum data
0, 0
0, 0
0, 0
0, 0
0, 0
0, 0
0, 1
0, 0
10, 1
30, 1
8, 0
29, 23
37, 24
7, 3
7, 8
75, 86
538, 499
87, 95
8, 3
2, 2
17, 21
141, 158
54, 48
50, 17
1079, 143
1614, 86
130, 43
28, 21
13, 11
2, 2
9, 8
4, 4
6, 6
36, 39
47, 56
10, 9
22, 7
13, 10
10, 10
6, 9
10, 12
21, 24
27, 71
18, 33
4, 9
11, 16
13, 17
9, 10
9, 8
18, 16
8, 19
3, 12
12, 20
56, 63
84, 66
25, 21
40, 31
603, 779
3384, 3601
2029, 1744
152, 118
41, 17
70, 27
128, 182
506, 513
252, 260
24, 21
5, 10
9, 11
4, 4
1, 5
2, 8
7, 8
4, 4
7, 8
6, 7
2, 7
6, 8
7, 7
1, 4
4, 3
3, 3
9, 2
9, 7
7, 10
4, 8
5, 6
7, 2
4, 1
6, 5
3, 1
2, 2
5, 3
2, 1
0, 2
4, 1
1, 3
8, 2
6, 2
13, 5
4, 5
8, 6
2, 1
0, 3
2, 2
2, 1
2, 0
0, 4
0, 2
2, 1
5, 4
2, 2
4, 1
0, 2
1, 0
1, 6
5, 13
4, 3
2, 3
1, 2
0, 2
0, 2
1, 2
1, 0
1, 1
1, 2
0, 0
0, 0
2, 0
0, 0
0, 0
1, 2
0, 1
1, 1
1, 0
0, 0
0, 0
0, 1
0, 0
2, 0
0, 0
1, 0
2, 1
0, 3
0, 0
0, 0
0, 0
2, 0
0, 0
0, 0
0, 1
0, 0
0, 0
0, 0
0, 1
0, 1
0, 0
0, 0
0, 0
1, 1
0, 0
0, 0
0, 0
0, 0
0, 0
0, 0
0, 0
0, 0
0, 0
0, 1
0, 1
0, 0
0, 2
0, 0
1, 0
0, 0
0, 0
1, 1
0, 0
0, 0
1, 0
0, 0
0, 0
1, 0
0, 0
0, 0
0, 0
0, 0
0, 0
0, 0
0, 0
0, 0
0, 0
0, 0
0, 0
0, 0
0, 0
0, 0
0, 1
0, 0
0, 0
0, 0
0, 0
0, 0
0, 0
0, 0
0, 0
0, 0
0, 0
0, 0
0, 0
0, 0
0, 0
0, 0
0, 0
0, 0
0, 0
0, 0
0, 0
0, 0
0, 0
0, 0
0, 0
0, 0
0, 0
0, 0
0, 0
0, 0
0, 0
0, 0
0, 0
0, 0
0, 0
0, 0
0, 0
0, 0
0, 0
0, 0
0, 0
0, 0
0, 0
0, 0
0, 0
0, 0
0, 0
0, 1
0, 0
0, 0
0, 0
0, 0
0, 0
0, 0
0, 0
0, 0
0, 0
0, 0
0, 0
0, 0
0, 0
0, 0
0, 0
0, 0
0, 0
0, 0
0, 0
0, 0
0, 0
0, 0
0, 0
0, 0
0, 0
0, 0
0, 0
0, 0
0, 0
0, 0
0, 0
0, 0
0, 0
0, 0
0, 0
0, 0
0, 0
0, 0
0, 0
0, 0
0, 0
0, 0
0, 0
0, 0
0, 0
0, 0
0, 0
0, 0
#ENDOFDATA     end of spectrum data