File: host_upload/12-01-2023/Dourbes (shot-by-shot)/upload_4/ps__0257_0689790785_000rfs_shot_3223.msa
#FORMAT      : EMSA/MAS spectral data file
#VERSION     : TC202v2.0 PIXL
#TITLE       : N/A
#DATE        :       Date in the format DD-MMM-YYYY, for example 07-JUL-2010
#TIME        :             The time of day at which the spectrum was recorded, in 24-hour format
#OWNER       : PIXL Flight Model       (PIXL will use this to indicate which instrument took the data.)
#NPOINTS     : 4096     Number of data points in the spectrum (This can be zero for configuration only files)
#NCOLUMNS    : 2     Number of data columns in the spectrum (This can be zero for configuration only files)
#XUNITS      : eV
#YUNITS      : COUNTS
#DATATYPE    : YY
#XPERCHAN    : 7.862, 7.881   eV per channel (separate by commas if more than one detector)
#OFFSET      : 18.5, -22.4         eV of first channel  (separate by commas if more than one detector
#SIGNALTYPE  : XRF
#YP_TEMP     : 2.909
#LIVETIME    : 8.96644, 8.97446   seconds (separate by commas if more than one detector)
#REALTIME    : 10, 10.0   seconds (separate by commas if more than one detector)
#SPECTRUM    : start of spectrum data
0, 0
0, 0
0, 0
0, 0
0, 0
0, 0
0, 0
0, 0
0, 0
5, 5
1, 1
28, 27
23, 35
4, 4
1, 1
10, 10
79, 62
13, 22
6, 2
3, 1
3, 3
17, 13
7, 5
14, 14
97, 108
109, 85
34, 36
39, 31
16, 10
7, 7
6, 7
9, 0
7, 11
161, 151
246, 187
28, 27
31, 32
33, 32
31, 9
13, 8
16, 12
19, 15
29, 54
23, 33
12, 8
21, 15
9, 13
14, 12
17, 19
21, 18
11, 18
19, 13
30, 19
118, 107
160, 144
34, 38
57, 46
694, 816
3827, 3836
2402, 1913
180, 119
33, 21
37, 46
178, 175
577, 575
297, 272
20, 14
4, 8
4, 3
4, 3
5, 2
7, 3
9, 2
4, 3
1, 1
8, 6
4, 5
5, 8
5, 2
10, 3
4, 7
6, 10
6, 4
3, 7
4, 4
5, 6
5, 4
1, 5
6, 3
2, 2
2, 4
5, 4
8, 2
2, 3
5, 2
6, 4
1, 3
3, 4
2, 1
5, 5
6, 3
3, 3
1, 3
8, 3
1, 5
5, 4
3, 0
7, 1
2, 1
0, 4
0, 2
0, 1
3, 6
3, 2
3, 2
5, 4
6, 3
6, 2
2, 2
0, 1
1, 1
0, 4
0, 3
0, 0
1, 2
1, 0
1, 0
4, 0
1, 4
0, 1
0, 0
0, 3
3, 0
1, 1
1, 1
1, 1
2, 0
1, 0
0, 0
1, 1
0, 0
1, 0
0, 2
0, 1
0, 2
1, 0
1, 0
0, 0
1, 0
0, 0
1, 0
0, 0
0, 0
0, 0
0, 1
0, 2
0, 0
0, 0
2, 0
0, 0
1, 0
1, 0
1, 0
0, 0
1, 0
0, 0
0, 0
0, 0
0, 0
0, 0
0, 0
1, 0
0, 1
0, 0
0, 0
0, 0
1, 0
0, 0
1, 0
0, 0
0, 0
0, 0
0, 1
0, 0
0, 0
0, 0
1, 0
0, 0
0, 0
0, 0
0, 0
0, 0
0, 0
0, 0
0, 0
0, 0
0, 0
0, 0
0, 0
0, 0
0, 0
0, 0
0, 0
0, 0
0, 0
0, 0
0, 0
0, 0
0, 0
0, 0
0, 0
0, 0
0, 0
0, 0
0, 0
0, 0
0, 0
0, 0
0, 0
0, 0
0, 0
0, 1
0, 0
0, 0
0, 0
0, 0
0, 0
0, 0
0, 0
0, 0
0, 0
0, 0
0, 0
0, 0
0, 0
0, 0
0, 0
0, 0
0, 0
0, 0
0, 0
0, 0
0, 0
0, 0
0, 0
0, 0
0, 0
0, 0
0, 0
0, 0
0, 0
0, 0
0, 0
0, 0
0, 0
0, 0
0, 0
0, 0
0, 0
0, 0
0, 0
0, 0
0, 0
0, 0
0, 0
0, 0
0, 0
0, 0
0, 0
0, 0
0, 0
0, 0
0, 0
0, 0
0, 0
0, 0
0, 0
0, 0
0, 0
0, 0
0, 0
0, 0
0, 0
0, 0
0, 0
0, 0
0, 0
0, 0
0, 0
0, 0
0, 0
0, 0
0, 0
0, 0
#ENDOFDATA     end of spectrum data