File: host_upload/12-01-2023/Dourbes (shot-by-shot)/upload_4/ps__0257_0689790785_000rfs_shot_3279.msa
#FORMAT      : EMSA/MAS spectral data file
#VERSION     : TC202v2.0 PIXL
#TITLE       : N/A
#DATE        :       Date in the format DD-MMM-YYYY, for example 07-JUL-2010
#TIME        :             The time of day at which the spectrum was recorded, in 24-hour format
#OWNER       : PIXL Flight Model       (PIXL will use this to indicate which instrument took the data.)
#NPOINTS     : 4096     Number of data points in the spectrum (This can be zero for configuration only files)
#NCOLUMNS    : 2     Number of data columns in the spectrum (This can be zero for configuration only files)
#XUNITS      : eV
#YUNITS      : COUNTS
#DATATYPE    : YY
#XPERCHAN    : 7.862, 7.881   eV per channel (separate by commas if more than one detector)
#OFFSET      : 18.5, -22.4         eV of first channel  (separate by commas if more than one detector
#SIGNALTYPE  : XRF
#YP_TEMP     : 3.294
#LIVETIME    : 9.11994, 9.1363   seconds (separate by commas if more than one detector)
#REALTIME    : 10, 10.0   seconds (separate by commas if more than one detector)
#SPECTRUM    : start of spectrum data
0, 0
0, 0
0, 0
0, 0
0, 0
0, 0
0, 0
0, 0
1, 0
2, 1
3, 1
25, 20
23, 23
3, 6
17, 14
133, 122
921, 932
153, 133
16, 19
5, 4
1, 7
5, 6
5, 2
4, 2
17, 17
23, 18
9, 10
12, 21
5, 8
5, 1
2, 3
4, 4
20, 30
637, 694
1050, 1051
97, 77
127, 107
157, 127
26, 16
1, 1
14, 11
24, 37
29, 16
3, 7
6, 1
8, 8
5, 16
4, 18
11, 12
59, 49
30, 33
3, 5
7, 4
28, 30
47, 48
25, 13
157, 12
542, 262
1264, 1138
687, 572
60, 32
5, 7
12, 11
52, 51
210, 199
113, 73
7, 16
5, 12
7, 9
3, 2
3, 6
0, 4
4, 2
6, 3
6, 3
12, 2
6, 9
3, 7
4, 8
4, 3
4, 3
5, 5
8, 7
6, 4
4, 10
7, 30
5, 36
5, 14
6, 4
4, 6
2, 2
8, 7
7, 9
3, 6
6, 6
5, 4
1, 2
2, 4
2, 3
5, 2
0, 1
3, 3
1, 1
6, 7
7, 7
19, 2
10, 0
3, 0
5, 7
0, 2
1, 4
1, 1
2, 3
3, 1
2, 0
3, 2
4, 0
6, 1
2, 3
2, 2
5, 1
2, 0
1, 0
0, 1
3, 0
2, 0
1, 2
2, 0
1, 0
1, 1
1, 0
0, 2
1, 1
0, 1
2, 0
1, 0
1, 0
2, 1
1, 2
1, 0
0, 1
0, 3
1, 0
2, 0
1, 0
0, 1
1, 0
1, 2
1, 0
1, 0
1, 0
0, 0
0, 0
0, 0
0, 2
1, 0
1, 0
0, 0
0, 0
0, 0
0, 0
0, 0
1, 0
0, 0
0, 1
1, 0
0, 0
0, 1
0, 0
0, 0
0, 0
1, 0
0, 1
0, 0
0, 0
0, 0
0, 1
0, 0
0, 0
1, 0
0, 0
0, 0
1, 0
0, 0
0, 0
0, 0
0, 0
0, 0
0, 0
0, 0
0, 0
0, 0
0, 0
0, 0
0, 1
0, 1
0, 0
0, 0
0, 0
0, 0
0, 0
0, 0
0, 0
0, 0
0, 0
0, 0
1, 0
0, 0
0, 0
0, 0
0, 0
0, 0
0, 0
0, 0
0, 0
0, 0
0, 0
0, 0
0, 0
0, 0
0, 0
0, 0
1, 0
0, 0
0, 0
0, 0
0, 0
0, 0
0, 0
0, 0
0, 0
0, 0
0, 0
0, 0
0, 0
0, 0
0, 0
0, 0
0, 0
0, 0
0, 0
0, 0
0, 0
0, 0
0, 0
0, 0
0, 0
0, 0
0, 0
0, 0
0, 0
0, 0
0, 0
0, 0
0, 0
0, 0
0, 0
0, 0
0, 0
0, 0
0, 0
0, 0
0, 0
0, 0
0, 0
0, 0
0, 0
0, 0
0, 0
0, 0
0, 0
0, 0
0, 0
0, 0
0, 0
0, 0
0, 0
0, 0
0, 0
0, 0
0, 0
0, 0
0, 0
0, 0
0, 0
0, 0
0, 0
0, 0
0, 0
0, 0
0, 0
0, 0
0, 0
0, 0
#ENDOFDATA     end of spectrum data