File: host_upload/12-01-2023/Dourbes (shot-by-shot)/upload_4/ps__0257_0689790785_000rfs_shot_3021.msa
#FORMAT      : EMSA/MAS spectral data file
#VERSION     : TC202v2.0 PIXL
#TITLE       : N/A
#DATE        :       Date in the format DD-MMM-YYYY, for example 07-JUL-2010
#TIME        :             The time of day at which the spectrum was recorded, in 24-hour format
#OWNER       : PIXL Flight Model       (PIXL will use this to indicate which instrument took the data.)
#NPOINTS     : 4096     Number of data points in the spectrum (This can be zero for configuration only files)
#NCOLUMNS    : 2     Number of data columns in the spectrum (This can be zero for configuration only files)
#XUNITS      : eV
#YUNITS      : COUNTS
#DATATYPE    : YY
#XPERCHAN    : 7.862, 7.881   eV per channel (separate by commas if more than one detector)
#OFFSET      : 18.5, -22.4         eV of first channel  (separate by commas if more than one detector
#SIGNALTYPE  : XRF
#YP_TEMP     : 3.198
#LIVETIME    : 9.05524, 9.0571   seconds (separate by commas if more than one detector)
#REALTIME    : 10, 10.0   seconds (separate by commas if more than one detector)
#SPECTRUM    : start of spectrum data
0, 0
0, 0
0, 0
0, 0
0, 0
0, 0
0, 0
0, 0
4, 3
0, 2
5, 2
28, 20
39, 24
5, 0
7, 6
108, 66
655, 513
93, 82
5, 2
2, 3
4, 10
36, 37
7, 5
25, 21
151, 136
88, 113
43, 44
23, 26
7, 14
6, 5
8, 8
3, 6
7, 9
54, 72
109, 114
19, 17
14, 15
16, 20
14, 4
7, 8
8, 8
15, 14
25, 19
15, 17
17, 12
21, 11
19, 7
7, 8
21, 13
20, 15
13, 16
17, 7
14, 13
64, 70
90, 76
37, 27
34, 23
513, 561
2900, 2696
1942, 1459
162, 79
28, 16
45, 36
138, 125
444, 439
260, 196
26, 19
7, 5
6, 11
6, 2
3, 3
5, 10
5, 5
3, 2
7, 5
11, 17
3, 9
3, 6
3, 4
5, 5
4, 3
6, 5
2, 5
7, 7
2, 6
8, 6
3, 9
4, 3
2, 5
6, 2
5, 5
5, 5
1, 2
4, 1
4, 4
5, 3
3, 3
6, 1
3, 2
2, 4
5, 3
2, 2
5, 2
2, 1
0, 0
2, 4
3, 4
2, 1
1, 2
2, 0
1, 2
1, 2
0, 2
4, 3
3, 3
5, 4
4, 6
5, 4
1, 1
2, 2
0, 2
1, 0
2, 0
1, 2
1, 0
2, 0
1, 2
2, 0
1, 1
2, 2
2, 0
0, 1
1, 1
0, 1
2, 0
3, 0
0, 0
2, 0
0, 0
0, 0
1, 1
1, 0
1, 1
0, 0
0, 2
2, 0
0, 1
1, 1
0, 0
0, 0
1, 0
1, 0
1, 0
0, 0
0, 1
0, 0
1, 0
1, 2
1, 0
0, 0
0, 0
1, 0
0, 0
0, 0
0, 0
0, 0
0, 0
0, 0
0, 1
1, 0
0, 0
1, 0
0, 0
0, 0
0, 0
0, 0
0, 0
1, 0
0, 0
0, 0
1, 0
1, 0
0, 0
0, 1
0, 1
0, 0
1, 0
0, 0
0, 0
1, 0
0, 0
0, 0
0, 0
0, 0
0, 0
0, 0
0, 0
0, 0
0, 0
0, 0
0, 0
0, 0
0, 0
0, 0
0, 0
0, 0
0, 0
0, 0
0, 0
0, 0
0, 0
0, 0
0, 0
0, 0
0, 0
0, 0
0, 0
0, 0
0, 0
0, 0
0, 0
0, 0
0, 0
0, 0
0, 0
0, 0
0, 0
0, 0
0, 0
0, 0
0, 0
0, 0
0, 0
0, 0
0, 0
0, 0
0, 0
0, 0
0, 0
0, 0
0, 0
0, 0
0, 0
0, 0
0, 0
0, 0
0, 0
0, 0
0, 0
0, 0
0, 0
0, 0
0, 0
0, 0
0, 0
0, 0
0, 0
0, 0
0, 0
0, 0
0, 0
0, 0
0, 0
0, 0
0, 0
0, 0
0, 0
0, 0
0, 0
0, 0
0, 0
0, 0
0, 0
0, 0
0, 0
0, 0
0, 0
0, 0
0, 0
0, 0
0, 0
0, 0
0, 0
0, 0
0, 0
0, 0
0, 0
0, 0
0, 0
0, 0
0, 0
0, 0
0, 0
0, 0
#ENDOFDATA     end of spectrum data