File: host_upload/12-01-2023/Dourbes (shot-by-shot)/upload_4/ps__0257_0689790785_000rfs_shot_3218.msa
#FORMAT      : EMSA/MAS spectral data file
#VERSION     : TC202v2.0 PIXL
#TITLE       : N/A
#DATE        :       Date in the format DD-MMM-YYYY, for example 07-JUL-2010
#TIME        :             The time of day at which the spectrum was recorded, in 24-hour format
#OWNER       : PIXL Flight Model       (PIXL will use this to indicate which instrument took the data.)
#NPOINTS     : 4096     Number of data points in the spectrum (This can be zero for configuration only files)
#NCOLUMNS    : 2     Number of data columns in the spectrum (This can be zero for configuration only files)
#XUNITS      : eV
#YUNITS      : COUNTS
#DATATYPE    : YY
#XPERCHAN    : 7.862, 7.881   eV per channel (separate by commas if more than one detector)
#OFFSET      : 18.5, -22.4         eV of first channel  (separate by commas if more than one detector
#SIGNALTYPE  : XRF
#YP_TEMP     : 3.39
#LIVETIME    : 9.01591, 9.03484   seconds (separate by commas if more than one detector)
#REALTIME    : 10, 10.0   seconds (separate by commas if more than one detector)
#SPECTRUM    : start of spectrum data
0, 0
0, 0
0, 0
0, 0
0, 0
0, 0
0, 0
1, 0
1, 1
2, 3
0, 2
35, 28
40, 26
2, 2
5, 6
79, 73
539, 470
101, 76
3, 4
4, 7
47, 13
150, 138
53, 45
10, 18
46, 51
43, 53
24, 22
14, 18
1, 4
2, 1
1, 5
3, 2
3, 3
24, 29
29, 70
7, 11
5, 7
8, 10
7, 4
6, 5
8, 6
7, 11
12, 15
14, 16
11, 9
11, 7
11, 10
5, 7
7, 10
9, 57
9, 94
14, 23
16, 13
71, 63
117, 107
42, 13
40, 42
589, 653
3446, 3187
2154, 1505
161, 106
26, 15
34, 27
159, 156
490, 483
282, 220
24, 13
3, 6
8, 7
10, 4
3, 4
3, 2
4, 4
7, 4
8, 6
10, 2
7, 5
6, 2
5, 7
4, 8
7, 10
7, 11
8, 1
6, 4
2, 6
2, 4
3, 4
1, 3
2, 8
2, 1
1, 2
2, 3
2, 0
3, 1
3, 4
1, 3
5, 6
2, 3
0, 6
4, 6
2, 5
5, 3
4, 0
4, 0
3, 2
4, 4
0, 1
2, 3
2, 4
0, 3
2, 3
1, 3
3, 3
3, 2
5, 1
3, 2
6, 9
5, 1
0, 2
2, 3
1, 1
1, 1
1, 4
0, 0
1, 0
0, 1
1, 0
1, 0
2, 2
1, 1
2, 1
2, 3
0, 0
1, 2
0, 4
1, 0
1, 1
1, 0
2, 0
0, 1
0, 0
0, 1
0, 0
1, 0
0, 1
2, 0
0, 0
0, 2
0, 0
0, 0
0, 0
0, 3
1, 0
0, 0
1, 0
0, 0
0, 0
2, 0
0, 0
0, 0
0, 0
0, 1
0, 0
0, 1
0, 0
0, 0
1, 0
0, 1
0, 0
0, 0
0, 0
0, 0
0, 0
0, 0
0, 0
0, 0
0, 0
0, 0
0, 2
0, 0
1, 0
0, 0
0, 0
0, 0
0, 0
0, 0
0, 0
0, 0
0, 0
0, 0
0, 0
0, 0
0, 0
0, 0
0, 0
0, 0
0, 0
0, 0
0, 0
0, 0
0, 0
0, 0
0, 0
0, 0
0, 0
0, 0
0, 0
0, 0
0, 0
0, 0
0, 0
0, 1
0, 0
0, 0
0, 0
0, 0
0, 0
0, 0
0, 0
0, 0
0, 0
0, 0
0, 0
0, 0
0, 0
0, 0
0, 0
0, 0
0, 0
0, 0
0, 0
0, 0
0, 0
0, 0
0, 0
0, 0
0, 0
0, 0
0, 0
0, 0
0, 0
0, 0
0, 0
0, 0
0, 0
0, 0
0, 0
0, 0
0, 0
0, 0
0, 0
0, 0
0, 0
0, 0
0, 0
0, 0
0, 0
0, 0
0, 0
0, 0
0, 0
0, 0
0, 0
0, 0
0, 0
0, 0
0, 0
0, 0
0, 0
0, 0
0, 0
0, 0
0, 0
0, 0
0, 0
0, 0
0, 0
0, 0
0, 0
0, 0
0, 0
0, 0
0, 0
0, 0
0, 0
0, 0
0, 0
0, 0
0, 0
0, 0
0, 0
0, 0
0, 0
0, 0
#ENDOFDATA     end of spectrum data