File: host_upload/12-01-2023/Dourbes (shot-by-shot)/upload_4/ps__0257_0689790785_000rfs_shot_3174.msa
#FORMAT      : EMSA/MAS spectral data file
#VERSION     : TC202v2.0 PIXL
#TITLE       : N/A
#DATE        :       Date in the format DD-MMM-YYYY, for example 07-JUL-2010
#TIME        :             The time of day at which the spectrum was recorded, in 24-hour format
#OWNER       : PIXL Flight Model       (PIXL will use this to indicate which instrument took the data.)
#NPOINTS     : 4096     Number of data points in the spectrum (This can be zero for configuration only files)
#NCOLUMNS    : 2     Number of data columns in the spectrum (This can be zero for configuration only files)
#XUNITS      : eV
#YUNITS      : COUNTS
#DATATYPE    : YY
#XPERCHAN    : 7.862, 7.881   eV per channel (separate by commas if more than one detector)
#OFFSET      : 18.5, -22.4         eV of first channel  (separate by commas if more than one detector
#SIGNALTYPE  : XRF
#YP_TEMP     : 3.037
#LIVETIME    : 9.02347, 9.07611   seconds (separate by commas if more than one detector)
#REALTIME    : 10, 10.0   seconds (separate by commas if more than one detector)
#SPECTRUM    : start of spectrum data
0, 0
0, 0
0, 0
0, 0
0, 0
0, 0
0, 0
0, 0
0, 0
2, 0
5, 2
25, 17
38, 29
6, 6
12, 6
98, 60
554, 514
89, 72
13, 7
1, 4
2, 2
8, 3
5, 3
8, 8
35, 34
36, 26
20, 20
11, 12
5, 7
5, 4
5, 7
4, 2
12, 10
152, 143
300, 241
37, 26
86, 62
79, 40
8, 9
3, 5
4, 5
19, 12
22, 21
22, 15
19, 6
18, 14
8, 4
5, 3
11, 13
22, 14
26, 12
9, 4
8, 8
56, 50
82, 68
26, 24
37, 20
590, 574
3312, 2688
1992, 1371
155, 80
17, 12
21, 19
125, 135
472, 395
281, 197
24, 18
7, 3
7, 7
1, 5
6, 1
6, 9
7, 8
8, 4
6, 8
4, 6
8, 4
6, 6
2, 4
2, 1
2, 0
3, 6
0, 2
0, 7
4, 4
2, 3
5, 2
7, 4
2, 3
5, 2
5, 7
3, 6
6, 3
9, 7
10, 7
5, 2
3, 2
4, 3
4, 5
2, 1
1, 2
6, 2
3, 1
4, 0
3, 2
4, 3
2, 1
1, 3
6, 0
2, 1
1, 2
1, 1
1, 4
3, 5
0, 2
6, 4
4, 4
5, 2
2, 0
2, 2
3, 0
1, 1
3, 1
1, 1
0, 1
1, 0
3, 0
0, 0
3, 1
5, 1
4, 5
3, 1
1, 0
1, 0
1, 1
1, 0
0, 0
0, 1
2, 1
0, 0
0, 1
0, 1
0, 0
0, 0
1, 0
0, 0
1, 0
0, 0
0, 0
1, 0
1, 1
0, 0
3, 1
0, 0
0, 0
0, 0
0, 0
2, 0
0, 0
1, 1
1, 1
1, 0
0, 0
0, 0
0, 1
0, 1
1, 1
0, 0
0, 1
0, 0
0, 0
1, 0
1, 0
1, 0
0, 1
0, 1
0, 0
0, 0
0, 0
0, 0
0, 0
0, 0
0, 0
3, 0
0, 0
1, 0
0, 0
0, 0
0, 0
0, 0
0, 0
0, 0
0, 0
0, 0
0, 0
0, 0
0, 0
0, 0
0, 0
0, 0
0, 0
0, 0
0, 0
0, 0
0, 0
0, 0
0, 0
0, 0
0, 0
0, 0
0, 0
0, 0
0, 0
0, 0
0, 0
0, 0
0, 0
0, 0
0, 0
0, 0
0, 0
0, 0
0, 0
0, 0
0, 0
0, 0
0, 0
0, 0
0, 0
0, 0
0, 0
0, 0
0, 0
0, 0
0, 0
0, 0
0, 0
0, 0
0, 0
0, 0
0, 0
0, 0
0, 0
0, 0
0, 0
0, 0
0, 0
0, 0
0, 0
0, 0
0, 0
0, 0
0, 0
0, 0
0, 0
0, 0
0, 0
0, 0
0, 0
0, 0
0, 0
0, 0
0, 0
0, 0
0, 0
0, 0
0, 0
0, 0
0, 0
0, 0
0, 0
0, 0
0, 0
0, 0
0, 0
0, 0
0, 0
0, 0
0, 0
0, 0
0, 0
0, 0
0, 0
0, 0
0, 0
0, 0
0, 0
0, 0
0, 0
0, 0
0, 0
0, 0
0, 0
0, 0
#ENDOFDATA     end of spectrum data