File: host_upload/12-01-2023/Dourbes (shot-by-shot)/upload_4/ps__0257_0689790785_000rfs_shot_3074.msa
#FORMAT      : EMSA/MAS spectral data file
#VERSION     : TC202v2.0 PIXL
#TITLE       : N/A
#DATE        :       Date in the format DD-MMM-YYYY, for example 07-JUL-2010
#TIME        :             The time of day at which the spectrum was recorded, in 24-hour format
#OWNER       : PIXL Flight Model       (PIXL will use this to indicate which instrument took the data.)
#NPOINTS     : 4096     Number of data points in the spectrum (This can be zero for configuration only files)
#NCOLUMNS    : 2     Number of data columns in the spectrum (This can be zero for configuration only files)
#XUNITS      : eV
#YUNITS      : COUNTS
#DATATYPE    : YY
#XPERCHAN    : 7.862, 7.881   eV per channel (separate by commas if more than one detector)
#OFFSET      : 18.5, -22.4         eV of first channel  (separate by commas if more than one detector
#SIGNALTYPE  : XRF
#YP_TEMP     : 3.23
#LIVETIME    : 9.05261, 9.05645   seconds (separate by commas if more than one detector)
#REALTIME    : 10, 10.0   seconds (separate by commas if more than one detector)
#SPECTRUM    : start of spectrum data
0, 0
0, 0
0, 0
0, 0
0, 0
0, 0
0, 0
0, 0
0, 1
3, 2
2, 4
25, 28
27, 31
5, 6
6, 9
103, 102
659, 697
125, 113
10, 6
1, 5
4, 4
9, 7
7, 3
6, 5
34, 33
34, 153
16, 93
8, 17
5, 9
5, 6
6, 19
8, 10
16, 19
319, 323
470, 480
49, 47
69, 61
75, 80
11, 7
4, 3
12, 11
30, 26
19, 21
6, 9
9, 7
15, 8
9, 12
12, 8
7, 14
25, 59
32, 97
8, 75
10, 21
35, 48
78, 64
62, 29
105, 30
543, 523
2417, 2466
1578, 1254
133, 136
10, 50
22, 21
96, 110
361, 380
219, 156
25, 16
4, 3
8, 7
10, 8
6, 12
6, 4
6, 0
4, 2
7, 6
11, 7
8, 6
3, 2
5, 5
4, 3
4, 5
1, 3
6, 4
5, 1
5, 2
2, 10
5, 15
2, 6
3, 3
2, 4
7, 5
6, 3
7, 5
2, 6
5, 7
6, 2
6, 2
0, 1
1, 1
2, 1
7, 5
1, 2
6, 1
3, 1
3, 3
5, 2
5, 1
3, 2
3, 2
1, 1
0, 9
0, 2
2, 5
1, 1
2, 1
2, 2
1, 3
2, 4
3, 1
3, 1
1, 1
2, 1
2, 2
0, 4
1, 2
2, 1
1, 0
2, 1
4, 3
0, 1
2, 1
0, 1
2, 2
1, 0
1, 0
1, 0
0, 0
1, 2
0, 1
1, 1
0, 0
0, 0
3, 1
0, 0
0, 0
1, 0
0, 0
0, 0
0, 1
0, 1
1, 0
0, 1
0, 1
0, 3
0, 0
2, 0
1, 0
0, 0
0, 0
0, 0
0, 1
1, 1
0, 0
1, 0
0, 0
0, 0
1, 0
0, 0
0, 0
0, 0
0, 0
1, 0
0, 0
0, 0
0, 0
0, 0
0, 0
0, 0
0, 0
0, 0
0, 0
1, 0
0, 0
0, 0
0, 0
0, 0
0, 0
1, 0
0, 0
0, 0
0, 0
0, 0
1, 0
0, 0
0, 0
0, 0
1, 0
0, 1
0, 0
0, 0
0, 0
0, 0
0, 0
0, 0
0, 0
0, 0
0, 0
0, 0
0, 0
0, 0
0, 0
0, 0
0, 0
0, 0
0, 0
0, 0
0, 0
0, 0
0, 0
0, 0
0, 0
0, 0
0, 0
0, 0
0, 0
0, 0
0, 0
0, 0
0, 0
0, 0
0, 0
0, 0
0, 0
0, 0
0, 0
0, 0
0, 0
0, 0
0, 0
0, 0
0, 0
0, 0
0, 0
0, 0
0, 0
0, 0
0, 0
0, 0
0, 0
0, 0
0, 0
0, 0
0, 0
0, 0
0, 0
0, 0
0, 0
0, 0
0, 0
0, 0
0, 0
0, 0
0, 0
0, 0
0, 0
0, 0
0, 0
0, 0
0, 0
0, 0
0, 0
0, 0
0, 0
0, 0
0, 0
0, 0
0, 0
0, 0
0, 0
0, 0
0, 0
0, 0
0, 0
0, 0
0, 0
0, 0
0, 0
0, 0
0, 0
0, 0
0, 0
0, 0
0, 0
0, 0
#ENDOFDATA     end of spectrum data