File: host_upload/12-01-2023/Dourbes (shot-by-shot)/upload_4/ps__0257_0689790785_000rfs_shot_3296.msa
#FORMAT      : EMSA/MAS spectral data file
#VERSION     : TC202v2.0 PIXL
#TITLE       : N/A
#DATE        :       Date in the format DD-MMM-YYYY, for example 07-JUL-2010
#TIME        :             The time of day at which the spectrum was recorded, in 24-hour format
#OWNER       : PIXL Flight Model       (PIXL will use this to indicate which instrument took the data.)
#NPOINTS     : 4096     Number of data points in the spectrum (This can be zero for configuration only files)
#NCOLUMNS    : 2     Number of data columns in the spectrum (This can be zero for configuration only files)
#XUNITS      : eV
#YUNITS      : COUNTS
#DATATYPE    : YY
#XPERCHAN    : 7.862, 7.881   eV per channel (separate by commas if more than one detector)
#OFFSET      : 18.5, -22.4         eV of first channel  (separate by commas if more than one detector
#SIGNALTYPE  : XRF
#YP_TEMP     : 3.037
#LIVETIME    : 8.99617, 8.99648   seconds (separate by commas if more than one detector)
#REALTIME    : 10, 10.0   seconds (separate by commas if more than one detector)
#SPECTRUM    : start of spectrum data
0, 0
0, 0
0, 0
0, 0
0, 0
0, 0
0, 0
0, 0
0, 1
2, 1
0, 1
30, 25
34, 24
2, 2
2, 1
87, 70
483, 457
76, 73
5, 12
5, 3
2, 3
2, 8
2, 0
8, 5
20, 15
19, 19
14, 13
10, 13
2, 1
5, 1
2, 2
4, 0
0, 3
22, 10
32, 25
12, 33
39, 71
21, 14
8, 8
9, 5
4, 5
3, 14
18, 19
15, 20
25, 6
11, 13
8, 5
7, 6
13, 8
14, 8
13, 13
24, 10
16, 9
69, 55
93, 100
25, 16
32, 45
689, 801
3684, 3802
2240, 1976
185, 127
19, 12
13, 34
174, 186
505, 588
310, 250
27, 21
3, 9
2, 9
3, 3
7, 2
5, 20
7, 16
3, 2
6, 4
7, 8
7, 3
1, 3
3, 4
7, 5
3, 1
0, 11
2, 5
3, 6
0, 6
4, 0
8, 3
8, 5
4, 2
2, 2
3, 5
3, 3
4, 0
8, 1
15, 3
6, 1
4, 1
5, 2
2, 4
3, 6
1, 2
4, 2
2, 4
1, 3
1, 2
5, 0
2, 1
2, 0
3, 2
2, 2
3, 3
3, 0
1, 1
0, 2
2, 1
4, 1
8, 9
9, 6
2, 7
3, 0
2, 3
1, 5
1, 2
3, 6
1, 1
2, 2
0, 1
2, 0
2, 0
3, 3
1, 1
2, 1
0, 0
0, 2
2, 1
0, 2
0, 0
1, 0
2, 0
1, 3
0, 1
0, 1
0, 0
0, 0
1, 0
0, 0
0, 0
0, 1
1, 1
1, 0
0, 1
0, 1
0, 0
0, 0
0, 0
0, 0
1, 0
0, 0
1, 0
0, 0
0, 0
0, 1
0, 0
1, 1
0, 1
0, 0
0, 0
0, 0
0, 0
0, 0
0, 0
0, 1
0, 0
0, 0
0, 0
0, 0
1, 1
0, 0
0, 0
0, 0
0, 0
0, 1
1, 0
0, 0
0, 0
0, 0
0, 0
0, 0
0, 0
0, 0
0, 0
0, 0
0, 0
0, 0
0, 0
0, 0
0, 0
0, 0
0, 0
0, 0
0, 0
0, 0
0, 0
0, 1
1, 0
0, 0
0, 0
0, 0
0, 0
0, 0
0, 0
0, 0
0, 0
0, 0
0, 0
0, 0
0, 0
0, 0
0, 0
0, 0
0, 0
0, 0
0, 0
0, 0
0, 0
0, 0
0, 0
0, 0
0, 0
0, 0
0, 0
0, 0
0, 0
0, 0
0, 0
0, 0
0, 0
0, 0
0, 0
0, 0
0, 0
0, 0
0, 0
0, 0
0, 0
0, 0
0, 0
0, 0
0, 0
0, 0
0, 0
0, 0
0, 0
0, 0
0, 0
0, 0
0, 0
0, 0
0, 0
0, 0
0, 0
0, 0
0, 0
0, 0
0, 0
0, 0
0, 0
0, 0
0, 0
0, 0
0, 0
0, 0
0, 0
0, 0
0, 0
0, 0
0, 0
0, 0
0, 0
0, 0
0, 0
0, 0
0, 0
0, 0
0, 0
0, 0
0, 0
0, 0
0, 0
0, 0
0, 0
0, 0
0, 0
0, 0
#ENDOFDATA     end of spectrum data