File: host_upload/12-01-2023/Dourbes (shot-by-shot)/upload_4/ps__0257_0689790785_000rfs_shot_3178.msa
#FORMAT      : EMSA/MAS spectral data file
#VERSION     : TC202v2.0 PIXL
#TITLE       : N/A
#DATE        :       Date in the format DD-MMM-YYYY, for example 07-JUL-2010
#TIME        :             The time of day at which the spectrum was recorded, in 24-hour format
#OWNER       : PIXL Flight Model       (PIXL will use this to indicate which instrument took the data.)
#NPOINTS     : 4096     Number of data points in the spectrum (This can be zero for configuration only files)
#NCOLUMNS    : 2     Number of data columns in the spectrum (This can be zero for configuration only files)
#XUNITS      : eV
#YUNITS      : COUNTS
#DATATYPE    : YY
#XPERCHAN    : 7.862, 7.881   eV per channel (separate by commas if more than one detector)
#OFFSET      : 18.5, -22.4         eV of first channel  (separate by commas if more than one detector
#SIGNALTYPE  : XRF
#YP_TEMP     : 3.23
#LIVETIME    : 9.20456, 9.20742   seconds (separate by commas if more than one detector)
#REALTIME    : 10, 10.0   seconds (separate by commas if more than one detector)
#SPECTRUM    : start of spectrum data
0, 0
0, 0
0, 0
0, 0
0, 0
0, 0
0, 0
0, 0
1, 0
4, 3
4, 1
15, 12
13, 13
40, 50
64, 123
138, 144
820, 929
123, 114
0, 3
2, 0
2, 0
6, 3
4, 3
13, 6
28, 42
40, 20
18, 17
11, 18
2, 16
7, 17
94, 96
46, 42
8, 13
40, 57
59, 57
9, 5
7, 15
8, 11
3, 4
9, 3
6, 4
13, 15
12, 14
10, 13
1, 9
9, 13
8, 8
8, 9
4, 7
10, 9
13, 17
4, 5
12, 8
29, 20
31, 20
14, 8
24, 18
209, 240
1094, 1145
613, 574
59, 47
13, 26
17, 25
54, 55
196, 215
111, 84
12, 18
12, 10
18, 8
5, 5
12, 8
9, 5
13, 9
11, 11
16, 9
13, 8
14, 9
9, 7
10, 7
12, 11
11, 4
5, 13
4, 6
11, 2
6, 9
6, 2
2, 0
4, 1
4, 7
12, 4
9, 5
4, 3
5, 6
6, 3
3, 9
7, 5
3, 5
6, 3
1, 6
10, 7
2, 3
2, 3
7, 6
4, 6
5, 0
5, 4
2, 5
2, 1
4, 2
2, 2
3, 5
3, 4
4, 4
2, 3
5, 2
3, 0
4, 3
2, 1
1, 2
2, 1
4, 1
2, 3
1, 2
3, 2
0, 2
1, 4
4, 0
3, 1
0, 1
5, 1
2, 1
1, 2
3, 0
1, 1
0, 2
0, 1
1, 1
0, 3
0, 0
0, 1
0, 0
1, 3
0, 3
0, 2
2, 1
1, 1
3, 0
0, 0
1, 0
0, 0
1, 0
4, 2
0, 1
0, 0
0, 0
0, 0
0, 1
0, 0
0, 1
0, 0
1, 0
0, 0
1, 0
0, 0
0, 0
0, 2
0, 0
0, 0
0, 0
0, 1
1, 1
0, 0
0, 0
0, 0
0, 0
0, 0
2, 0
0, 0
0, 0
0, 0
0, 0
0, 0
0, 0
0, 0
0, 0
0, 0
0, 0
0, 0
0, 0
0, 0
0, 0
0, 0
0, 1
0, 0
0, 0
0, 0
0, 0
0, 0
0, 1
0, 0
0, 0
0, 0
0, 0
1, 0
0, 0
0, 0
0, 0
0, 0
0, 0
0, 0
0, 0
0, 0
0, 0
0, 0
0, 0
0, 0
0, 0
0, 0
0, 0
0, 0
0, 0
0, 0
0, 0
0, 0
0, 0
0, 0
0, 0
0, 0
0, 0
0, 0
0, 0
0, 0
0, 0
0, 0
0, 0
0, 0
0, 0
0, 0
0, 0
0, 0
0, 0
0, 0
0, 0
0, 0
0, 0
0, 0
0, 0
0, 0
0, 0
0, 0
0, 0
0, 0
0, 0
0, 0
0, 0
0, 0
0, 0
0, 0
0, 0
0, 0
0, 0
0, 0
0, 0
0, 0
0, 0
0, 0
0, 0
0, 0
0, 0
0, 0
0, 0
0, 0
0, 0
0, 0
0, 0
0, 0
0, 0
0, 0
0, 0
0, 0
0, 0
0, 0
0, 0
0, 0
0, 0
0, 0
0, 0
0, 0
0, 0
0, 0
0, 0
0, 0
0, 0
0, 0
#ENDOFDATA     end of spectrum data