File: host_upload/12-01-2023/Dourbes (shot-by-shot)/upload_4/ps__0257_0689790785_000rfs_shot_3257.msa
#FORMAT      : EMSA/MAS spectral data file
#VERSION     : TC202v2.0 PIXL
#TITLE       : N/A
#DATE        :       Date in the format DD-MMM-YYYY, for example 07-JUL-2010
#TIME        :             The time of day at which the spectrum was recorded, in 24-hour format
#OWNER       : PIXL Flight Model       (PIXL will use this to indicate which instrument took the data.)
#NPOINTS     : 4096     Number of data points in the spectrum (This can be zero for configuration only files)
#NCOLUMNS    : 2     Number of data columns in the spectrum (This can be zero for configuration only files)
#XUNITS      : eV
#YUNITS      : COUNTS
#DATATYPE    : YY
#XPERCHAN    : 7.862, 7.881   eV per channel (separate by commas if more than one detector)
#OFFSET      : 18.5, -22.4         eV of first channel  (separate by commas if more than one detector
#SIGNALTYPE  : XRF
#YP_TEMP     : 3.005
#LIVETIME    : 8.81282, 8.9501   seconds (separate by commas if more than one detector)
#REALTIME    : 10, 10.0   seconds (separate by commas if more than one detector)
#SPECTRUM    : start of spectrum data
0, 0
0, 0
0, 0
0, 0
0, 0
0, 0
0, 0
0, 0
19, 2
84, 2
11, 3
24, 24
40, 30
6, 6
5, 7
69, 65
410, 404
68, 60
6, 4
9, 1
28, 23
178, 180
55, 53
99, 26
2895, 132
4469, 95
318, 30
24, 16
11, 5
0, 3
11, 3
4, 2
6, 5
22, 41
39, 37
4, 5
9, 9
9, 3
8, 11
4, 7
9, 5
9, 37
29, 98
11, 51
8, 15
8, 9
6, 10
10, 11
13, 10
33, 15
12, 7
11, 8
7, 15
49, 65
107, 104
22, 41
40, 42
660, 807
3518, 3711
2096, 1871
145, 97
60, 12
74, 20
135, 171
520, 568
287, 233
26, 27
9, 4
9, 4
6, 7
8, 3
5, 14
5, 10
4, 2
5, 6
2, 2
6, 2
2, 3
6, 3
7, 8
4, 3
9, 6
16, 4
14, 5
8, 11
7, 13
7, 5
5, 4
10, 4
5, 3
3, 4
1, 2
3, 1
1, 1
3, 2
1, 3
2, 3
10, 2
9, 0
10, 1
4, 2
2, 1
2, 1
2, 4
0, 1
1, 0
3, 4
1, 3
1, 0
2, 2
1, 3
0, 0
4, 2
0, 2
0, 0
2, 3
4, 3
6, 5
0, 1
3, 0
2, 2
2, 1
1, 4
2, 2
0, 2
0, 0
0, 1
0, 1
0, 1
0, 1
0, 1
0, 0
1, 0
0, 1
0, 1
2, 0
0, 1
3, 1
0, 0
0, 0
0, 1
0, 3
1, 0
1, 0
1, 0
0, 1
0, 0
0, 0
0, 1
0, 0
0, 0
0, 0
0, 0
0, 0
0, 0
1, 0
0, 1
1, 0
1, 0
0, 1
0, 0
0, 0
0, 0
0, 0
0, 0
0, 0
0, 0
0, 0
0, 1
1, 0
0, 1
1, 0
0, 0
0, 0
0, 0
0, 0
1, 0
0, 0
0, 0
0, 0
0, 0
0, 0
0, 2
0, 1
0, 0
0, 0
0, 0
0, 1
1, 0
0, 0
0, 0
0, 1
0, 0
0, 0
0, 0
0, 0
0, 0
0, 0
0, 0
0, 0
0, 0
0, 0
0, 0
0, 0
0, 0
0, 0
0, 0
0, 0
0, 0
0, 1
0, 0
0, 0
0, 0
0, 0
0, 1
0, 0
0, 0
0, 0
0, 0
0, 0
0, 0
0, 0
0, 0
0, 0
0, 0
0, 0
0, 0
0, 0
0, 0
0, 0
0, 0
0, 0
0, 0
0, 0
0, 0
0, 0
0, 0
0, 0
0, 0
0, 0
0, 0
0, 0
0, 0
0, 0
0, 0
0, 0
0, 0
0, 0
0, 0
0, 0
0, 0
0, 0
0, 0
0, 0
0, 0
0, 0
0, 0
0, 0
0, 0
0, 0
0, 0
0, 0
0, 0
0, 0
0, 0
0, 0
0, 0
0, 0
0, 0
0, 0
0, 0
0, 0
0, 0
0, 0
0, 0
0, 0
0, 0
0, 0
0, 0
0, 0
0, 0
0, 0
0, 0
0, 0
0, 0
0, 0
0, 0
0, 0
0, 0
0, 0
0, 0
0, 0
0, 0
0, 0
#ENDOFDATA     end of spectrum data