File: host_upload/12-01-2023/Dourbes (shot-by-shot)/upload_4/ps__0257_0689790785_000rfs_shot_3313.msa
#FORMAT      : EMSA/MAS spectral data file
#VERSION     : TC202v2.0 PIXL
#TITLE       : N/A
#DATE        :       Date in the format DD-MMM-YYYY, for example 07-JUL-2010
#TIME        :             The time of day at which the spectrum was recorded, in 24-hour format
#OWNER       : PIXL Flight Model       (PIXL will use this to indicate which instrument took the data.)
#NPOINTS     : 4096     Number of data points in the spectrum (This can be zero for configuration only files)
#NCOLUMNS    : 2     Number of data columns in the spectrum (This can be zero for configuration only files)
#XUNITS      : eV
#YUNITS      : COUNTS
#DATATYPE    : YY
#XPERCHAN    : 7.862, 7.881   eV per channel (separate by commas if more than one detector)
#OFFSET      : 18.5, -22.4         eV of first channel  (separate by commas if more than one detector
#SIGNALTYPE  : XRF
#YP_TEMP     : 3.198
#LIVETIME    : 9.13409, 9.13922   seconds (separate by commas if more than one detector)
#REALTIME    : 10, 10.0   seconds (separate by commas if more than one detector)
#SPECTRUM    : start of spectrum data
0, 0
0, 0
0, 0
0, 0
0, 0
0, 0
0, 0
0, 0
2, 3
5, 1
2, 2
22, 25
30, 27
4, 7
11, 4
125, 144
877, 863
150, 136
16, 13
3, 2
4, 4
12, 6
3, 5
23, 10
355, 53
330, 37
35, 25
15, 17
2, 5
4, 5
3, 9
4, 6
22, 15
507, 588
832, 806
67, 76
100, 117
132, 113
17, 15
1, 1
11, 14
45, 32
14, 20
6, 12
7, 4
9, 10
3, 12
3, 4
11, 10
55, 45
20, 28
9, 8
5, 7
31, 38
52, 66
29, 13
15, 16
238, 234
1183, 1255
732, 593
92, 39
16, 9
6, 9
55, 56
172, 178
101, 74
18, 8
18, 4
30, 7
17, 8
7, 2
2, 5
10, 4
8, 10
5, 6
7, 7
8, 8
4, 13
5, 6
8, 4
7, 2
4, 5
5, 3
5, 4
5, 2
5, 8
3, 9
4, 8
8, 29
3, 22
5, 7
6, 6
5, 4
6, 3
3, 3
4, 3
3, 1
4, 3
3, 3
5, 2
5, 2
5, 2
5, 5
1, 2
3, 5
0, 3
4, 2
3, 1
4, 3
2, 2
8, 3
5, 5
0, 5
2, 1
1, 3
3, 1
1, 3
0, 3
0, 1
0, 4
2, 0
1, 3
3, 1
1, 3
0, 1
1, 0
1, 1
2, 2
1, 0
1, 0
2, 2
0, 0
0, 1
0, 1
1, 0
1, 0
2, 0
1, 1
0, 0
1, 0
3, 1
0, 2
0, 1
0, 1
0, 0
0, 0
0, 0
0, 2
0, 1
0, 1
0, 2
0, 0
0, 2
0, 0
0, 0
0, 1
0, 0
0, 1
2, 0
0, 0
0, 0
1, 0
0, 1
0, 0
0, 0
0, 0
0, 0
0, 0
0, 0
1, 1
0, 3
0, 0
0, 1
0, 0
0, 0
0, 0
1, 0
0, 0
0, 0
0, 0
0, 0
0, 0
0, 0
0, 0
0, 0
0, 0
0, 0
0, 0
0, 0
0, 0
0, 0
0, 0
0, 0
0, 0
0, 0
0, 2
0, 0
0, 0
0, 0
0, 0
0, 0
0, 0
0, 0
0, 0
0, 0
0, 0
0, 0
0, 0
0, 0
0, 0
0, 0
0, 0
0, 0
0, 0
0, 0
0, 0
0, 0
0, 0
0, 0
0, 0
0, 0
0, 0
0, 0
0, 0
0, 0
0, 0
0, 0
0, 0
0, 0
0, 0
0, 0
0, 0
0, 0
0, 0
0, 0
0, 0
0, 0
0, 0
0, 0
0, 0
0, 0
0, 0
0, 0
0, 0
0, 0
0, 0
0, 0
0, 0
0, 0
0, 0
0, 0
0, 0
0, 0
0, 0
0, 0
0, 0
0, 0
0, 0
0, 0
0, 0
0, 0
0, 0
0, 0
0, 0
0, 0
0, 0
0, 0
0, 0
0, 0
0, 0
0, 0
0, 0
0, 0
0, 0
0, 0
0, 0
0, 0
0, 0
0, 0
0, 0
0, 0
0, 0
0, 0
0, 0
0, 0
0, 0
0, 0
0, 0
0, 0
0, 0
0, 0
0, 0
0, 0
0, 0
#ENDOFDATA     end of spectrum data