File: host_upload/12-01-2023/Dourbes (shot-by-shot)/upload_4/ps__0257_0689790785_000rfs_shot_3176.msa
#FORMAT      : EMSA/MAS spectral data file
#VERSION     : TC202v2.0 PIXL
#TITLE       : N/A
#DATE        :       Date in the format DD-MMM-YYYY, for example 07-JUL-2010
#TIME        :             The time of day at which the spectrum was recorded, in 24-hour format
#OWNER       : PIXL Flight Model       (PIXL will use this to indicate which instrument took the data.)
#NPOINTS     : 4096     Number of data points in the spectrum (This can be zero for configuration only files)
#NCOLUMNS    : 2     Number of data columns in the spectrum (This can be zero for configuration only files)
#XUNITS      : eV
#YUNITS      : COUNTS
#DATATYPE    : YY
#XPERCHAN    : 7.862, 7.881   eV per channel (separate by commas if more than one detector)
#OFFSET      : 18.5, -22.4         eV of first channel  (separate by commas if more than one detector
#SIGNALTYPE  : XRF
#YP_TEMP     : 3.005
#LIVETIME    : 9.00716, 9.00119   seconds (separate by commas if more than one detector)
#REALTIME    : 10, 10.0   seconds (separate by commas if more than one detector)
#SPECTRUM    : start of spectrum data
0, 0
0, 0
0, 0
0, 0
0, 0
0, 0
0, 0
0, 0
1, 0
3, 2
4, 1
35, 29
28, 38
2, 0
6, 6
69, 88
503, 490
101, 84
7, 2
0, 1
0, 3
9, 5
7, 6
4, 5
45, 32
42, 25
17, 29
14, 14
7, 4
5, 1
6, 1
2, 1
2, 6
33, 32
39, 40
20, 17
34, 44
25, 10
5, 5
2, 3
4, 5
10, 17
14, 16
16, 10
14, 8
11, 15
6, 14
8, 10
10, 16
9, 14
12, 11
19, 10
17, 13
54, 71
103, 88
32, 24
61, 41
644, 843
3510, 3798
2170, 1843
147, 122
16, 14
15, 30
166, 170
477, 587
300, 256
21, 26
3, 8
3, 9
5, 5
6, 7
3, 7
7, 10
8, 7
3, 0
4, 2
5, 9
4, 4
1, 9
3, 3
2, 5
1, 5
5, 2
2, 4
5, 3
0, 3
3, 3
10, 2
2, 2
3, 2
6, 6
3, 2
3, 3
6, 5
8, 4
8, 3
2, 0
3, 2
2, 3
3, 8
3, 2
1, 1
3, 1
2, 3
2, 0
1, 3
3, 1
0, 1
5, 0
3, 1
2, 0
4, 2
1, 5
0, 4
4, 3
1, 4
6, 6
3, 4
4, 2
0, 1
0, 1
1, 1
0, 3
0, 1
1, 2
2, 0
1, 0
0, 0
1, 1
2, 0
6, 1
2, 0
2, 1
0, 0
1, 0
0, 1
0, 1
2, 0
0, 0
0, 0
0, 0
0, 1
1, 0
0, 0
0, 0
0, 0
0, 0
0, 0
0, 0
0, 0
0, 0
0, 0
0, 1
1, 0
0, 0
0, 0
0, 0
1, 1
0, 0
1, 0
1, 1
1, 0
0, 0
0, 0
0, 0
0, 0
1, 0
0, 0
0, 0
1, 0
0, 0
0, 0
0, 0
0, 0
0, 0
0, 0
0, 0
0, 0
0, 0
0, 0
0, 0
0, 0
1, 1
0, 0
0, 0
0, 0
0, 0
0, 0
0, 0
0, 0
1, 0
0, 0
0, 0
0, 0
0, 0
0, 0
0, 0
0, 0
0, 0
0, 0
0, 0
0, 0
0, 0
0, 0
0, 0
0, 0
0, 0
0, 1
1, 0
0, 0
0, 1
0, 0
0, 0
0, 0
0, 0
0, 0
0, 0
0, 0
0, 0
0, 0
0, 0
0, 0
0, 0
0, 0
0, 0
0, 0
0, 0
0, 0
0, 0
0, 0
0, 0
0, 0
0, 0
0, 0
0, 0
0, 0
0, 0
0, 0
0, 0
0, 0
0, 0
0, 0
0, 0
0, 0
0, 0
0, 0
0, 0
0, 0
0, 0
0, 0
0, 0
0, 0
0, 0
0, 0
0, 0
0, 0
0, 0
0, 0
0, 0
0, 0
0, 0
0, 0
0, 0
0, 0
0, 0
0, 0
0, 0
0, 0
0, 0
0, 0
0, 0
0, 0
0, 0
0, 0
0, 0
0, 0
0, 0
0, 0
0, 0
0, 0
0, 0
0, 0
0, 0
0, 0
0, 0
0, 0
0, 0
0, 0
0, 0
0, 0
0, 0
0, 0
0, 0
0, 0
#ENDOFDATA     end of spectrum data