File: host_upload/12-01-2023/Dourbes (shot-by-shot)/upload_4/ps__0257_0689790785_000rfs_shot_3210.msa
#FORMAT      : EMSA/MAS spectral data file
#VERSION     : TC202v2.0 PIXL
#TITLE       : N/A
#DATE        :       Date in the format DD-MMM-YYYY, for example 07-JUL-2010
#TIME        :             The time of day at which the spectrum was recorded, in 24-hour format
#OWNER       : PIXL Flight Model       (PIXL will use this to indicate which instrument took the data.)
#NPOINTS     : 4096     Number of data points in the spectrum (This can be zero for configuration only files)
#NCOLUMNS    : 2     Number of data columns in the spectrum (This can be zero for configuration only files)
#XUNITS      : eV
#YUNITS      : COUNTS
#DATATYPE    : YY
#XPERCHAN    : 7.862, 7.881   eV per channel (separate by commas if more than one detector)
#OFFSET      : 18.5, -22.4         eV of first channel  (separate by commas if more than one detector
#SIGNALTYPE  : XRF
#YP_TEMP     : 3.133
#LIVETIME    : 8.98881, 8.9978   seconds (separate by commas if more than one detector)
#REALTIME    : 10, 10.0   seconds (separate by commas if more than one detector)
#SPECTRUM    : start of spectrum data
0, 0
0, 0
0, 0
0, 0
0, 0
0, 0
0, 0
0, 0
3, 3
8, 7
7, 1
25, 22
35, 41
2, 1
2, 1
22, 21
153, 158
26, 26
13, 7
1, 4
6, 10
37, 43
17, 11
28, 20
295, 140
364, 123
51, 55
32, 24
12, 9
4, 5
7, 5
7, 0
5, 6
96, 109
150, 140
17, 22
16, 23
17, 29
5, 10
11, 4
8, 10
15, 23
20, 47
17, 34
17, 10
14, 22
17, 10
13, 16
14, 17
20, 6
15, 18
7, 8
26, 18
70, 77
102, 110
26, 42
52, 42
622, 817
3571, 3697
2155, 1836
159, 124
49, 21
58, 47
162, 159
484, 546
323, 268
20, 17
3, 4
9, 4
4, 2
3, 6
4, 5
8, 9
5, 4
6, 9
4, 5
5, 1
4, 5
3, 5
4, 5
3, 2
1, 2
4, 4
6, 7
6, 9
4, 6
4, 0
1, 5
9, 4
3, 6
3, 4
4, 2
4, 4
4, 6
3, 6
0, 1
1, 8
10, 5
4, 3
5, 3
4, 4
1, 4
3, 3
2, 3
2, 5
3, 2
1, 1
2, 1
2, 1
0, 0
0, 3
6, 1
0, 3
0, 3
2, 1
0, 11
10, 10
7, 7
3, 1
0, 0
0, 0
6, 2
3, 4
2, 2
0, 2
1, 0
0, 0
2, 1
0, 0
0, 0
0, 0
1, 0
3, 1
1, 0
0, 1
3, 0
2, 1
0, 1
1, 1
1, 0
2, 0
1, 0
1, 0
0, 0
0, 0
0, 0
0, 0
1, 1
0, 1
1, 0
0, 0
0, 0
0, 0
0, 0
0, 1
0, 1
0, 0
1, 0
0, 0
1, 0
0, 1
0, 0
1, 1
1, 0
0, 0
0, 1
1, 0
0, 0
0, 1
0, 2
0, 0
0, 0
0, 0
0, 0
0, 0
0, 0
0, 0
0, 0
0, 0
2, 0
0, 0
0, 0
0, 1
0, 1
0, 1
0, 0
0, 0
0, 0
0, 0
0, 0
0, 0
0, 0
0, 0
0, 0
0, 0
0, 0
0, 0
0, 1
0, 0
0, 0
0, 0
0, 0
0, 0
0, 0
0, 0
0, 0
0, 0
0, 0
0, 0
0, 0
0, 0
0, 0
0, 0
0, 0
0, 0
0, 0
0, 0
0, 0
0, 0
0, 0
0, 0
0, 0
0, 0
0, 0
0, 0
0, 0
0, 0
0, 0
0, 0
0, 0
0, 0
0, 0
0, 0
0, 0
0, 0
0, 0
0, 0
0, 0
0, 0
0, 0
0, 0
0, 0
0, 0
0, 0
0, 0
0, 0
0, 0
0, 0
0, 0
0, 0
0, 0
0, 0
0, 0
0, 0
0, 0
0, 0
0, 0
0, 0
0, 0
0, 0
0, 0
0, 0
0, 0
0, 0
0, 0
0, 0
0, 0
0, 0
0, 0
0, 0
0, 0
0, 0
0, 0
0, 0
0, 0
0, 0
0, 0
0, 0
0, 0
0, 0
0, 0
0, 0
0, 0
0, 0
0, 0
0, 0
0, 0
0, 0
0, 0
0, 0
0, 0
0, 0
0, 0
0, 0
#ENDOFDATA     end of spectrum data