File: host_upload/12-01-2023/Dourbes (shot-by-shot)/upload_4/ps__0257_0689790785_000rfs_shot_3147.msa
#FORMAT      : EMSA/MAS spectral data file
#VERSION     : TC202v2.0 PIXL
#TITLE       : N/A
#DATE        :       Date in the format DD-MMM-YYYY, for example 07-JUL-2010
#TIME        :             The time of day at which the spectrum was recorded, in 24-hour format
#OWNER       : PIXL Flight Model       (PIXL will use this to indicate which instrument took the data.)
#NPOINTS     : 4096     Number of data points in the spectrum (This can be zero for configuration only files)
#NCOLUMNS    : 2     Number of data columns in the spectrum (This can be zero for configuration only files)
#XUNITS      : eV
#YUNITS      : COUNTS
#DATATYPE    : YY
#XPERCHAN    : 7.862, 7.881   eV per channel (separate by commas if more than one detector)
#OFFSET      : 18.5, -22.4         eV of first channel  (separate by commas if more than one detector
#SIGNALTYPE  : XRF
#YP_TEMP     : 3.037
#LIVETIME    : 9.14121, 9.14539   seconds (separate by commas if more than one detector)
#REALTIME    : 10, 10.0   seconds (separate by commas if more than one detector)
#SPECTRUM    : start of spectrum data
0, 0
0, 0
0, 0
0, 0
0, 0
0, 0
0, 0
1, 0
1, 0
0, 3
2, 3
19, 18
23, 27
9, 4
10, 7
167, 133
833, 885
138, 124
16, 20
2, 2
3, 3
5, 4
6, 5
5, 7
38, 29
25, 24
17, 27
10, 14
3, 1
4, 6
4, 3
4, 4
19, 24
589, 641
1066, 992
115, 73
104, 109
142, 141
23, 10
5, 3
4, 11
34, 38
14, 12
8, 1
4, 10
11, 7
4, 6
4, 4
11, 10
33, 43
38, 28
6, 6
6, 13
33, 40
42, 57
20, 13
11, 16
200, 238
1186, 1171
721, 583
76, 48
18, 5
13, 13
45, 58
174, 199
109, 97
18, 3
15, 5
22, 8
10, 6
4, 3
1, 7
4, 5
7, 8
13, 2
12, 7
11, 5
9, 9
4, 7
0, 5
11, 3
2, 1
6, 6
5, 3
9, 8
2, 6
2, 2
4, 6
4, 18
1, 15
8, 11
7, 4
7, 6
7, 5
4, 1
4, 1
1, 5
3, 2
4, 4
4, 3
5, 1
5, 3
2, 4
1, 3
1, 4
5, 4
2, 1
0, 7
2, 0
5, 2
5, 4
5, 1
2, 3
2, 3
0, 1
2, 2
1, 3
4, 2
2, 7
0, 2
1, 2
1, 3
2, 2
4, 1
4, 1
1, 3
2, 1
1, 2
1, 1
1, 2
0, 1
1, 1
1, 1
2, 1
2, 2
0, 1
1, 0
1, 3
0, 1
1, 0
0, 0
3, 0
0, 2
0, 2
2, 1
0, 1
0, 0
0, 0
0, 0
1, 1
1, 0
0, 0
2, 1
1, 1
0, 0
0, 2
0, 0
0, 1
0, 0
0, 0
0, 0
1, 0
0, 0
0, 1
1, 0
0, 1
0, 0
0, 2
0, 3
0, 0
1, 2
1, 0
0, 0
0, 0
0, 0
0, 0
1, 0
0, 0
0, 0
0, 0
0, 0
1, 0
1, 0
0, 1
0, 0
0, 0
0, 0
0, 0
0, 0
0, 0
0, 0
1, 0
0, 0
0, 0
0, 0
0, 0
0, 0
0, 0
0, 0
0, 0
0, 0
0, 0
0, 0
0, 0
0, 0
0, 0
0, 0
0, 0
0, 0
0, 0
0, 0
0, 0
0, 0
0, 0
0, 0
0, 0
0, 0
0, 0
0, 0
0, 0
0, 0
0, 0
0, 0
0, 0
0, 0
0, 0
0, 0
0, 0
0, 0
0, 0
0, 0
0, 0
0, 0
0, 0
0, 0
0, 0
0, 0
0, 0
0, 0
0, 0
0, 0
0, 0
0, 0
0, 0
0, 0
0, 0
0, 0
0, 0
0, 0
0, 0
0, 0
0, 0
0, 0
0, 0
0, 0
0, 0
0, 0
0, 0
0, 0
0, 0
0, 0
0, 0
0, 0
0, 0
0, 0
0, 0
0, 0
0, 0
0, 0
0, 0
0, 0
0, 0
0, 0
0, 0
0, 0
0, 0
0, 0
0, 0
0, 0
0, 0
0, 0
0, 0
0, 0
0, 0
0, 0
0, 0
0, 0
0, 0
0, 0
0, 0
0, 0
0, 0
0, 0
0, 0
#ENDOFDATA     end of spectrum data