File: host_upload/12-01-2023/Dourbes (shot-by-shot)/upload_4/ps__0257_0689790785_000rfs_shot_3150.msa
#FORMAT      : EMSA/MAS spectral data file
#VERSION     : TC202v2.0 PIXL
#TITLE       : N/A
#DATE        :       Date in the format DD-MMM-YYYY, for example 07-JUL-2010
#TIME        :             The time of day at which the spectrum was recorded, in 24-hour format
#OWNER       : PIXL Flight Model       (PIXL will use this to indicate which instrument took the data.)
#NPOINTS     : 4096     Number of data points in the spectrum (This can be zero for configuration only files)
#NCOLUMNS    : 2     Number of data columns in the spectrum (This can be zero for configuration only files)
#XUNITS      : eV
#YUNITS      : COUNTS
#DATATYPE    : YY
#XPERCHAN    : 7.862, 7.881   eV per channel (separate by commas if more than one detector)
#OFFSET      : 18.5, -22.4         eV of first channel  (separate by commas if more than one detector
#SIGNALTYPE  : XRF
#YP_TEMP     : 3.198
#LIVETIME    : 9.12995, 9.13941   seconds (separate by commas if more than one detector)
#REALTIME    : 10, 10.0   seconds (separate by commas if more than one detector)
#SPECTRUM    : start of spectrum data
0, 0
0, 0
0, 0
0, 0
0, 0
0, 0
0, 0
1, 0
0, 0
1, 0
1, 0
27, 19
26, 25
10, 3
11, 8
158, 103
901, 712
135, 106
22, 12
3, 0
3, 6
7, 11
4, 12
5, 6
30, 15
37, 41
20, 10
17, 16
4, 3
6, 7
4, 0
3, 2
25, 25
598, 579
1038, 833
106, 85
106, 127
174, 119
16, 11
3, 3
16, 9
31, 25
15, 11
9, 6
6, 1
12, 12
9, 4
9, 5
11, 18
43, 34
30, 27
8, 4
9, 7
44, 60
55, 71
20, 15
15, 12
217, 252
1160, 1194
808, 592
85, 42
4, 9
16, 10
46, 59
205, 175
108, 71
13, 19
10, 4
15, 4
5, 4
6, 5
9, 6
9, 5
5, 2
12, 7
8, 6
5, 9
6, 15
4, 3
4, 6
8, 6
3, 5
5, 1
2, 2
5, 7
5, 5
4, 4
5, 11
3, 11
5, 14
12, 2
6, 3
8, 2
4, 3
3, 1
4, 1
4, 3
4, 2
4, 3
3, 8
2, 0
6, 3
3, 1
1, 1
4, 2
3, 2
2, 4
1, 2
3, 5
2, 0
6, 2
2, 2
2, 5
1, 3
1, 6
1, 3
1, 1
2, 3
2, 0
4, 1
0, 1
1, 2
1, 1
1, 2
1, 0
1, 0
2, 2
1, 3
0, 2
0, 1
2, 1
2, 1
3, 0
1, 1
0, 1
1, 1
1, 0
1, 0
1, 1
1, 0
1, 0
1, 1
0, 0
0, 0
0, 0
1, 0
0, 0
0, 0
0, 0
1, 0
1, 0
0, 0
1, 0
1, 0
1, 0
1, 1
0, 0
0, 1
0, 0
0, 0
0, 0
0, 0
0, 0
1, 0
1, 0
0, 0
0, 0
0, 0
0, 1
0, 1
1, 0
0, 1
0, 0
0, 0
0, 0
1, 0
1, 0
0, 0
1, 0
0, 0
0, 0
0, 0
0, 1
0, 0
1, 0
0, 0
0, 0
0, 0
0, 0
0, 0
0, 1
0, 0
0, 0
0, 0
0, 0
0, 0
0, 0
0, 0
0, 0
0, 0
0, 0
0, 0
0, 0
0, 0
0, 0
0, 0
0, 0
0, 0
0, 0
0, 0
0, 0
0, 0
0, 0
0, 0
0, 0
0, 0
0, 0
0, 0
0, 0
0, 0
0, 0
0, 0
0, 0
0, 0
0, 0
0, 0
0, 0
0, 0
0, 0
0, 0
0, 0
0, 0
0, 0
0, 0
0, 0
0, 0
0, 0
0, 0
0, 0
0, 0
0, 0
0, 0
0, 0
0, 0
0, 0
0, 0
0, 0
0, 0
0, 0
0, 0
0, 0
0, 0
0, 0
0, 0
0, 0
0, 0
0, 0
0, 0
0, 0
0, 0
0, 0
0, 0
0, 0
0, 0
0, 0
0, 0
0, 0
0, 0
0, 0
0, 0
0, 0
0, 0
0, 0
0, 0
0, 0
0, 0
0, 0
0, 0
0, 0
0, 0
0, 0
0, 0
0, 0
0, 0
0, 0
0, 0
0, 0
0, 0
0, 0
0, 0
0, 0
0, 0
0, 0
0, 0
#ENDOFDATA     end of spectrum data