File: host_upload/12-01-2023/Dourbes (shot-by-shot)/upload_4/ps__0257_0689790785_000rfs_shot_3216.msa
#FORMAT      : EMSA/MAS spectral data file
#VERSION     : TC202v2.0 PIXL
#TITLE       : N/A
#DATE        :       Date in the format DD-MMM-YYYY, for example 07-JUL-2010
#TIME        :             The time of day at which the spectrum was recorded, in 24-hour format
#OWNER       : PIXL Flight Model       (PIXL will use this to indicate which instrument took the data.)
#NPOINTS     : 4096     Number of data points in the spectrum (This can be zero for configuration only files)
#NCOLUMNS    : 2     Number of data columns in the spectrum (This can be zero for configuration only files)
#XUNITS      : eV
#YUNITS      : COUNTS
#DATATYPE    : YY
#XPERCHAN    : 7.862, 7.881   eV per channel (separate by commas if more than one detector)
#OFFSET      : 18.5, -22.4         eV of first channel  (separate by commas if more than one detector
#SIGNALTYPE  : XRF
#YP_TEMP     : 2.973
#LIVETIME    : 9.0492, 9.02388   seconds (separate by commas if more than one detector)
#REALTIME    : 10, 10.0   seconds (separate by commas if more than one detector)
#SPECTRUM    : start of spectrum data
0, 0
0, 0
0, 0
0, 0
0, 0
0, 0
0, 0
0, 0
0, 1
2, 2
1, 2
27, 28
32, 35
3, 1
3, 3
80, 84
466, 504
100, 98
1, 7
1, 3
35, 3
40, 22
4, 9
8, 12
68, 101
73, 99
37, 41
15, 24
5, 6
2, 4
1, 6
1, 4
6, 4
46, 73
90, 106
11, 18
11, 7
11, 13
6, 11
9, 10
11, 11
11, 15
20, 22
15, 22
6, 6
11, 10
5, 9
8, 8
6, 8
14, 55
16, 60
10, 24
21, 9
62, 55
93, 100
20, 28
33, 43
500, 714
2830, 3241
1758, 1624
145, 99
20, 20
30, 30
116, 156
440, 491
248, 208
11, 24
4, 8
9, 10
2, 9
4, 8
5, 9
10, 6
5, 6
6, 6
2, 7
5, 2
5, 7
3, 4
7, 9
3, 14
2, 10
7, 3
4, 6
4, 10
3, 3
4, 6
3, 4
2, 3
3, 3
2, 3
2, 9
5, 4
3, 3
3, 8
1, 4
0, 3
3, 1
3, 7
1, 5
3, 7
0, 2
0, 4
4, 2
3, 3
1, 1
4, 2
4, 1
2, 3
1, 3
5, 1
3, 2
3, 4
1, 3
1, 1
4, 4
3, 6
2, 6
1, 1
0, 0
1, 2
2, 1
1, 1
2, 1
1, 1
1, 0
2, 2
0, 0
0, 1
0, 2
2, 0
1, 1
1, 1
1, 1
0, 1
2, 0
1, 2
1, 0
0, 1
0, 0
1, 0
0, 0
1, 1
0, 1
0, 1
0, 1
0, 0
0, 2
0, 1
0, 0
0, 0
0, 0
0, 3
1, 1
0, 2
0, 0
0, 0
0, 0
0, 0
0, 0
0, 0
0, 0
1, 0
1, 2
0, 0
0, 0
0, 1
0, 0
1, 0
1, 0
0, 0
0, 0
0, 0
0, 1
0, 0
1, 0
1, 0
1, 0
0, 0
0, 0
0, 0
2, 1
0, 0
0, 0
0, 0
0, 0
0, 0
1, 0
0, 0
0, 0
0, 0
0, 0
1, 0
0, 0
0, 0
0, 0
0, 0
0, 0
0, 0
0, 0
0, 0
0, 0
0, 0
0, 0
0, 0
0, 0
0, 0
0, 0
0, 0
0, 0
0, 0
0, 0
0, 0
0, 0
0, 0
0, 0
0, 0
0, 0
0, 0
0, 0
0, 0
0, 0
0, 0
0, 0
0, 0
0, 0
0, 0
0, 0
0, 0
0, 0
0, 0
0, 0
0, 0
0, 0
0, 0
0, 0
0, 0
0, 0
0, 0
0, 0
0, 0
0, 0
0, 0
0, 0
0, 0
0, 0
0, 0
0, 0
0, 0
0, 0
0, 0
0, 0
0, 0
0, 0
0, 0
0, 0
0, 0
0, 0
0, 0
0, 0
0, 0
0, 0
0, 0
0, 0
0, 0
0, 0
0, 0
0, 0
0, 0
0, 0
0, 0
0, 0
0, 0
0, 0
0, 0
0, 0
0, 0
0, 0
0, 0
0, 0
0, 0
0, 0
0, 0
0, 0
0, 0
0, 0
0, 0
0, 0
0, 0
0, 0
0, 0
0, 0
0, 0
0, 0
#ENDOFDATA     end of spectrum data