File: host_upload/12-01-2023/Dourbes (shot-by-shot)/upload_4/ps__0257_0689790785_000rfs_shot_3048.msa
#FORMAT      : EMSA/MAS spectral data file
#VERSION     : TC202v2.0 PIXL
#TITLE       : N/A
#DATE        :       Date in the format DD-MMM-YYYY, for example 07-JUL-2010
#TIME        :             The time of day at which the spectrum was recorded, in 24-hour format
#OWNER       : PIXL Flight Model       (PIXL will use this to indicate which instrument took the data.)
#NPOINTS     : 4096     Number of data points in the spectrum (This can be zero for configuration only files)
#NCOLUMNS    : 2     Number of data columns in the spectrum (This can be zero for configuration only files)
#XUNITS      : eV
#YUNITS      : COUNTS
#DATATYPE    : YY
#XPERCHAN    : 7.862, 7.881   eV per channel (separate by commas if more than one detector)
#OFFSET      : 18.5, -22.4         eV of first channel  (separate by commas if more than one detector
#SIGNALTYPE  : XRF
#YP_TEMP     : 2.909
#LIVETIME    : 9.10234, 9.07203   seconds (separate by commas if more than one detector)
#REALTIME    : 10, 10.0   seconds (separate by commas if more than one detector)
#SPECTRUM    : start of spectrum data
0, 0
0, 0
0, 0
0, 0
0, 0
0, 0
0, 0
1, 0
1, 4
2, 4
2, 2
31, 14
30, 29
4, 1
2, 11
90, 90
572, 575
92, 104
7, 4
3, 0
17, 16
82, 105
25, 24
41, 20
154, 153
155, 139
44, 57
27, 36
9, 14
3, 3
3, 10
3, 7
4, 8
69, 88
89, 119
18, 20
16, 12
15, 21
5, 13
11, 6
14, 12
13, 24
23, 25
15, 26
9, 12
16, 17
14, 15
11, 14
9, 9
11, 16
7, 8
15, 12
12, 15
52, 67
91, 98
23, 28
25, 32
363, 535
2033, 2670
1311, 1423
109, 96
20, 16
26, 36
92, 115
307, 351
173, 186
11, 22
2, 12
9, 5
6, 7
10, 4
3, 3
7, 2
6, 7
10, 5
6, 3
6, 7
12, 4
7, 6
13, 5
2, 7
2, 6
5, 7
3, 4
7, 0
4, 4
6, 4
9, 4
4, 6
4, 7
2, 5
2, 4
5, 4
9, 9
5, 6
4, 4
4, 5
3, 7
4, 5
3, 4
7, 2
4, 4
3, 3
0, 3
4, 4
2, 3
2, 2
3, 1
4, 3
2, 2
1, 4
4, 1
5, 2
3, 5
2, 3
1, 1
4, 7
1, 2
3, 1
0, 4
4, 2
6, 2
1, 2
1, 2
0, 2
2, 4
0, 2
0, 2
1, 0
1, 0
0, 1
3, 1
1, 1
4, 0
0, 2
0, 0
2, 2
1, 1
1, 0
0, 1
1, 1
0, 0
1, 1
0, 2
0, 3
1, 1
1, 0
1, 0
0, 1
0, 0
0, 0
1, 0
1, 0
0, 0
0, 0
0, 0
0, 0
0, 0
0, 0
0, 0
0, 0
0, 0
0, 1
1, 0
0, 1
0, 1
0, 0
0, 1
0, 0
1, 0
0, 1
0, 0
0, 1
0, 0
0, 0
0, 0
0, 0
0, 0
0, 0
0, 0
1, 0
0, 0
0, 2
0, 0
0, 1
0, 0
0, 0
0, 0
0, 0
1, 1
0, 0
0, 0
0, 0
0, 0
0, 0
0, 0
0, 0
0, 0
0, 0
0, 1
0, 0
0, 0
0, 0
0, 0
0, 0
0, 0
0, 0
0, 0
0, 0
0, 0
0, 0
0, 0
0, 0
0, 0
0, 0
0, 0
0, 0
0, 0
0, 0
0, 0
0, 0
0, 0
0, 0
0, 0
0, 0
0, 0
0, 0
0, 0
0, 0
0, 0
0, 0
0, 0
0, 0
0, 0
0, 0
0, 0
0, 0
0, 0
0, 0
0, 0
0, 0
0, 0
0, 0
0, 0
0, 0
0, 0
0, 0
0, 0
0, 0
0, 0
0, 0
0, 0
0, 0
0, 0
0, 0
0, 0
0, 0
0, 0
0, 0
0, 0
0, 0
0, 0
0, 0
0, 0
0, 0
0, 0
0, 0
0, 0
0, 0
0, 0
0, 0
0, 0
0, 0
0, 0
0, 0
0, 0
0, 0
0, 0
0, 0
0, 0
0, 0
0, 0
0, 0
0, 0
0, 0
0, 0
0, 0
0, 0
0, 0
0, 0
0, 0
0, 0
0, 0
0, 0
#ENDOFDATA     end of spectrum data