File: host_upload/12-01-2023/Dourbes (shot-by-shot)/upload_4/ps__0257_0689790785_000rfs_shot_3289.msa
#FORMAT      : EMSA/MAS spectral data file
#VERSION     : TC202v2.0 PIXL
#TITLE       : N/A
#DATE        :       Date in the format DD-MMM-YYYY, for example 07-JUL-2010
#TIME        :             The time of day at which the spectrum was recorded, in 24-hour format
#OWNER       : PIXL Flight Model       (PIXL will use this to indicate which instrument took the data.)
#NPOINTS     : 4096     Number of data points in the spectrum (This can be zero for configuration only files)
#NCOLUMNS    : 2     Number of data columns in the spectrum (This can be zero for configuration only files)
#XUNITS      : eV
#YUNITS      : COUNTS
#DATATYPE    : YY
#XPERCHAN    : 7.862, 7.881   eV per channel (separate by commas if more than one detector)
#OFFSET      : 18.5, -22.4         eV of first channel  (separate by commas if more than one detector
#SIGNALTYPE  : XRF
#YP_TEMP     : 3.165
#LIVETIME    : 8.99229, 9.00394   seconds (separate by commas if more than one detector)
#REALTIME    : 10, 10.0   seconds (separate by commas if more than one detector)
#SPECTRUM    : start of spectrum data
0, 0
0, 0
0, 0
0, 0
0, 0
0, 0
0, 0
0, 0
0, 1
4, 0
1, 3
22, 23
45, 34
4, 5
8, 8
89, 69
521, 491
104, 67
19, 7
14, 9
3, 2
16, 4
5, 12
3, 10
48, 47
52, 52
30, 13
15, 14
5, 5
1, 1
6, 1
6, 5
5, 8
40, 45
59, 70
13, 20
85, 31
54, 13
6, 6
5, 3
9, 11
16, 19
28, 25
17, 12
16, 12
12, 18
3, 15
5, 6
11, 13
20, 19
14, 19
9, 11
13, 14
68, 67
86, 76
42, 30
48, 33
703, 774
3804, 3635
2173, 1759
177, 103
7, 16
30, 23
154, 184
549, 521
306, 228
27, 16
8, 6
9, 8
8, 5
4, 2
9, 13
5, 7
3, 5
6, 6
3, 2
2, 4
4, 5
8, 4
4, 4
3, 6
0, 8
2, 3
1, 2
3, 3
1, 4
3, 2
1, 1
9, 3
0, 0
4, 7
4, 3
6, 2
5, 2
4, 2
3, 1
1, 1
2, 2
1, 3
2, 9
2, 2
5, 2
4, 2
3, 5
3, 3
4, 3
0, 3
2, 1
3, 1
0, 2
1, 1
2, 2
1, 2
1, 1
0, 2
4, 1
8, 8
7, 2
2, 2
1, 4
1, 3
2, 2
5, 2
4, 2
0, 1
0, 2
2, 1
0, 0
2, 0
1, 1
0, 0
3, 2
0, 0
1, 1
0, 2
0, 0
0, 1
1, 1
0, 2
0, 1
0, 0
0, 0
2, 0
0, 0
1, 0
2, 0
0, 0
0, 0
0, 0
0, 0
0, 0
1, 0
0, 0
0, 0
0, 1
0, 1
0, 1
0, 1
0, 1
1, 0
0, 0
0, 1
0, 0
0, 0
0, 0
1, 0
0, 0
0, 0
1, 0
0, 0
0, 0
0, 1
0, 0
0, 0
0, 0
0, 0
0, 1
0, 0
0, 0
0, 0
0, 0
0, 0
0, 0
0, 0
0, 0
0, 0
0, 1
0, 0
0, 1
0, 1
0, 0
0, 0
0, 0
0, 0
0, 1
0, 0
0, 0
0, 0
0, 0
0, 0
1, 0
0, 0
0, 0
0, 1
0, 0
1, 0
0, 0
0, 0
0, 0
0, 0
0, 0
0, 0
0, 0
0, 0
0, 0
0, 0
0, 0
0, 0
0, 0
0, 0
0, 0
0, 0
0, 0
0, 0
0, 0
0, 0
0, 0
0, 0
0, 0
0, 0
0, 0
0, 0
0, 0
0, 0
0, 0
0, 0
0, 0
0, 0
0, 0
0, 0
0, 0
0, 0
0, 0
0, 0
0, 0
0, 0
0, 0
0, 0
0, 0
0, 0
0, 0
0, 0
0, 0
0, 0
0, 0
0, 0
0, 0
0, 0
0, 0
0, 0
0, 0
0, 0
0, 0
0, 0
0, 0
0, 0
0, 0
0, 0
0, 0
0, 0
0, 0
0, 0
0, 0
0, 0
0, 0
0, 0
0, 0
0, 0
0, 0
0, 0
0, 0
0, 0
0, 0
0, 0
0, 0
0, 0
0, 0
0, 0
0, 0
0, 0
0, 0
0, 0
0, 0
0, 0
#ENDOFDATA     end of spectrum data