File: host_upload/12-01-2023/Dourbes (shot-by-shot)/upload_4/ps__0257_0689790785_000rfs_shot_3318.msa
#FORMAT      : EMSA/MAS spectral data file
#VERSION     : TC202v2.0 PIXL
#TITLE       : N/A
#DATE        :       Date in the format DD-MMM-YYYY, for example 07-JUL-2010
#TIME        :             The time of day at which the spectrum was recorded, in 24-hour format
#OWNER       : PIXL Flight Model       (PIXL will use this to indicate which instrument took the data.)
#NPOINTS     : 4096     Number of data points in the spectrum (This can be zero for configuration only files)
#NCOLUMNS    : 2     Number of data columns in the spectrum (This can be zero for configuration only files)
#XUNITS      : eV
#YUNITS      : COUNTS
#DATATYPE    : YY
#XPERCHAN    : 7.862, 7.881   eV per channel (separate by commas if more than one detector)
#OFFSET      : 18.5, -22.4         eV of first channel  (separate by commas if more than one detector
#SIGNALTYPE  : XRF
#YP_TEMP     : 3.133
#LIVETIME    : 9.14228, 9.13229   seconds (separate by commas if more than one detector)
#REALTIME    : 10, 10.0   seconds (separate by commas if more than one detector)
#SPECTRUM    : start of spectrum data
0, 0
0, 0
0, 0
0, 0
0, 0
0, 0
0, 0
0, 0
1, 0
1, 1
2, 4
27, 19
30, 36
3, 5
5, 15
130, 107
829, 880
149, 126
18, 17
5, 7
4, 6
12, 7
4, 7
6, 3
39, 36
29, 51
26, 25
11, 20
6, 5
3, 5
4, 9
4, 3
29, 31
572, 614
893, 884
98, 88
85, 104
112, 117
7, 10
2, 3
13, 10
28, 35
15, 21
12, 3
6, 7
13, 11
2, 4
2, 5
7, 15
49, 38
37, 24
11, 7
3, 5
27, 44
43, 50
15, 12
22, 21
241, 288
1201, 1324
772, 654
69, 38
11, 14
10, 12
46, 70
198, 221
101, 92
16, 18
25, 7
23, 7
17, 5
4, 2
7, 7
5, 2
4, 5
7, 6
6, 6
5, 4
4, 17
4, 6
3, 7
6, 4
3, 11
4, 3
0, 10
5, 9
5, 18
1, 2
5, 10
3, 13
3, 9
5, 4
6, 8
5, 7
5, 5
4, 7
1, 3
3, 4
3, 3
2, 2
2, 4
3, 1
3, 2
5, 5
5, 3
1, 3
1, 2
4, 4
3, 2
4, 2
4, 3
5, 2
2, 1
2, 2
0, 1
3, 3
3, 1
5, 0
3, 1
2, 2
2, 1
3, 1
0, 2
0, 0
1, 3
4, 1
0, 1
1, 1
2, 3
1, 1
1, 5
0, 1
2, 0
1, 2
0, 0
2, 0
2, 1
1, 1
2, 1
2, 1
0, 0
0, 1
2, 0
1, 1
0, 0
1, 1
0, 0
0, 1
0, 0
1, 0
1, 1
0, 0
0, 0
0, 0
0, 1
0, 0
1, 0
0, 0
0, 1
0, 0
2, 0
0, 0
0, 0
0, 0
1, 0
2, 0
0, 0
1, 0
1, 1
0, 0
0, 0
0, 0
0, 0
0, 0
0, 0
0, 0
1, 0
1, 0
0, 0
0, 0
0, 0
0, 0
0, 0
0, 0
0, 1
0, 0
0, 0
0, 0
0, 0
1, 0
0, 0
0, 0
0, 0
0, 0
0, 0
0, 0
0, 0
0, 0
0, 0
1, 0
0, 0
0, 0
0, 0
0, 0
0, 0
0, 0
0, 0
0, 0
0, 0
0, 0
0, 0
0, 0
0, 0
0, 0
0, 0
0, 0
0, 0
0, 0
0, 0
0, 0
0, 0
0, 0
0, 0
0, 0
0, 0
0, 0
0, 0
0, 0
0, 0
0, 0
0, 0
0, 0
0, 0
0, 0
0, 0
0, 0
0, 0
0, 0
0, 0
0, 0
0, 0
0, 0
0, 0
0, 0
0, 0
0, 0
0, 0
0, 0
0, 0
0, 0
0, 0
0, 0
0, 0
0, 0
0, 0
0, 0
0, 0
0, 0
0, 0
0, 0
0, 0
0, 0
0, 0
0, 0
0, 0
0, 0
0, 0
0, 0
0, 0
0, 0
0, 0
0, 0
0, 0
0, 0
0, 0
0, 0
0, 0
0, 0
0, 0
0, 0
0, 0
0, 0
0, 0
0, 0
0, 0
0, 0
0, 0
0, 0
0, 0
0, 0
0, 0
0, 0
0, 0
0, 0
0, 0
#ENDOFDATA     end of spectrum data