File: host_upload/12-01-2023/Dourbes (shot-by-shot)/upload_4/ps__0257_0689790785_000rfs_shot_3305.msa
#FORMAT      : EMSA/MAS spectral data file
#VERSION     : TC202v2.0 PIXL
#TITLE       : N/A
#DATE        :       Date in the format DD-MMM-YYYY, for example 07-JUL-2010
#TIME        :             The time of day at which the spectrum was recorded, in 24-hour format
#OWNER       : PIXL Flight Model       (PIXL will use this to indicate which instrument took the data.)
#NPOINTS     : 4096     Number of data points in the spectrum (This can be zero for configuration only files)
#NCOLUMNS    : 2     Number of data columns in the spectrum (This can be zero for configuration only files)
#XUNITS      : eV
#YUNITS      : COUNTS
#DATATYPE    : YY
#XPERCHAN    : 7.862, 7.881   eV per channel (separate by commas if more than one detector)
#OFFSET      : 18.5, -22.4         eV of first channel  (separate by commas if more than one detector
#SIGNALTYPE  : XRF
#YP_TEMP     : 3.069
#LIVETIME    : 9.00039, 9.03134   seconds (separate by commas if more than one detector)
#REALTIME    : 10, 10.0   seconds (separate by commas if more than one detector)
#SPECTRUM    : start of spectrum data
0, 0
0, 0
0, 0
0, 0
0, 0
0, 0
0, 0
0, 0
2, 0
4, 1
3, 0
28, 25
36, 23
24, 11
29, 34
98, 91
638, 561
109, 97
7, 3
6, 2
3, 4
9, 8
6, 4
16, 10
93, 69
72, 62
28, 30
21, 17
5, 8
11, 4
25, 16
10, 12
5, 6
20, 16
38, 32
10, 4
8, 9
17, 6
8, 9
5, 4
11, 15
14, 26
21, 32
15, 10
9, 9
4, 6
10, 9
6, 13
17, 9
19, 13
13, 12
7, 38
9, 30
53, 60
96, 64
29, 26
38, 45
636, 634
3601, 3255
2204, 1539
134, 97
15, 9
36, 17
142, 137
566, 492
285, 229
24, 28
9, 7
12, 10
8, 7
6, 7
7, 10
5, 0
7, 7
6, 4
4, 9
3, 2
5, 2
8, 1
10, 5
6, 2
2, 5
4, 5
2, 11
5, 3
0, 4
3, 3
3, 5
6, 4
5, 4
2, 1
2, 4
2, 4
4, 1
1, 4
2, 2
3, 5
5, 4
6, 2
6, 3
4, 1
6, 3
2, 0
1, 1
3, 1
3, 2
1, 3
1, 0
0, 3
1, 2
0, 5
2, 1
4, 2
2, 1
2, 2
2, 1
3, 6
8, 4
1, 3
1, 1
2, 2
2, 2
1, 0
4, 0
1, 0
0, 1
1, 5
0, 1
0, 1
3, 1
0, 2
0, 0
0, 0
0, 0
1, 1
3, 0
1, 0
0, 0
0, 0
0, 0
1, 0
0, 0
0, 0
0, 1
1, 0
1, 1
1, 0
0, 0
0, 1
0, 1
1, 0
0, 0
0, 0
0, 0
1, 1
1, 0
0, 0
0, 0
0, 0
0, 0
0, 0
0, 0
1, 1
0, 0
0, 0
0, 0
0, 0
0, 0
0, 0
1, 0
0, 0
0, 0
0, 0
0, 0
0, 0
0, 0
1, 0
0, 0
0, 0
0, 0
0, 0
0, 0
0, 0
0, 0
1, 0
0, 0
0, 0
0, 0
0, 0
1, 0
0, 0
0, 0
0, 0
0, 0
0, 0
0, 0
0, 0
0, 0
0, 0
0, 0
0, 0
0, 0
0, 0
0, 0
0, 0
0, 0
0, 0
0, 0
0, 0
0, 0
0, 0
0, 0
0, 0
0, 0
0, 0
0, 0
0, 0
0, 0
0, 0
0, 0
0, 0
0, 0
0, 0
0, 0
0, 0
0, 0
0, 0
0, 0
0, 0
0, 0
0, 0
0, 0
0, 0
0, 0
0, 0
0, 0
0, 0
0, 0
0, 0
0, 0
0, 0
0, 0
0, 0
0, 0
0, 0
0, 0
0, 0
0, 0
0, 0
0, 0
0, 0
0, 0
0, 0
0, 0
0, 0
0, 0
0, 0
0, 0
0, 0
0, 0
0, 0
0, 0
0, 0
0, 0
0, 0
0, 0
0, 0
0, 0
0, 0
0, 0
0, 0
0, 0
0, 0
0, 0
0, 0
0, 0
0, 0
0, 0
0, 0
0, 0
0, 0
0, 0
0, 0
0, 0
0, 0
0, 0
0, 0
0, 0
0, 0
0, 0
0, 0
0, 0
0, 0
0, 0
#ENDOFDATA     end of spectrum data