File: host_upload/12-01-2023/Dourbes (shot-by-shot)/upload_4/ps__0257_0689790785_000rfs_shot_3167.msa
#FORMAT      : EMSA/MAS spectral data file
#VERSION     : TC202v2.0 PIXL
#TITLE       : N/A
#DATE        :       Date in the format DD-MMM-YYYY, for example 07-JUL-2010
#TIME        :             The time of day at which the spectrum was recorded, in 24-hour format
#OWNER       : PIXL Flight Model       (PIXL will use this to indicate which instrument took the data.)
#NPOINTS     : 4096     Number of data points in the spectrum (This can be zero for configuration only files)
#NCOLUMNS    : 2     Number of data columns in the spectrum (This can be zero for configuration only files)
#XUNITS      : eV
#YUNITS      : COUNTS
#DATATYPE    : YY
#XPERCHAN    : 7.862, 7.881   eV per channel (separate by commas if more than one detector)
#OFFSET      : 18.5, -22.4         eV of first channel  (separate by commas if more than one detector
#SIGNALTYPE  : XRF
#YP_TEMP     : 2.973
#LIVETIME    : 9.00393, 9.00002   seconds (separate by commas if more than one detector)
#REALTIME    : 10, 10.0   seconds (separate by commas if more than one detector)
#SPECTRUM    : start of spectrum data
0, 0
0, 0
0, 0
0, 0
0, 0
0, 0
0, 0
0, 0
0, 1
1, 0
2, 0
22, 23
35, 35
1, 4
5, 2
92, 72
502, 459
82, 79
6, 3
0, 3
3, 3
2, 3
4, 1
8, 7
21, 25
25, 28
23, 18
15, 11
6, 4
5, 3
1, 3
4, 1
1, 0
15, 15
12, 32
8, 32
36, 86
17, 9
4, 3
1, 5
12, 2
6, 9
29, 19
15, 15
7, 9
5, 9
8, 10
5, 4
14, 11
20, 11
13, 8
23, 10
21, 17
54, 69
91, 88
31, 27
27, 27
684, 800
3777, 3764
2261, 1940
185, 133
20, 6
22, 33
147, 196
543, 565
303, 245
23, 18
3, 9
6, 9
8, 2
4, 6
2, 23
3, 15
1, 11
9, 3
7, 4
3, 7
1, 6
3, 3
6, 5
2, 8
6, 6
4, 2
1, 0
0, 5
2, 3
4, 4
11, 2
6, 1
1, 1
4, 3
2, 3
1, 1
10, 2
14, 4
6, 0
2, 4
3, 1
3, 5
2, 12
0, 6
3, 3
1, 4
2, 1
1, 2
1, 1
1, 3
1, 0
3, 3
0, 4
0, 1
2, 1
4, 1
1, 3
4, 3
5, 2
5, 5
6, 4
0, 1
0, 0
1, 3
1, 3
1, 5
0, 3
0, 1
0, 1
2, 0
0, 1
3, 0
0, 2
1, 1
5, 0
1, 0
0, 0
1, 1
0, 2
1, 2
0, 1
0, 0
0, 1
0, 2
1, 1
0, 1
0, 0
3, 0
0, 0
0, 0
0, 0
0, 0
0, 1
0, 0
0, 0
1, 0
0, 1
0, 1
1, 0
1, 0
1, 0
1, 0
0, 0
0, 0
0, 1
0, 0
1, 0
0, 0
0, 0
0, 0
0, 2
0, 0
0, 0
0, 0
1, 0
0, 0
1, 0
0, 0
0, 1
0, 0
0, 0
1, 0
0, 0
0, 1
0, 0
1, 0
0, 0
0, 0
0, 0
0, 0
0, 0
0, 1
0, 1
0, 0
0, 0
0, 0
0, 0
0, 0
0, 0
0, 0
0, 0
0, 0
0, 0
0, 0
0, 0
0, 0
0, 0
0, 0
0, 0
0, 0
0, 0
0, 0
0, 0
0, 0
0, 0
0, 0
0, 0
0, 0
0, 0
1, 0
0, 0
0, 0
0, 0
0, 0
0, 0
0, 0
0, 0
0, 0
0, 0
0, 0
0, 0
0, 0
0, 0
0, 0
0, 0
0, 0
0, 0
0, 0
1, 0
0, 0
0, 0
0, 0
0, 0
0, 0
0, 0
0, 0
0, 0
0, 0
0, 0
0, 0
0, 0
0, 0
0, 0
0, 0
0, 0
0, 0
0, 0
0, 0
0, 0
0, 0
0, 0
0, 0
0, 0
0, 0
0, 0
0, 0
0, 0
0, 0
0, 0
0, 0
0, 0
0, 0
0, 0
0, 0
0, 0
0, 0
0, 0
0, 0
0, 0
0, 0
0, 0
0, 0
0, 0
0, 0
0, 0
0, 0
0, 0
0, 0
0, 0
0, 0
0, 0
0, 0
0, 0
0, 0
0, 0
0, 0
0, 0
#ENDOFDATA     end of spectrum data