File: host_upload/12-01-2023/Dourbes (shot-by-shot)/upload_4/ps__0257_0689790785_000rfs_shot_3316.msa
#FORMAT      : EMSA/MAS spectral data file
#VERSION     : TC202v2.0 PIXL
#TITLE       : N/A
#DATE        :       Date in the format DD-MMM-YYYY, for example 07-JUL-2010
#TIME        :             The time of day at which the spectrum was recorded, in 24-hour format
#OWNER       : PIXL Flight Model       (PIXL will use this to indicate which instrument took the data.)
#NPOINTS     : 4096     Number of data points in the spectrum (This can be zero for configuration only files)
#NCOLUMNS    : 2     Number of data columns in the spectrum (This can be zero for configuration only files)
#XUNITS      : eV
#YUNITS      : COUNTS
#DATATYPE    : YY
#XPERCHAN    : 7.862, 7.881   eV per channel (separate by commas if more than one detector)
#OFFSET      : 18.5, -22.4         eV of first channel  (separate by commas if more than one detector
#SIGNALTYPE  : XRF
#YP_TEMP     : 3.165
#LIVETIME    : 9.13991, 9.13769   seconds (separate by commas if more than one detector)
#REALTIME    : 10, 10.0   seconds (separate by commas if more than one detector)
#SPECTRUM    : start of spectrum data
0, 0
0, 0
0, 0
0, 0
0, 0
0, 0
0, 0
0, 0
1, 1
1, 1
2, 3
27, 18
34, 25
3, 5
11, 11
136, 127
880, 879
153, 137
14, 15
1, 3
3, 1
6, 11
4, 6
10, 13
23, 33
29, 29
19, 13
4, 14
4, 5
4, 3
6, 3
3, 5
25, 34
605, 733
1037, 1028
105, 97
119, 134
130, 167
17, 14
2, 2
9, 15
30, 38
9, 13
3, 4
8, 3
4, 18
5, 3
4, 4
8, 20
47, 31
33, 26
5, 6
8, 8
27, 30
54, 42
18, 9
20, 14
234, 289
1096, 1237
739, 628
74, 48
7, 9
6, 13
49, 62
174, 209
89, 109
16, 13
35, 4
38, 5
11, 4
8, 5
9, 4
7, 2
4, 10
5, 4
5, 4
2, 10
5, 15
3, 3
9, 5
2, 5
4, 5
6, 5
1, 6
4, 10
2, 6
4, 7
1, 9
6, 14
3, 10
6, 5
14, 5
9, 4
4, 3
0, 2
2, 3
5, 4
1, 4
4, 2
5, 0
2, 2
1, 2
2, 2
1, 2
3, 1
1, 3
0, 4
1, 1
2, 1
8, 3
6, 2
3, 2
2, 1
3, 0
1, 2
2, 1
2, 3
1, 3
5, 2
2, 0
0, 1
1, 3
1, 0
2, 3
0, 1
0, 0
0, 0
0, 2
3, 0
2, 0
1, 2
1, 0
2, 0
2, 1
1, 0
1, 3
0, 0
0, 3
2, 0
0, 0
2, 1
1, 1
0, 1
0, 2
1, 2
0, 1
1, 0
0, 1
0, 0
1, 2
1, 0
0, 0
1, 1
0, 0
0, 0
1, 1
0, 0
0, 1
0, 0
0, 2
1, 1
0, 0
1, 0
0, 1
0, 0
0, 0
0, 0
0, 0
0, 0
0, 0
0, 2
0, 1
0, 1
1, 0
0, 0
0, 0
0, 0
0, 0
0, 0
1, 0
0, 0
0, 0
0, 0
0, 0
0, 0
0, 0
0, 0
0, 0
0, 0
0, 0
0, 0
0, 0
0, 0
0, 0
0, 0
0, 0
0, 0
0, 0
0, 0
0, 0
0, 0
0, 0
0, 0
0, 0
0, 0
0, 0
0, 0
0, 0
0, 0
0, 0
0, 0
0, 0
0, 0
0, 0
0, 0
0, 0
0, 0
0, 0
0, 0
0, 0
0, 0
0, 0
0, 0
0, 0
0, 0
0, 0
0, 0
0, 0
0, 0
0, 0
0, 0
0, 0
0, 0
0, 0
0, 0
0, 0
0, 0
0, 0
0, 0
0, 0
0, 0
0, 0
0, 0
0, 0
0, 0
0, 0
0, 0
0, 0
0, 0
0, 0
0, 0
0, 0
0, 0
0, 0
0, 0
0, 0
0, 0
0, 0
0, 0
0, 0
0, 0
0, 0
0, 0
0, 0
0, 0
0, 0
0, 0
0, 0
0, 0
0, 0
0, 0
0, 0
0, 0
0, 0
0, 0
0, 0
0, 0
0, 0
0, 0
0, 0
0, 0
0, 0
0, 0
0, 0
0, 0
0, 0
0, 0
0, 0
0, 0
0, 0
0, 0
0, 0
0, 0
0, 0
#ENDOFDATA     end of spectrum data