File: host_upload/12-01-2023/Dourbes (shot-by-shot)/upload_4/ps__0257_0689790785_000rfs_shot_3004.msa
#FORMAT      : EMSA/MAS spectral data file
#VERSION     : TC202v2.0 PIXL
#TITLE       : N/A
#DATE        :       Date in the format DD-MMM-YYYY, for example 07-JUL-2010
#TIME        :             The time of day at which the spectrum was recorded, in 24-hour format
#OWNER       : PIXL Flight Model       (PIXL will use this to indicate which instrument took the data.)
#NPOINTS     : 4096     Number of data points in the spectrum (This can be zero for configuration only files)
#NCOLUMNS    : 2     Number of data columns in the spectrum (This can be zero for configuration only files)
#XUNITS      : eV
#YUNITS      : COUNTS
#DATATYPE    : YY
#XPERCHAN    : 7.862, 7.881   eV per channel (separate by commas if more than one detector)
#OFFSET      : 18.5, -22.4         eV of first channel  (separate by commas if more than one detector
#SIGNALTYPE  : XRF
#YP_TEMP     : 2.973
#LIVETIME    : 8.87715, 8.98292   seconds (separate by commas if more than one detector)
#REALTIME    : 10, 10.0   seconds (separate by commas if more than one detector)
#SPECTRUM    : start of spectrum data
0, 0
0, 0
0, 0
0, 0
0, 0
0, 0
0, 0
2, 1
14, 2
55, 4
5, 0
20, 17
16, 32
9, 11
11, 13
115, 102
605, 656
107, 98
9, 10
8, 5
12, 8
89, 109
32, 28
76, 22
1966, 129
3286, 107
263, 34
23, 19
5, 6
4, 5
16, 14
14, 5
7, 4
29, 46
33, 48
8, 14
19, 11
16, 8
5, 8
5, 4
7, 8
17, 23
18, 99
14, 44
11, 8
10, 8
8, 9
19, 5
13, 9
23, 16
14, 9
12, 6
10, 10
35, 61
99, 87
29, 35
30, 34
617, 743
3229, 3395
2158, 1823
175, 103
53, 10
82, 22
145, 167
500, 493
265, 251
26, 15
6, 4
5, 9
5, 7
1, 8
2, 18
2, 9
5, 3
3, 8
2, 1
2, 3
2, 1
2, 5
2, 8
7, 1
6, 5
11, 2
12, 3
11, 11
7, 7
5, 7
5, 1
2, 3
6, 4
2, 4
2, 3
5, 3
3, 2
4, 2
1, 2
4, 1
3, 3
10, 2
5, 3
6, 3
2, 5
3, 5
0, 2
1, 1
3, 1
2, 1
3, 0
1, 2
3, 1
1, 1
0, 2
4, 4
0, 1
3, 2
2, 2
6, 6
4, 4
2, 0
1, 0
3, 1
1, 1
1, 2
4, 3
2, 0
0, 0
1, 2
1, 1
0, 0
0, 0
0, 1
1, 1
0, 0
1, 1
1, 0
1, 1
0, 0
2, 1
0, 0
0, 2
1, 0
0, 0
1, 0
0, 0
1, 0
0, 0
0, 1
0, 1
0, 1
0, 0
0, 0
0, 1
1, 0
0, 0
1, 0
0, 0
1, 0
1, 0
0, 0
0, 0
0, 0
0, 1
0, 0
1, 0
1, 2
0, 0
0, 1
2, 0
1, 0
0, 0
0, 0
0, 0
0, 0
0, 0
0, 0
0, 1
0, 0
0, 0
0, 0
0, 0
0, 0
0, 0
0, 0
1, 0
1, 0
0, 0
0, 0
0, 0
0, 0
0, 1
0, 0
0, 0
0, 0
1, 0
0, 0
0, 0
0, 0
0, 0
0, 0
0, 0
0, 0
0, 0
0, 0
0, 0
0, 0
0, 0
0, 0
0, 0
0, 0
0, 0
0, 0
0, 0
0, 0
0, 0
0, 0
0, 0
0, 0
0, 0
0, 0
0, 0
0, 0
0, 0
0, 0
0, 0
0, 0
0, 0
0, 0
0, 0
0, 0
0, 0
0, 0
0, 0
0, 0
0, 0
0, 0
0, 0
0, 0
0, 0
0, 0
0, 0
0, 0
0, 0
0, 0
0, 0
0, 0
0, 0
0, 0
0, 0
0, 0
0, 0
0, 0
0, 0
0, 0
0, 0
0, 0
0, 0
0, 0
0, 0
0, 0
0, 0
0, 0
0, 0
0, 0
0, 0
0, 0
0, 0
0, 0
0, 0
0, 0
0, 0
0, 0
0, 0
0, 0
0, 0
0, 0
0, 0
0, 0
0, 0
0, 0
0, 0
0, 0
0, 0
0, 0
0, 0
0, 0
0, 0
0, 0
0, 0
0, 0
0, 0
0, 0
0, 0
0, 0
0, 0
#ENDOFDATA     end of spectrum data