File: host_upload/12-01-2023/Dourbes (shot-by-shot)/upload_4/ps__0257_0689790785_000rfs_shot_3009.msa
#FORMAT      : EMSA/MAS spectral data file
#VERSION     : TC202v2.0 PIXL
#TITLE       : N/A
#DATE        :       Date in the format DD-MMM-YYYY, for example 07-JUL-2010
#TIME        :             The time of day at which the spectrum was recorded, in 24-hour format
#OWNER       : PIXL Flight Model       (PIXL will use this to indicate which instrument took the data.)
#NPOINTS     : 4096     Number of data points in the spectrum (This can be zero for configuration only files)
#NCOLUMNS    : 2     Number of data columns in the spectrum (This can be zero for configuration only files)
#XUNITS      : eV
#YUNITS      : COUNTS
#DATATYPE    : YY
#XPERCHAN    : 7.862, 7.881   eV per channel (separate by commas if more than one detector)
#OFFSET      : 18.5, -22.4         eV of first channel  (separate by commas if more than one detector
#SIGNALTYPE  : XRF
#YP_TEMP     : 3.165
#LIVETIME    : 9.02946, 9.03164   seconds (separate by commas if more than one detector)
#REALTIME    : 10, 10.0   seconds (separate by commas if more than one detector)
#SPECTRUM    : start of spectrum data
0, 0
0, 0
0, 0
0, 0
0, 0
0, 0
0, 0
0, 0
2, 2
9, 1
3, 3
25, 20
29, 33
9, 2
9, 10
83, 80
573, 589
111, 94
6, 5
5, 8
37, 34
300, 277
74, 74
58, 41
256, 200
360, 178
64, 55
21, 19
8, 11
4, 6
10, 11
6, 4
2, 6
46, 52
79, 61
14, 10
19, 19
15, 13
11, 5
6, 5
5, 15
21, 27
29, 45
22, 27
9, 10
12, 18
9, 9
17, 9
12, 13
20, 12
10, 20
12, 5
14, 16
58, 85
83, 99
31, 20
40, 32
490, 694
2820, 3243
1811, 1637
163, 101
40, 17
36, 34
154, 149
415, 456
284, 216
26, 20
7, 10
15, 9
4, 4
6, 5
3, 3
5, 11
3, 5
11, 10
5, 2
10, 7
6, 1
2, 6
2, 7
10, 4
4, 5
2, 4
2, 4
5, 6
6, 6
6, 8
4, 4
7, 4
6, 2
2, 1
3, 4
1, 2
3, 3
3, 3
4, 4
4, 5
5, 3
7, 3
5, 0
1, 3
1, 3
0, 1
6, 1
2, 3
2, 3
1, 7
1, 4
1, 3
3, 3
2, 2
0, 2
2, 1
1, 3
2, 1
7, 3
3, 4
2, 5
4, 0
1, 1
2, 2
5, 4
0, 0
2, 4
0, 2
0, 2
3, 0
0, 0
0, 1
0, 2
0, 2
0, 0
0, 1
0, 0
0, 0
3, 2
0, 0
0, 1
0, 0
0, 0
1, 0
1, 1
0, 2
1, 0
0, 0
0, 1
0, 0
0, 0
0, 0
0, 0
0, 1
0, 0
0, 0
0, 0
0, 0
0, 0
0, 0
0, 1
0, 0
0, 0
0, 0
0, 1
0, 0
0, 0
1, 0
2, 0
0, 0
0, 1
0, 0
0, 1
0, 0
0, 0
0, 0
0, 1
0, 0
1, 0
0, 0
0, 0
0, 0
0, 0
0, 1
0, 0
0, 0
0, 0
0, 0
0, 0
0, 0
0, 0
0, 0
0, 0
0, 0
0, 0
1, 1
0, 0
0, 1
0, 0
0, 0
0, 0
0, 0
0, 0
0, 0
0, 0
0, 0
0, 0
0, 0
0, 0
0, 0
0, 0
1, 0
0, 0
0, 0
0, 0
0, 0
0, 0
0, 0
0, 0
0, 0
0, 0
0, 0
0, 0
0, 0
0, 0
0, 0
0, 0
0, 0
0, 0
0, 0
0, 0
0, 0
0, 0
0, 0
0, 0
0, 0
0, 0
0, 0
0, 0
0, 0
0, 0
0, 0
0, 0
0, 0
0, 0
0, 0
0, 0
0, 0
0, 0
0, 0
0, 0
0, 0
0, 0
0, 0
0, 0
0, 0
0, 0
0, 0
0, 0
0, 0
0, 0
0, 0
0, 0
0, 0
0, 0
0, 0
0, 0
0, 0
0, 0
0, 0
0, 0
0, 0
0, 0
0, 0
0, 0
0, 0
0, 0
0, 0
0, 0
0, 0
0, 0
0, 0
0, 0
0, 0
0, 0
0, 0
0, 0
0, 0
0, 0
0, 0
0, 0
0, 0
0, 0
0, 0
0, 0
0, 0
0, 0
#ENDOFDATA     end of spectrum data