File: host_upload/12-01-2023/Dourbes (shot-by-shot)/upload_4/ps__0257_0689790785_000rfs_shot_3096.msa
#FORMAT      : EMSA/MAS spectral data file
#VERSION     : TC202v2.0 PIXL
#TITLE       : N/A
#DATE        :       Date in the format DD-MMM-YYYY, for example 07-JUL-2010
#TIME        :             The time of day at which the spectrum was recorded, in 24-hour format
#OWNER       : PIXL Flight Model       (PIXL will use this to indicate which instrument took the data.)
#NPOINTS     : 4096     Number of data points in the spectrum (This can be zero for configuration only files)
#NCOLUMNS    : 2     Number of data columns in the spectrum (This can be zero for configuration only files)
#XUNITS      : eV
#YUNITS      : COUNTS
#DATATYPE    : YY
#XPERCHAN    : 7.862, 7.881   eV per channel (separate by commas if more than one detector)
#OFFSET      : 18.5, -22.4         eV of first channel  (separate by commas if more than one detector
#SIGNALTYPE  : XRF
#YP_TEMP     : 3.037
#LIVETIME    : 9.00709, 9.00384   seconds (separate by commas if more than one detector)
#REALTIME    : 10, 10.0   seconds (separate by commas if more than one detector)
#SPECTRUM    : start of spectrum data
0, 0
0, 0
0, 0
0, 0
0, 0
0, 0
0, 0
1, 0
2, 2
2, 1
2, 0
30, 31
26, 28
7, 5
11, 9
77, 92
556, 554
78, 74
6, 5
2, 1
1, 1
6, 5
6, 4
12, 12
66, 61
57, 52
19, 21
14, 19
5, 5
8, 5
11, 8
2, 7
4, 3
31, 43
67, 49
22, 15
80, 16
56, 20
9, 1
3, 1
8, 7
21, 20
20, 18
13, 23
10, 4
15, 27
2, 13
7, 15
10, 10
20, 20
21, 10
19, 8
14, 13
43, 64
94, 105
18, 27
34, 41
597, 753
3393, 3556
2123, 1819
161, 112
24, 22
20, 28
142, 181
491, 529
287, 242
34, 18
11, 8
9, 10
10, 3
4, 3
3, 8
10, 4
7, 3
11, 6
6, 3
2, 8
3, 6
3, 5
4, 3
3, 7
2, 9
1, 2
4, 4
2, 2
4, 0
4, 2
5, 3
4, 2
3, 3
2, 8
5, 5
5, 3
5, 3
4, 3
7, 5
1, 4
3, 3
1, 0
3, 7
4, 2
3, 2
1, 4
3, 3
2, 2
1, 1
0, 6
2, 1
5, 4
1, 1
1, 1
3, 2
5, 4
3, 2
3, 4
1, 1
7, 4
4, 6
2, 4
0, 1
1, 0
5, 1
2, 1
2, 1
0, 1
1, 3
0, 1
1, 0
2, 4
1, 1
2, 1
1, 0
0, 0
2, 1
2, 0
0, 0
2, 1
3, 1
0, 1
0, 1
0, 1
0, 1
1, 0
1, 1
0, 1
0, 0
0, 1
0, 0
0, 0
1, 0
0, 1
1, 0
0, 1
1, 0
0, 0
0, 1
0, 0
1, 0
0, 0
0, 0
0, 1
0, 0
0, 0
0, 0
0, 0
0, 1
1, 0
0, 0
0, 0
1, 0
1, 0
0, 1
0, 0
2, 0
1, 0
0, 0
0, 0
0, 0
0, 0
0, 0
1, 0
0, 1
0, 0
0, 1
0, 0
0, 0
0, 0
0, 0
0, 0
0, 0
0, 0
0, 0
0, 0
0, 0
0, 0
1, 0
0, 0
0, 0
0, 0
0, 0
0, 0
0, 0
0, 0
0, 0
0, 0
0, 0
0, 0
0, 0
0, 0
0, 0
0, 0
0, 0
0, 0
0, 0
0, 0
0, 0
0, 0
0, 0
0, 0
0, 0
0, 0
0, 0
0, 0
0, 0
0, 0
0, 0
0, 0
0, 0
0, 0
0, 0
0, 0
0, 0
0, 0
0, 0
0, 0
0, 0
0, 0
0, 0
0, 0
0, 0
0, 0
0, 0
0, 0
0, 0
0, 0
0, 0
0, 0
0, 0
0, 0
0, 0
0, 0
0, 0
0, 0
0, 0
0, 0
0, 0
0, 0
0, 0
0, 0
0, 0
0, 0
0, 0
0, 0
0, 0
0, 0
0, 0
0, 0
0, 0
0, 0
0, 0
0, 0
0, 0
0, 0
0, 0
0, 0
0, 0
0, 0
0, 0
0, 0
0, 0
0, 0
0, 0
0, 0
0, 0
0, 0
0, 0
0, 0
0, 0
0, 0
0, 0
0, 0
0, 0
0, 0
0, 0
#ENDOFDATA     end of spectrum data