File: host_upload/12-01-2023/Dourbes (shot-by-shot)/upload_4/ps__0257_0689790785_000rfs_shot_3008.msa
#FORMAT      : EMSA/MAS spectral data file
#VERSION     : TC202v2.0 PIXL
#TITLE       : N/A
#DATE        :       Date in the format DD-MMM-YYYY, for example 07-JUL-2010
#TIME        :             The time of day at which the spectrum was recorded, in 24-hour format
#OWNER       : PIXL Flight Model       (PIXL will use this to indicate which instrument took the data.)
#NPOINTS     : 4096     Number of data points in the spectrum (This can be zero for configuration only files)
#NCOLUMNS    : 2     Number of data columns in the spectrum (This can be zero for configuration only files)
#XUNITS      : eV
#YUNITS      : COUNTS
#DATATYPE    : YY
#XPERCHAN    : 7.862, 7.881   eV per channel (separate by commas if more than one detector)
#OFFSET      : 18.5, -22.4         eV of first channel  (separate by commas if more than one detector
#SIGNALTYPE  : XRF
#YP_TEMP     : 2.973
#LIVETIME    : 8.97723, 8.98521   seconds (separate by commas if more than one detector)
#REALTIME    : 10, 10.0   seconds (separate by commas if more than one detector)
#SPECTRUM    : start of spectrum data
0, 0
0, 0
0, 0
0, 0
0, 0
0, 0
0, 0
0, 1
1, 3
12, 3
1, 1
22, 24
23, 32
3, 4
5, 3
50, 60
369, 369
61, 65
4, 5
4, 2
39, 36
239, 278
91, 88
45, 32
471, 140
665, 140
83, 47
29, 29
16, 6
5, 5
9, 11
6, 7
5, 7
54, 41
77, 86
17, 10
10, 8
16, 17
12, 5
9, 6
5, 8
26, 22
25, 59
22, 40
10, 6
10, 9
7, 9
6, 8
14, 14
23, 23
14, 15
8, 15
9, 21
77, 99
112, 107
36, 34
43, 43
578, 756
3207, 3578
2124, 1914
192, 160
47, 21
55, 17
138, 161
464, 535
306, 271
31, 18
7, 9
6, 4
5, 5
6, 6
4, 9
4, 7
6, 7
3, 3
7, 5
2, 1
5, 7
5, 3
1, 7
4, 10
1, 5
1, 6
3, 4
1, 14
0, 14
4, 5
4, 4
3, 2
2, 4
1, 2
2, 2
0, 6
1, 1
2, 2
2, 6
3, 4
5, 2
9, 0
8, 2
5, 1
0, 3
3, 5
3, 1
2, 2
2, 0
0, 3
0, 0
0, 5
4, 1
1, 2
2, 2
2, 2
1, 0
1, 2
0, 4
7, 7
5, 2
2, 0
0, 1
1, 0
1, 1
2, 4
5, 3
0, 1
1, 3
1, 2
0, 0
1, 1
1, 2
0, 1
1, 1
0, 2
1, 1
1, 0
2, 1
1, 1
0, 0
0, 0
0, 0
1, 1
0, 0
0, 0
0, 0
0, 0
0, 0
1, 0
1, 0
1, 0
0, 0
0, 0
0, 0
0, 1
0, 0
0, 0
0, 0
0, 0
0, 0
1, 0
0, 0
0, 0
0, 0
0, 1
0, 0
0, 0
0, 0
0, 0
0, 0
0, 0
0, 0
1, 0
0, 0
1, 1
1, 1
0, 0
0, 0
0, 0
0, 0
0, 0
0, 0
0, 0
1, 0
0, 0
1, 0
0, 1
0, 0
0, 0
0, 0
0, 0
0, 0
0, 0
0, 0
0, 0
0, 0
0, 0
0, 0
0, 0
0, 0
0, 0
0, 0
0, 0
0, 0
0, 0
0, 0
0, 0
0, 0
0, 2
0, 0
0, 0
0, 0
0, 0
0, 0
0, 0
0, 0
0, 0
0, 0
1, 0
0, 0
0, 0
0, 0
0, 0
0, 0
0, 0
0, 0
0, 0
0, 0
0, 0
0, 0
0, 0
0, 0
0, 0
0, 0
0, 0
0, 0
0, 0
0, 0
0, 0
0, 0
0, 0
0, 0
0, 0
0, 0
0, 0
0, 0
0, 0
0, 0
0, 0
0, 0
0, 0
0, 0
0, 0
0, 0
0, 0
0, 0
0, 0
0, 0
0, 0
0, 0
0, 0
0, 0
0, 0
0, 0
0, 0
0, 0
0, 0
0, 0
0, 0
0, 0
0, 0
0, 0
0, 0
0, 0
0, 0
0, 0
0, 0
0, 0
0, 0
0, 0
0, 0
0, 0
0, 0
0, 0
0, 0
0, 0
0, 0
0, 0
0, 0
0, 0
0, 0
0, 0
0, 0
0, 0
0, 0
0, 0
#ENDOFDATA     end of spectrum data