File: host_upload/12-01-2023/Dourbes (shot-by-shot)/upload_4/ps__0257_0689790785_000rfs_shot_3302.msa
#FORMAT      : EMSA/MAS spectral data file
#VERSION     : TC202v2.0 PIXL
#TITLE       : N/A
#DATE        :       Date in the format DD-MMM-YYYY, for example 07-JUL-2010
#TIME        :             The time of day at which the spectrum was recorded, in 24-hour format
#OWNER       : PIXL Flight Model       (PIXL will use this to indicate which instrument took the data.)
#NPOINTS     : 4096     Number of data points in the spectrum (This can be zero for configuration only files)
#NCOLUMNS    : 2     Number of data columns in the spectrum (This can be zero for configuration only files)
#XUNITS      : eV
#YUNITS      : COUNTS
#DATATYPE    : YY
#XPERCHAN    : 7.862, 7.881   eV per channel (separate by commas if more than one detector)
#OFFSET      : 18.5, -22.4         eV of first channel  (separate by commas if more than one detector
#SIGNALTYPE  : XRF
#YP_TEMP     : 3.037
#LIVETIME    : 9.00446, 9.0088   seconds (separate by commas if more than one detector)
#REALTIME    : 10, 10.0   seconds (separate by commas if more than one detector)
#SPECTRUM    : start of spectrum data
0, 0
0, 0
0, 0
0, 0
0, 0
0, 0
0, 0
0, 0
1, 1
1, 2
3, 4
36, 17
32, 30
5, 8
7, 6
80, 68
516, 446
107, 74
7, 5
6, 2
1, 2
8, 5
5, 10
12, 10
48, 53
56, 52
38, 63
19, 30
6, 5
1, 2
5, 2
0, 2
15, 3
33, 37
42, 66
10, 10
7, 16
15, 8
11, 6
4, 9
10, 14
37, 43
38, 35
40, 18
22, 11
11, 8
10, 12
6, 7
13, 9
23, 9
17, 18
13, 17
17, 29
67, 81
110, 82
36, 20
57, 45
669, 717
3732, 3533
2319, 1706
172, 108
22, 22
34, 36
165, 138
496, 516
346, 233
29, 16
8, 8
11, 6
15, 2
7, 0
5, 12
6, 6
7, 7
8, 0
6, 4
2, 3
5, 1
2, 5
7, 3
1, 1
5, 5
5, 5
5, 6
5, 4
2, 6
6, 4
4, 10
5, 4
3, 4
5, 3
2, 2
4, 2
3, 2
2, 5
5, 3
2, 2
3, 2
5, 2
2, 2
4, 2
1, 2
0, 3
0, 4
1, 3
2, 4
0, 0
4, 2
2, 1
1, 0
2, 1
2, 1
3, 1
3, 1
2, 1
2, 1
7, 6
2, 8
2, 0
1, 1
1, 0
1, 1
2, 3
0, 4
2, 0
2, 0
2, 0
1, 1
1, 0
2, 2
1, 0
4, 1
1, 1
0, 1
0, 0
0, 1
0, 0
0, 1
0, 1
0, 0
0, 0
1, 2
0, 0
0, 0
1, 0
0, 0
0, 0
0, 1
0, 0
0, 0
0, 0
1, 0
0, 0
0, 0
1, 0
0, 1
0, 1
0, 0
0, 1
0, 0
0, 0
0, 0
1, 1
1, 0
0, 0
1, 1
0, 0
1, 0
1, 1
0, 1
1, 0
0, 1
0, 1
0, 0
0, 0
0, 1
0, 0
0, 0
0, 1
0, 0
0, 0
0, 0
0, 0
0, 0
0, 0
0, 0
0, 0
0, 0
0, 0
0, 0
0, 0
0, 0
0, 1
1, 0
0, 0
0, 0
0, 0
0, 0
0, 0
0, 0
0, 0
0, 0
0, 0
0, 0
0, 0
0, 0
0, 0
0, 0
1, 0
1, 0
0, 0
0, 0
0, 0
0, 0
0, 0
0, 0
0, 0
0, 0
0, 0
0, 0
0, 0
0, 0
0, 0
0, 0
0, 0
0, 0
0, 0
0, 0
0, 0
0, 0
0, 0
0, 0
0, 0
0, 0
0, 0
0, 0
0, 0
0, 0
0, 0
0, 0
0, 0
0, 0
0, 0
0, 0
0, 0
0, 0
0, 0
0, 0
0, 0
0, 0
0, 0
0, 0
0, 0
0, 0
0, 0
0, 0
0, 0
0, 0
0, 0
0, 0
0, 0
0, 0
0, 0
0, 0
0, 0
0, 0
0, 0
0, 0
0, 0
0, 0
0, 0
0, 0
0, 0
0, 0
0, 0
0, 0
0, 0
0, 0
0, 0
0, 0
0, 0
0, 0
0, 0
0, 0
0, 0
0, 0
0, 0
0, 0
0, 0
0, 0
0, 0
0, 0
0, 0
0, 0
#ENDOFDATA     end of spectrum data