File: host_upload/12-01-2023/Dourbes (shot-by-shot)/upload_4/ps__0257_0689790785_000rfs_shot_3158.msa
#FORMAT      : EMSA/MAS spectral data file
#VERSION     : TC202v2.0 PIXL
#TITLE       : N/A
#DATE        :       Date in the format DD-MMM-YYYY, for example 07-JUL-2010
#TIME        :             The time of day at which the spectrum was recorded, in 24-hour format
#OWNER       : PIXL Flight Model       (PIXL will use this to indicate which instrument took the data.)
#NPOINTS     : 4096     Number of data points in the spectrum (This can be zero for configuration only files)
#NCOLUMNS    : 2     Number of data columns in the spectrum (This can be zero for configuration only files)
#XUNITS      : eV
#YUNITS      : COUNTS
#DATATYPE    : YY
#XPERCHAN    : 7.862, 7.881   eV per channel (separate by commas if more than one detector)
#OFFSET      : 18.5, -22.4         eV of first channel  (separate by commas if more than one detector
#SIGNALTYPE  : XRF
#YP_TEMP     : 3.133
#LIVETIME    : 9.00849, 8.98747   seconds (separate by commas if more than one detector)
#REALTIME    : 10, 10.0   seconds (separate by commas if more than one detector)
#SPECTRUM    : start of spectrum data
0, 0
0, 0
0, 0
0, 0
0, 0
0, 0
0, 0
0, 0
0, 1
0, 0
1, 1
21, 39
36, 30
2, 4
4, 6
62, 77
516, 524
93, 87
6, 5
2, 1
2, 0
2, 2
3, 1
7, 8
27, 22
29, 26
18, 21
10, 11
12, 8
2, 1
1, 1
0, 2
2, 3
9, 15
18, 18
3, 5
4, 2
7, 8
1, 9
0, 2
10, 66
13, 173
16, 69
14, 7
6, 7
6, 9
4, 8
8, 6
8, 8
11, 15
8, 7
10, 3
9, 24
56, 75
97, 105
27, 37
45, 70
636, 863
3621, 3882
2230, 1988
225, 119
28, 12
27, 14
150, 167
536, 573
271, 228
23, 19
6, 5
9, 7
7, 4
1, 4
3, 16
2, 16
0, 2
3, 7
6, 7
2, 3
1, 2
0, 2
1, 3
1, 2
0, 3
3, 2
2, 4
5, 1
1, 7
4, 5
1, 11
0, 9
4, 1
2, 1
1, 4
1, 1
2, 4
1, 0
0, 0
3, 2
4, 3
3, 6
6, 0
4, 4
1, 0
4, 3
3, 3
3, 3
1, 2
0, 0
2, 4
3, 0
2, 1
4, 3
3, 2
1, 7
0, 3
1, 4
1, 5
6, 6
7, 5
2, 0
1, 0
1, 3
3, 0
3, 4
3, 0
0, 0
1, 0
2, 1
1, 1
2, 2
1, 0
1, 0
0, 1
2, 0
0, 1
0, 2
0, 0
0, 0
1, 1
0, 1
1, 0
0, 0
0, 0
0, 1
0, 1
1, 1
2, 0
0, 0
0, 0
0, 0
1, 0
0, 0
0, 0
0, 0
1, 0
1, 0
2, 0
0, 0
0, 0
0, 1
0, 0
0, 0
0, 0
0, 1
0, 0
0, 0
0, 0
0, 0
0, 0
0, 1
1, 1
0, 0
0, 1
0, 1
1, 0
0, 0
1, 0
0, 2
0, 1
0, 0
0, 1
0, 0
1, 0
0, 1
0, 0
0, 0
0, 0
0, 0
0, 0
0, 0
0, 0
0, 0
1, 1
0, 0
0, 0
2, 0
0, 0
0, 0
0, 1
0, 0
0, 0
0, 0
0, 0
0, 0
0, 0
0, 0
0, 0
0, 0
0, 0
0, 0
0, 0
0, 0
0, 0
0, 0
0, 0
0, 0
0, 0
0, 0
0, 0
0, 0
0, 0
0, 0
0, 0
0, 0
0, 0
0, 0
0, 0
0, 1
0, 0
0, 0
0, 0
0, 0
0, 0
0, 0
0, 0
0, 0
0, 0
0, 0
0, 0
0, 0
0, 0
0, 0
0, 0
0, 0
0, 0
0, 0
0, 0
0, 0
0, 0
0, 0
0, 0
0, 0
0, 0
0, 0
0, 0
0, 0
0, 0
0, 0
0, 0
0, 0
0, 0
0, 0
0, 0
0, 0
0, 0
0, 0
0, 0
0, 0
0, 0
0, 0
0, 0
0, 0
0, 0
0, 0
0, 0
0, 0
0, 0
0, 0
0, 0
0, 0
0, 0
0, 0
0, 0
0, 0
0, 0
0, 0
0, 0
0, 0
0, 0
0, 0
0, 0
0, 0
0, 0
0, 0
0, 0
#ENDOFDATA     end of spectrum data