File: host_upload/12-01-2023/Dourbes (shot-by-shot)/upload_4/ps__0257_0689790785_000rfs_shot_3266.msa
#FORMAT      : EMSA/MAS spectral data file
#VERSION     : TC202v2.0 PIXL
#TITLE       : N/A
#DATE        :       Date in the format DD-MMM-YYYY, for example 07-JUL-2010
#TIME        :             The time of day at which the spectrum was recorded, in 24-hour format
#OWNER       : PIXL Flight Model       (PIXL will use this to indicate which instrument took the data.)
#NPOINTS     : 4096     Number of data points in the spectrum (This can be zero for configuration only files)
#NCOLUMNS    : 2     Number of data columns in the spectrum (This can be zero for configuration only files)
#XUNITS      : eV
#YUNITS      : COUNTS
#DATATYPE    : YY
#XPERCHAN    : 7.862, 7.881   eV per channel (separate by commas if more than one detector)
#OFFSET      : 18.5, -22.4         eV of first channel  (separate by commas if more than one detector
#SIGNALTYPE  : XRF
#YP_TEMP     : 3.037
#LIVETIME    : 9.00262, 9.00246   seconds (separate by commas if more than one detector)
#REALTIME    : 10, 10.0   seconds (separate by commas if more than one detector)
#SPECTRUM    : start of spectrum data
0, 0
0, 0
0, 0
0, 0
0, 0
0, 0
0, 0
0, 0
0, 1
1, 0
4, 0
24, 12
35, 32
11, 8
12, 11
75, 79
521, 486
82, 72
8, 5
1, 4
1, 2
2, 6
2, 3
5, 8
38, 39
44, 45
23, 23
18, 18
5, 4
9, 5
10, 12
7, 3
5, 11
23, 22
34, 33
3, 18
5, 14
4, 11
5, 6
7, 4
34, 38
176, 157
58, 63
22, 27
14, 20
40, 30
18, 23
4, 22
24, 29
109, 141
85, 87
23, 13
15, 21
64, 62
93, 97
28, 61
41, 50
636, 722
3409, 3560
2103, 1763
152, 129
25, 24
26, 33
146, 151
531, 514
315, 231
31, 13
4, 5
8, 8
5, 7
3, 5
5, 5
1, 4
11, 11
6, 11
9, 1
2, 4
2, 5
4, 3
9, 7
9, 8
0, 4
5, 3
5, 4
1, 3
2, 3
4, 1
4, 2
4, 4
1, 3
1, 1
4, 4
2, 4
3, 4
4, 3
1, 5
1, 3
1, 4
2, 3
3, 1
2, 0
2, 2
1, 0
3, 2
5, 2
2, 0
1, 2
2, 3
2, 2
3, 2
2, 0
2, 2
1, 1
1, 3
2, 1
2, 5
9, 14
7, 3
1, 2
0, 5
4, 1
3, 1
4, 5
1, 0
5, 0
0, 0
1, 2
1, 1
2, 0
1, 0
0, 2
0, 0
0, 1
0, 1
0, 1
0, 2
2, 1
1, 0
0, 0
0, 0
0, 0
1, 0
1, 0
0, 1
0, 1
1, 0
0, 1
0, 1
0, 0
1, 1
0, 0
0, 1
1, 0
0, 0
0, 0
1, 0
0, 1
0, 0
1, 0
0, 1
1, 0
0, 0
1, 0
0, 0
0, 0
0, 0
0, 0
1, 0
0, 0
0, 0
0, 0
0, 0
0, 0
1, 0
1, 1
1, 0
0, 0
0, 0
0, 0
0, 1
1, 0
0, 0
0, 0
0, 1
1, 0
0, 0
0, 0
0, 0
0, 0
0, 0
0, 0
0, 0
1, 0
0, 0
0, 0
0, 0
0, 0
0, 0
0, 0
0, 0
0, 0
0, 0
0, 0
0, 0
0, 0
0, 0
0, 0
0, 0
0, 0
0, 0
0, 0
0, 0
0, 0
0, 0
0, 0
0, 0
0, 0
0, 0
0, 0
0, 0
0, 0
0, 0
0, 0
0, 0
0, 0
0, 0
0, 0
0, 0
0, 0
0, 0
0, 0
0, 0
0, 0
0, 0
0, 0
0, 0
0, 0
0, 0
0, 0
0, 0
0, 0
0, 0
0, 0
0, 0
0, 0
0, 0
0, 0
0, 0
0, 0
0, 0
0, 0
0, 0
0, 0
0, 0
0, 0
0, 0
0, 0
0, 0
0, 0
0, 0
0, 0
0, 0
0, 0
0, 0
0, 0
0, 0
0, 0
0, 0
0, 0
0, 0
0, 0
0, 0
0, 0
0, 0
0, 0
0, 0
0, 0
0, 0
0, 0
0, 0
0, 0
0, 0
0, 0
0, 0
0, 0
0, 0
0, 0
0, 0
0, 0
0, 0
0, 0
0, 0
0, 0
0, 0
#ENDOFDATA     end of spectrum data