File: host_upload/12-01-2023/Dourbes (shot-by-shot)/upload_4/ps__0257_0689790785_000rfs_shot_3121.msa
#FORMAT      : EMSA/MAS spectral data file
#VERSION     : TC202v2.0 PIXL
#TITLE       : N/A
#DATE        :       Date in the format DD-MMM-YYYY, for example 07-JUL-2010
#TIME        :             The time of day at which the spectrum was recorded, in 24-hour format
#OWNER       : PIXL Flight Model       (PIXL will use this to indicate which instrument took the data.)
#NPOINTS     : 4096     Number of data points in the spectrum (This can be zero for configuration only files)
#NCOLUMNS    : 2     Number of data columns in the spectrum (This can be zero for configuration only files)
#XUNITS      : eV
#YUNITS      : COUNTS
#DATATYPE    : YY
#XPERCHAN    : 7.862, 7.881   eV per channel (separate by commas if more than one detector)
#OFFSET      : 18.5, -22.4         eV of first channel  (separate by commas if more than one detector
#SIGNALTYPE  : XRF
#YP_TEMP     : 3.326
#LIVETIME    : 9.15126, 9.12509   seconds (separate by commas if more than one detector)
#REALTIME    : 10, 10.0   seconds (separate by commas if more than one detector)
#SPECTRUM    : start of spectrum data
0, 0
0, 0
0, 0
0, 0
0, 0
0, 0
0, 0
0, 0
1, 1
1, 1
1, 2
22, 22
29, 29
3, 2
9, 12
107, 140
734, 878
136, 132
13, 20
6, 4
3, 0
6, 10
8, 4
4, 3
24, 27
33, 37
30, 24
18, 20
8, 6
3, 7
3, 4
4, 5
26, 31
523, 653
880, 1000
102, 79
119, 110
141, 125
12, 18
4, 5
12, 9
31, 28
12, 19
4, 12
4, 9
10, 9
7, 8
10, 6
9, 17
32, 53
32, 24
3, 6
9, 9
36, 63
56, 61
15, 17
19, 26
190, 303
1039, 1342
681, 640
64, 50
7, 11
14, 13
38, 73
177, 229
92, 144
24, 15
15, 3
30, 8
20, 6
4, 5
6, 5
6, 7
7, 1
9, 7
8, 6
3, 5
6, 7
11, 5
4, 7
3, 5
8, 3
4, 4
2, 6
7, 7
8, 2
11, 4
4, 3
7, 3
1, 4
0, 3
5, 6
4, 3
8, 5
2, 6
4, 5
2, 0
4, 2
1, 1
4, 4
4, 2
1, 5
3, 2
2, 0
1, 4
1, 3
1, 12
2, 4
4, 7
2, 2
3, 4
2, 2
2, 3
2, 4
1, 2
1, 0
3, 3
0, 4
2, 0
0, 0
3, 2
1, 1
0, 4
4, 0
0, 0
2, 1
1, 0
1, 1
2, 3
0, 2
2, 1
0, 1
2, 0
1, 0
0, 3
1, 0
0, 2
2, 2
1, 1
0, 1
1, 2
2, 0
1, 0
1, 0
0, 1
1, 0
0, 2
2, 1
0, 0
0, 0
1, 0
0, 0
0, 2
1, 0
0, 0
0, 0
1, 1
1, 0
0, 0
0, 0
0, 0
0, 0
1, 1
0, 0
3, 0
0, 0
1, 0
0, 0
0, 0
0, 0
1, 0
0, 0
1, 0
0, 1
0, 0
0, 0
0, 2
0, 0
0, 0
0, 0
0, 0
0, 0
0, 1
0, 0
0, 1
0, 0
1, 0
0, 0
0, 0
0, 0
0, 0
0, 0
0, 0
0, 0
1, 0
0, 0
0, 0
0, 0
0, 0
0, 0
0, 0
0, 0
0, 0
0, 0
0, 0
0, 0
0, 0
0, 0
0, 0
0, 0
0, 0
0, 0
0, 0
0, 0
0, 0
0, 0
0, 0
0, 0
0, 0
0, 0
0, 0
0, 0
0, 0
0, 0
0, 0
0, 0
0, 0
0, 0
0, 0
0, 0
0, 0
0, 0
0, 0
0, 0
0, 0
0, 0
0, 0
0, 0
0, 0
0, 0
0, 0
0, 0
0, 0
0, 0
0, 0
0, 0
0, 0
0, 0
0, 0
0, 0
0, 0
0, 0
0, 0
0, 0
0, 0
0, 0
0, 0
0, 0
0, 0
0, 0
0, 0
0, 0
0, 0
0, 0
0, 0
0, 0
0, 0
0, 0
0, 0
0, 0
0, 0
0, 0
0, 0
0, 0
0, 0
0, 0
0, 0
0, 0
0, 0
0, 0
0, 0
0, 0
0, 0
0, 0
0, 0
0, 0
0, 0
0, 0
0, 0
0, 0
0, 0
0, 0
0, 0
0, 0
#ENDOFDATA     end of spectrum data