File: host_upload/12-01-2023/Dourbes (shot-by-shot)/upload_4/ps__0257_0689790785_000rfs_shot_3166.msa
#FORMAT      : EMSA/MAS spectral data file
#VERSION     : TC202v2.0 PIXL
#TITLE       : N/A
#DATE        :       Date in the format DD-MMM-YYYY, for example 07-JUL-2010
#TIME        :             The time of day at which the spectrum was recorded, in 24-hour format
#OWNER       : PIXL Flight Model       (PIXL will use this to indicate which instrument took the data.)
#NPOINTS     : 4096     Number of data points in the spectrum (This can be zero for configuration only files)
#NCOLUMNS    : 2     Number of data columns in the spectrum (This can be zero for configuration only files)
#XUNITS      : eV
#YUNITS      : COUNTS
#DATATYPE    : YY
#XPERCHAN    : 7.862, 7.881   eV per channel (separate by commas if more than one detector)
#OFFSET      : 18.5, -22.4         eV of first channel  (separate by commas if more than one detector
#SIGNALTYPE  : XRF
#YP_TEMP     : 3.133
#LIVETIME    : 9.00359, 9.01069   seconds (separate by commas if more than one detector)
#REALTIME    : 10, 10.0   seconds (separate by commas if more than one detector)
#SPECTRUM    : start of spectrum data
0, 0
0, 0
0, 0
0, 0
0, 0
0, 0
0, 0
0, 0
0, 0
3, 3
5, 2
34, 20
32, 34
4, 4
9, 10
78, 82
611, 482
110, 81
3, 3
4, 2
2, 3
3, 3
5, 3
13, 10
54, 63
46, 40
24, 21
14, 10
4, 9
6, 2
5, 6
6, 2
4, 1
24, 16
23, 23
9, 25
35, 58
24, 21
7, 3
1, 3
10, 12
39, 42
28, 24
17, 7
30, 7
16, 15
5, 8
8, 4
6, 11
23, 27
24, 19
16, 14
14, 15
64, 59
84, 90
27, 22
29, 40
645, 749
3664, 3403
2342, 1757
163, 122
21, 13
34, 26
147, 183
563, 534
307, 207
25, 18
3, 12
6, 15
4, 4
4, 5
3, 10
4, 19
9, 3
9, 10
4, 5
5, 4
3, 4
2, 7
2, 3
2, 8
5, 11
4, 7
4, 2
3, 1
2, 1
5, 5
11, 2
4, 1
6, 4
5, 5
4, 3
5, 4
13, 3
9, 2
15, 5
5, 1
1, 0
1, 5
5, 7
1, 3
6, 3
1, 4
5, 1
1, 2
5, 0
4, 1
0, 0
2, 2
0, 1
2, 2
4, 2
3, 2
1, 6
3, 5
0, 3
9, 9
3, 7
3, 0
2, 2
1, 1
4, 0
2, 1
3, 1
5, 3
1, 0
1, 1
1, 0
2, 1
2, 1
3, 0
1, 0
2, 1
0, 1
1, 1
1, 0
0, 0
1, 2
0, 0
0, 0
0, 0
1, 1
0, 0
0, 0
0, 0
2, 1
1, 0
0, 0
0, 0
3, 0
0, 0
0, 0
0, 0
1, 3
0, 1
1, 0
1, 0
1, 1
0, 0
0, 0
0, 1
0, 0
0, 0
0, 1
0, 0
0, 0
0, 1
0, 0
0, 0
0, 0
0, 0
0, 0
0, 0
0, 0
0, 0
0, 0
0, 1
0, 0
0, 0
0, 0
0, 0
0, 0
0, 0
0, 0
0, 0
1, 1
0, 0
0, 0
0, 0
0, 0
0, 0
0, 0
1, 0
0, 0
0, 0
0, 0
0, 0
0, 0
0, 0
0, 0
0, 0
0, 0
0, 0
0, 0
0, 0
0, 0
0, 0
0, 0
0, 0
0, 0
0, 0
0, 0
0, 0
0, 0
0, 0
0, 0
0, 0
0, 0
0, 0
0, 0
0, 0
0, 0
0, 0
0, 0
0, 0
0, 0
0, 0
0, 0
0, 0
0, 0
0, 0
0, 0
0, 0
0, 0
0, 0
0, 0
0, 0
0, 0
0, 0
0, 0
0, 0
0, 0
0, 0
0, 0
0, 0
0, 0
0, 0
0, 0
0, 0
0, 0
0, 0
0, 0
0, 0
0, 0
0, 0
0, 0
0, 0
0, 0
0, 0
0, 0
0, 0
0, 0
0, 0
0, 0
0, 0
0, 0
0, 0
0, 0
0, 0
0, 0
0, 0
0, 0
0, 0
0, 0
0, 0
0, 0
0, 0
0, 0
0, 0
0, 0
0, 0
0, 0
0, 0
0, 0
0, 0
0, 0
0, 0
0, 0
0, 0
0, 0
0, 0
0, 0
0, 0
0, 0
#ENDOFDATA     end of spectrum data