File: host_upload/12-01-2023/Dourbes (shot-by-shot)/upload_4/ps__0257_0689790785_000rfs_shot_3056.msa
#FORMAT      : EMSA/MAS spectral data file
#VERSION     : TC202v2.0 PIXL
#TITLE       : N/A
#DATE        :       Date in the format DD-MMM-YYYY, for example 07-JUL-2010
#TIME        :             The time of day at which the spectrum was recorded, in 24-hour format
#OWNER       : PIXL Flight Model       (PIXL will use this to indicate which instrument took the data.)
#NPOINTS     : 4096     Number of data points in the spectrum (This can be zero for configuration only files)
#NCOLUMNS    : 2     Number of data columns in the spectrum (This can be zero for configuration only files)
#XUNITS      : eV
#YUNITS      : COUNTS
#DATATYPE    : YY
#XPERCHAN    : 7.862, 7.881   eV per channel (separate by commas if more than one detector)
#OFFSET      : 18.5, -22.4         eV of first channel  (separate by commas if more than one detector
#SIGNALTYPE  : XRF
#YP_TEMP     : 2.877
#LIVETIME    : 8.98617, 9.02293   seconds (separate by commas if more than one detector)
#REALTIME    : 10, 10.0   seconds (separate by commas if more than one detector)
#SPECTRUM    : start of spectrum data
0, 0
0, 0
0, 0
0, 0
0, 0
0, 0
0, 0
1, 0
8, 7
15, 4
5, 3
22, 24
24, 23
20, 7
24, 25
104, 116
613, 662
127, 106
6, 7
9, 3
10, 11
84, 94
27, 20
53, 30
764, 177
1249, 97
119, 55
16, 24
5, 8
5, 11
11, 24
17, 9
5, 4
45, 58
37, 61
10, 13
13, 9
20, 13
5, 4
7, 9
9, 10
26, 37
25, 56
21, 32
10, 20
15, 9
16, 4
11, 8
11, 11
20, 13
12, 12
8, 9
9, 13
50, 52
71, 67
16, 31
26, 37
530, 654
2967, 3193
1956, 1548
160, 109
58, 14
83, 27
146, 131
441, 467
233, 233
27, 19
10, 7
7, 10
10, 8
4, 7
4, 12
4, 9
4, 5
7, 4
2, 6
6, 4
6, 1
3, 2
2, 9
4, 8
2, 2
5, 7
7, 6
6, 8
5, 7
5, 7
0, 5
5, 3
3, 3
1, 2
0, 1
2, 3
3, 1
5, 0
2, 3
1, 5
9, 2
7, 5
4, 2
6, 6
2, 1
1, 3
3, 2
3, 1
0, 2
4, 2
2, 2
1, 4
1, 1
4, 0
1, 2
3, 3
0, 2
2, 4
2, 3
6, 8
2, 6
1, 4
1, 1
0, 0
1, 1
2, 4
1, 1
0, 0
0, 0
1, 2
0, 1
1, 0
0, 0
2, 0
0, 0
0, 0
1, 1
0, 0
1, 0
1, 0
0, 1
1, 2
0, 0
2, 0
2, 1
0, 0
0, 0
0, 0
1, 1
0, 1
0, 0
0, 0
3, 0
0, 0
0, 0
1, 0
0, 1
0, 0
0, 0
0, 0
0, 0
0, 0
1, 0
0, 0
0, 0
1, 1
0, 0
0, 0
0, 0
0, 0
0, 0
0, 0
1, 0
0, 0
0, 0
0, 0
0, 0
0, 0
0, 0
1, 0
0, 0
0, 0
0, 0
1, 0
0, 0
0, 1
0, 0
0, 0
0, 0
0, 0
0, 0
0, 0
0, 0
0, 0
0, 0
0, 0
0, 0
1, 0
0, 0
0, 0
1, 0
0, 0
0, 0
0, 0
0, 0
0, 0
0, 0
0, 0
0, 0
0, 0
0, 0
0, 0
0, 0
0, 0
0, 0
0, 0
0, 0
1, 0
0, 0
0, 0
0, 0
0, 0
0, 0
0, 0
0, 0
0, 0
0, 0
0, 0
0, 0
0, 0
0, 0
0, 0
0, 0
0, 0
0, 0
0, 0
0, 0
0, 0
0, 0
0, 0
0, 0
0, 0
0, 0
0, 0
0, 0
0, 0
0, 0
0, 0
0, 0
0, 0
0, 0
0, 0
0, 0
0, 0
0, 0
0, 0
0, 0
0, 0
0, 0
0, 0
0, 0
0, 0
0, 0
0, 0
0, 0
0, 0
0, 0
0, 0
0, 0
0, 0
0, 0
0, 0
0, 0
0, 0
0, 0
0, 0
0, 0
0, 0
0, 0
0, 0
0, 0
0, 0
0, 0
0, 0
0, 0
0, 0
0, 0
0, 0
0, 0
0, 0
0, 0
0, 0
0, 0
0, 0
0, 0
0, 0
0, 0
#ENDOFDATA     end of spectrum data