File: host_upload/12-01-2023/Dourbes (shot-by-shot)/upload_4/ps__0257_0689790785_000rfs_shot_3080.msa
#FORMAT      : EMSA/MAS spectral data file
#VERSION     : TC202v2.0 PIXL
#TITLE       : N/A
#DATE        :       Date in the format DD-MMM-YYYY, for example 07-JUL-2010
#TIME        :             The time of day at which the spectrum was recorded, in 24-hour format
#OWNER       : PIXL Flight Model       (PIXL will use this to indicate which instrument took the data.)
#NPOINTS     : 4096     Number of data points in the spectrum (This can be zero for configuration only files)
#NCOLUMNS    : 2     Number of data columns in the spectrum (This can be zero for configuration only files)
#XUNITS      : eV
#YUNITS      : COUNTS
#DATATYPE    : YY
#XPERCHAN    : 7.862, 7.881   eV per channel (separate by commas if more than one detector)
#OFFSET      : 18.5, -22.4         eV of first channel  (separate by commas if more than one detector
#SIGNALTYPE  : XRF
#YP_TEMP     : 3.133
#LIVETIME    : 9.00183, 8.99878   seconds (separate by commas if more than one detector)
#REALTIME    : 10, 10.0   seconds (separate by commas if more than one detector)
#SPECTRUM    : start of spectrum data
0, 0
0, 0
0, 0
0, 0
0, 0
0, 0
0, 0
0, 0
1, 1
1, 0
1, 2
31, 35
42, 41
2, 3
5, 0
76, 62
537, 489
92, 65
2, 11
1, 3
1, 1
4, 7
3, 1
6, 3
39, 38
27, 26
13, 16
10, 18
4, 3
2, 2
3, 1
1, 1
3, 4
29, 34
50, 62
5, 6
11, 10
12, 12
4, 4
2, 5
4, 7
10, 14
18, 18
15, 10
2, 6
6, 10
7, 6
6, 3
6, 5
13, 11
10, 13
7, 10
14, 6
56, 81
87, 72
25, 21
42, 44
675, 769
3577, 3808
2293, 2010
180, 134
17, 66
23, 69
142, 168
516, 557
318, 275
32, 33
9, 14
6, 2
9, 2
4, 9
1, 12
6, 6
4, 2
4, 4
2, 2
0, 1
6, 1
4, 3
6, 2
3, 2
2, 3
3, 2
3, 1
2, 4
1, 1
1, 1
1, 4
0, 2
6, 0
1, 4
1, 4
1, 7
5, 1
2, 3
4, 1
2, 5
1, 0
2, 2
2, 4
4, 2
3, 2
3, 3
1, 4
0, 4
1, 1
2, 3
6, 3
2, 1
0, 1
2, 1
4, 3
2, 1
1, 3
3, 2
1, 6
2, 8
5, 5
2, 1
1, 0
0, 5
3, 2
7, 5
4, 1
2, 2
1, 0
2, 2
1, 2
1, 0
0, 1
1, 1
0, 0
0, 0
1, 0
0, 1
1, 2
2, 0
1, 0
0, 0
2, 0
2, 1
2, 1
0, 0
1, 1
0, 0
1, 1
1, 0
1, 0
0, 0
0, 0
0, 0
1, 1
0, 0
0, 0
0, 0
0, 0
0, 0
1, 2
0, 2
1, 0
1, 0
0, 1
0, 0
1, 0
0, 0
0, 0
0, 0
0, 0
0, 1
1, 2
0, 0
0, 0
0, 0
1, 1
0, 0
0, 0
0, 0
0, 0
0, 0
0, 0
0, 0
0, 0
1, 0
0, 0
1, 0
0, 0
0, 0
0, 0
0, 0
0, 1
0, 0
0, 0
0, 0
0, 0
0, 0
0, 0
0, 0
0, 0
0, 0
0, 0
0, 0
0, 0
0, 0
0, 0
0, 0
0, 0
0, 0
0, 0
0, 0
0, 1
0, 0
0, 0
0, 0
0, 0
0, 0
0, 0
0, 0
0, 0
0, 0
0, 0
0, 0
0, 0
0, 0
0, 0
0, 0
0, 0
0, 0
0, 0
0, 0
0, 0
0, 0
0, 0
0, 0
0, 0
0, 0
0, 0
0, 0
0, 0
0, 0
0, 0
0, 0
0, 0
0, 0
0, 0
0, 0
0, 0
0, 0
0, 0
0, 0
0, 0
0, 0
0, 0
0, 0
0, 0
0, 0
0, 0
0, 0
0, 0
0, 0
0, 0
0, 0
0, 0
0, 0
0, 0
0, 0
0, 0
0, 0
0, 0
0, 0
0, 0
0, 0
0, 0
0, 0
0, 0
0, 0
0, 0
0, 0
0, 0
0, 0
0, 0
0, 0
0, 0
0, 0
0, 0
0, 0
0, 0
0, 0
0, 0
0, 0
0, 0
0, 0
0, 0
0, 0
0, 0
#ENDOFDATA     end of spectrum data