File: host_upload/12-01-2023/Dourbes (shot-by-shot)/upload_4/ps__0257_0689790785_000rfs_shot_3020.msa
#FORMAT      : EMSA/MAS spectral data file
#VERSION     : TC202v2.0 PIXL
#TITLE       : N/A
#DATE        :       Date in the format DD-MMM-YYYY, for example 07-JUL-2010
#TIME        :             The time of day at which the spectrum was recorded, in 24-hour format
#OWNER       : PIXL Flight Model       (PIXL will use this to indicate which instrument took the data.)
#NPOINTS     : 4096     Number of data points in the spectrum (This can be zero for configuration only files)
#NCOLUMNS    : 2     Number of data columns in the spectrum (This can be zero for configuration only files)
#XUNITS      : eV
#YUNITS      : COUNTS
#DATATYPE    : YY
#XPERCHAN    : 7.862, 7.881   eV per channel (separate by commas if more than one detector)
#OFFSET      : 18.5, -22.4         eV of first channel  (separate by commas if more than one detector
#SIGNALTYPE  : XRF
#YP_TEMP     : 3.069
#LIVETIME    : 9.0754, 9.07199   seconds (separate by commas if more than one detector)
#REALTIME    : 10, 10.0   seconds (separate by commas if more than one detector)
#SPECTRUM    : start of spectrum data
0, 0
0, 0
0, 0
0, 0
0, 0
0, 0
0, 0
0, 1
2, 1
2, 1
3, 3
16, 18
20, 30
2, 1
3, 4
116, 108
699, 710
120, 103
2, 7
1, 2
11, 4
47, 44
13, 15
11, 24
109, 94
95, 89
50, 41
23, 22
5, 6
5, 3
4, 4
5, 1
4, 3
36, 35
51, 47
9, 15
5, 10
10, 8
6, 8
4, 11
6, 12
18, 16
19, 16
11, 15
6, 5
8, 8
11, 5
10, 10
9, 14
19, 36
18, 49
15, 27
11, 15
48, 42
72, 77
32, 19
34, 28
446, 561
2540, 2707
1663, 1488
129, 101
18, 17
29, 41
102, 122
422, 433
220, 220
26, 18
7, 10
3, 13
10, 6
6, 6
3, 10
7, 12
3, 9
10, 6
4, 4
5, 6
9, 9
4, 5
12, 9
7, 7
4, 10
3, 6
3, 3
6, 6
3, 4
4, 3
5, 7
2, 3
5, 12
4, 7
4, 5
8, 5
6, 4
6, 6
1, 8
3, 1
2, 6
4, 7
4, 7
0, 6
1, 3
7, 5
5, 4
3, 2
6, 2
3, 0
2, 3
3, 5
3, 2
4, 3
3, 2
3, 1
2, 3
1, 3
2, 1
7, 4
4, 5
5, 3
0, 3
0, 2
2, 3
2, 0
1, 5
2, 1
2, 2
0, 1
2, 2
2, 0
2, 1
0, 1
0, 4
0, 0
0, 1
0, 0
1, 2
0, 0
2, 2
3, 1
2, 0
0, 1
0, 1
0, 0
0, 0
1, 1
1, 0
0, 1
0, 0
2, 0
0, 0
1, 1
0, 1
0, 0
1, 0
0, 0
0, 0
0, 0
0, 0
0, 0
0, 0
0, 1
0, 1
0, 0
0, 1
0, 1
0, 0
0, 0
0, 0
0, 0
0, 0
0, 0
1, 0
0, 0
1, 0
0, 0
0, 0
0, 1
0, 0
0, 0
0, 0
0, 0
0, 0
0, 0
0, 0
0, 0
0, 1
0, 0
0, 0
0, 0
0, 0
0, 0
0, 0
0, 0
0, 0
0, 0
0, 0
0, 0
0, 0
0, 0
0, 0
0, 0
0, 0
0, 0
0, 0
0, 0
0, 0
0, 0
0, 0
0, 0
0, 0
0, 0
0, 0
0, 0
0, 0
0, 0
0, 0
0, 0
0, 0
0, 0
0, 0
0, 0
0, 0
0, 0
0, 0
0, 0
0, 0
0, 0
0, 0
0, 0
0, 0
0, 0
0, 0
0, 0
0, 0
0, 0
0, 0
0, 0
0, 0
0, 0
0, 0
0, 0
0, 0
0, 0
0, 0
0, 0
0, 0
0, 0
0, 0
0, 0
0, 0
0, 0
0, 0
0, 0
0, 0
0, 0
0, 0
0, 0
0, 0
0, 0
0, 0
0, 0
0, 0
0, 0
0, 0
0, 0
0, 0
0, 0
0, 0
0, 0
0, 0
0, 0
0, 0
0, 0
0, 0
0, 0
0, 0
0, 0
0, 0
0, 0
0, 0
0, 0
0, 0
0, 0
0, 0
0, 0
0, 0
0, 0
0, 0
0, 0
0, 0
0, 0
0, 0
0, 0
0, 0
#ENDOFDATA     end of spectrum data