File: host_upload/12-01-2023/Dourbes (shot-by-shot)/upload_4/ps__0257_0689790785_000rfs_shot_3198.msa
#FORMAT      : EMSA/MAS spectral data file
#VERSION     : TC202v2.0 PIXL
#TITLE       : N/A
#DATE        :       Date in the format DD-MMM-YYYY, for example 07-JUL-2010
#TIME        :             The time of day at which the spectrum was recorded, in 24-hour format
#OWNER       : PIXL Flight Model       (PIXL will use this to indicate which instrument took the data.)
#NPOINTS     : 4096     Number of data points in the spectrum (This can be zero for configuration only files)
#NCOLUMNS    : 2     Number of data columns in the spectrum (This can be zero for configuration only files)
#XUNITS      : eV
#YUNITS      : COUNTS
#DATATYPE    : YY
#XPERCHAN    : 7.862, 7.881   eV per channel (separate by commas if more than one detector)
#OFFSET      : 18.5, -22.4         eV of first channel  (separate by commas if more than one detector
#SIGNALTYPE  : XRF
#YP_TEMP     : 3.165
#LIVETIME    : 9.02058, 9.00419   seconds (separate by commas if more than one detector)
#REALTIME    : 10, 10.0   seconds (separate by commas if more than one detector)
#SPECTRUM    : start of spectrum data
0, 0
0, 0
0, 0
0, 0
0, 0
0, 0
0, 0
0, 0
0, 0
2, 1
2, 3
22, 13
39, 34
6, 11
15, 23
78, 63
490, 471
78, 82
7, 4
2, 3
2, 6
11, 14
6, 5
8, 8
56, 56
58, 52
28, 33
17, 14
2, 4
7, 9
19, 24
15, 17
9, 11
27, 36
51, 34
13, 24
12, 11
7, 9
8, 7
13, 8
93, 101
381, 401
153, 120
21, 15
20, 27
69, 55
32, 24
9, 30
51, 77
356, 401
232, 199
27, 23
10, 21
51, 74
117, 125
44, 37
27, 30
511, 615
2793, 3025
1746, 1477
112, 86
16, 23
29, 25
126, 162
443, 437
215, 228
19, 19
7, 5
9, 5
9, 7
4, 5
6, 5
5, 6
3, 6
11, 2
4, 7
0, 5
1, 7
4, 3
4, 6
8, 7
3, 2
3, 5
4, 4
2, 6
3, 4
2, 2
6, 3
7, 7
4, 5
4, 3
2, 2
7, 4
2, 4
2, 4
1, 4
6, 3
6, 1
2, 1
1, 4
2, 2
1, 3
0, 1
3, 0
5, 4
4, 3
5, 2
7, 3
2, 2
2, 1
2, 3
3, 2
1, 2
1, 1
2, 6
4, 5
0, 0
3, 3
1, 3
3, 2
2, 2
1, 1
3, 2
4, 1
1, 0
0, 0
3, 1
0, 2
1, 0
2, 0
0, 0
0, 1
1, 2
0, 0
0, 0
0, 1
0, 2
1, 0
2, 2
0, 1
1, 0
0, 1
0, 0
0, 0
1, 0
0, 1
0, 1
0, 0
0, 0
0, 0
0, 1
0, 0
1, 1
0, 0
1, 0
0, 1
0, 0
0, 1
0, 0
0, 0
0, 1
0, 0
0, 0
1, 0
0, 0
0, 0
0, 0
1, 1
0, 1
0, 0
0, 0
0, 0
0, 0
0, 0
0, 0
0, 0
2, 1
1, 1
0, 1
0, 0
0, 0
0, 0
0, 0
0, 0
0, 0
0, 0
0, 1
0, 0
0, 0
0, 0
0, 0
0, 0
0, 0
0, 0
0, 0
0, 0
0, 0
0, 0
0, 0
0, 0
0, 0
0, 0
0, 0
1, 0
0, 0
0, 0
0, 0
0, 0
0, 0
0, 0
0, 1
0, 0
1, 0
0, 0
0, 0
0, 0
0, 0
0, 0
0, 0
0, 0
0, 0
0, 0
0, 0
0, 0
0, 0
0, 0
0, 0
0, 0
0, 0
0, 0
0, 0
0, 0
0, 0
0, 0
0, 0
0, 0
0, 0
0, 0
0, 0
0, 0
0, 0
0, 0
0, 0
0, 0
0, 0
0, 0
0, 0
0, 0
0, 0
0, 0
0, 0
0, 0
0, 0
0, 0
0, 0
0, 0
0, 0
0, 0
0, 0
0, 0
0, 0
0, 0
0, 0
0, 0
0, 0
0, 0
0, 0
0, 0
0, 0
0, 0
0, 0
0, 0
0, 0
0, 0
0, 0
0, 0
0, 0
0, 0
0, 0
0, 0
0, 0
0, 0
0, 0
0, 0
0, 0
0, 0
0, 0
0, 0
0, 0
0, 0
0, 0
0, 0
0, 0
0, 0
#ENDOFDATA     end of spectrum data