File: host_upload/12-01-2023/Dourbes (shot-by-shot)/upload_4/ps__0257_0689790785_000rfs_shot_3228.msa
#FORMAT      : EMSA/MAS spectral data file
#VERSION     : TC202v2.0 PIXL
#TITLE       : N/A
#DATE        :       Date in the format DD-MMM-YYYY, for example 07-JUL-2010
#TIME        :             The time of day at which the spectrum was recorded, in 24-hour format
#OWNER       : PIXL Flight Model       (PIXL will use this to indicate which instrument took the data.)
#NPOINTS     : 4096     Number of data points in the spectrum (This can be zero for configuration only files)
#NCOLUMNS    : 2     Number of data columns in the spectrum (This can be zero for configuration only files)
#XUNITS      : eV
#YUNITS      : COUNTS
#DATATYPE    : YY
#XPERCHAN    : 7.862, 7.881   eV per channel (separate by commas if more than one detector)
#OFFSET      : 18.5, -22.4         eV of first channel  (separate by commas if more than one detector
#SIGNALTYPE  : XRF
#YP_TEMP     : 3.165
#LIVETIME    : 9.01847, 9.00865   seconds (separate by commas if more than one detector)
#REALTIME    : 10, 10.0   seconds (separate by commas if more than one detector)
#SPECTRUM    : start of spectrum data
0, 0
0, 0
0, 0
0, 0
0, 0
0, 0
0, 0
0, 0
2, 2
5, 4
1, 5
23, 26
30, 31
8, 12
22, 15
91, 72
519, 578
72, 92
6, 8
3, 0
11, 11
72, 68
16, 19
30, 46
180, 207
123, 136
46, 64
26, 33
14, 11
7, 11
13, 23
17, 16
11, 8
49, 65
71, 95
8, 8
8, 12
13, 20
6, 8
7, 8
10, 8
24, 24
20, 30
21, 13
11, 14
11, 8
13, 12
14, 9
12, 18
18, 25
10, 14
14, 11
22, 17
73, 78
77, 89
26, 25
46, 53
549, 777
2999, 3600
1891, 1746
146, 134
27, 15
36, 33
134, 152
457, 549
258, 235
17, 20
5, 9
6, 11
4, 7
4, 6
6, 6
3, 4
7, 7
6, 3
7, 4
1, 6
2, 8
9, 10
6, 5
2, 5
3, 9
7, 4
5, 7
6, 3
6, 5
1, 3
8, 9
5, 3
5, 2
3, 5
3, 3
4, 3
6, 8
1, 5
2, 4
3, 1
0, 6
4, 1
3, 2
1, 6
5, 2
3, 1
3, 1
1, 1
1, 0
5, 3
3, 1
1, 1
2, 0
3, 0
2, 2
0, 1
5, 0
1, 2
5, 6
6, 8
4, 3
0, 3
1, 0
1, 1
3, 1
0, 0
4, 1
1, 0
1, 1
3, 0
1, 0
2, 0
0, 1
3, 2
1, 0
2, 2
1, 1
0, 2
0, 0
2, 0
0, 1
0, 0
1, 0
3, 1
0, 1
0, 0
0, 1
0, 1
0, 1
0, 1
0, 0
0, 0
2, 0
0, 0
0, 0
0, 1
0, 0
0, 0
0, 0
0, 0
0, 0
0, 0
1, 0
0, 0
0, 0
0, 0
0, 1
0, 1
0, 0
0, 0
0, 1
0, 0
0, 0
0, 0
0, 0
0, 0
0, 0
0, 0
1, 0
0, 1
1, 0
0, 0
0, 0
0, 0
1, 1
0, 1
0, 1
1, 0
0, 0
0, 0
0, 1
0, 0
0, 1
0, 0
0, 0
0, 0
0, 0
0, 0
0, 0
0, 0
0, 0
0, 0
0, 0
0, 0
1, 0
0, 0
0, 0
0, 0
0, 0
0, 0
0, 0
0, 0
0, 0
0, 0
0, 0
0, 0
0, 0
0, 0
0, 0
0, 0
0, 0
0, 0
0, 0
0, 0
0, 0
0, 0
0, 0
0, 0
0, 0
0, 0
0, 0
0, 0
0, 0
0, 0
0, 0
0, 0
0, 0
0, 0
0, 0
0, 0
0, 0
0, 0
0, 0
0, 0
0, 0
0, 0
0, 0
0, 0
0, 0
0, 0
0, 0
0, 0
0, 0
0, 0
0, 0
0, 0
0, 0
0, 0
0, 0
0, 0
0, 0
0, 0
0, 0
0, 0
0, 0
0, 0
0, 0
0, 0
0, 0
0, 0
0, 0
0, 0
0, 0
0, 0
0, 0
0, 0
0, 0
0, 0
0, 0
0, 0
0, 0
0, 0
0, 0
0, 0
0, 0
0, 0
0, 0
0, 0
0, 0
0, 0
0, 0
0, 0
0, 0
0, 0
0, 0
0, 0
0, 0
#ENDOFDATA     end of spectrum data