File: host_upload/12-01-2023/Dourbes (shot-by-shot)/upload_4/ps__0257_0689790785_000rfs_shot_3195.msa
#FORMAT      : EMSA/MAS spectral data file
#VERSION     : TC202v2.0 PIXL
#TITLE       : N/A
#DATE        :       Date in the format DD-MMM-YYYY, for example 07-JUL-2010
#TIME        :             The time of day at which the spectrum was recorded, in 24-hour format
#OWNER       : PIXL Flight Model       (PIXL will use this to indicate which instrument took the data.)
#NPOINTS     : 4096     Number of data points in the spectrum (This can be zero for configuration only files)
#NCOLUMNS    : 2     Number of data columns in the spectrum (This can be zero for configuration only files)
#XUNITS      : eV
#YUNITS      : COUNTS
#DATATYPE    : YY
#XPERCHAN    : 7.862, 7.881   eV per channel (separate by commas if more than one detector)
#OFFSET      : 18.5, -22.4         eV of first channel  (separate by commas if more than one detector
#SIGNALTYPE  : XRF
#YP_TEMP     : 2.877
#LIVETIME    : 9.11203, 9.11585   seconds (separate by commas if more than one detector)
#REALTIME    : 10, 10.0   seconds (separate by commas if more than one detector)
#SPECTRUM    : start of spectrum data
0, 0
0, 0
0, 0
0, 0
0, 0
0, 0
0, 0
0, 1
1, 2
3, 1
5, 3
13, 16
17, 17
25, 33
68, 63
126, 121
824, 832
125, 116
6, 6
3, 4
4, 0
5, 5
2, 4
18, 20
61, 76
29, 48
30, 29
18, 21
6, 8
14, 13
72, 82
39, 29
12, 12
66, 73
110, 75
9, 52
16, 47
13, 21
6, 4
8, 5
63, 59
255, 218
111, 58
16, 25
20, 24
45, 57
18, 33
4, 65
27, 56
198, 186
144, 88
17, 11
12, 13
36, 38
113, 82
62, 27
22, 37
288, 341
1658, 1695
1100, 853
94, 68
11, 9
22, 20
74, 79
278, 255
162, 110
18, 16
6, 10
12, 10
12, 4
4, 7
7, 7
5, 8
3, 13
8, 8
4, 2
8, 8
4, 2
6, 8
8, 6
8, 3
5, 3
2, 3
6, 2
7, 5
9, 5
5, 4
5, 5
2, 3
6, 2
8, 1
5, 2
3, 5
5, 4
5, 10
5, 5
4, 3
7, 3
7, 5
1, 0
3, 5
2, 4
5, 5
2, 3
3, 1
1, 0
4, 2
3, 4
4, 2
3, 1
2, 4
1, 0
2, 2
2, 3
0, 1
1, 2
3, 2
1, 2
4, 1
0, 2
4, 1
4, 2
1, 1
1, 0
1, 2
1, 0
1, 2
0, 1
3, 3
1, 1
2, 1
0, 1
1, 1
2, 2
0, 1
2, 0
1, 1
2, 2
1, 2
4, 0
0, 0
1, 1
1, 0
1, 0
0, 2
1, 0
1, 0
1, 0
2, 0
1, 0
0, 0
0, 0
0, 0
0, 0
0, 0
0, 0
0, 0
1, 0
0, 0
1, 1
0, 0
0, 0
1, 0
0, 0
0, 0
0, 0
0, 0
0, 0
1, 0
1, 0
0, 1
0, 0
0, 0
0, 0
0, 0
0, 0
0, 0
0, 0
0, 0
0, 0
0, 1
1, 0
0, 0
0, 0
0, 0
0, 0
0, 0
0, 0
0, 0
0, 0
0, 0
0, 0
0, 0
0, 0
0, 0
0, 0
1, 0
0, 0
0, 0
0, 0
0, 0
0, 0
0, 0
0, 0
0, 0
0, 0
0, 0
0, 0
0, 0
0, 0
0, 0
0, 0
0, 0
0, 0
0, 0
0, 0
0, 0
0, 0
0, 0
0, 0
0, 0
0, 0
0, 0
0, 0
0, 0
0, 0
0, 0
0, 0
0, 0
0, 0
0, 0
0, 0
0, 0
0, 0
0, 0
0, 0
0, 0
0, 0
0, 0
0, 0
0, 0
0, 0
0, 0
0, 0
0, 0
0, 0
0, 0
0, 0
0, 0
0, 0
0, 0
0, 0
0, 0
0, 0
0, 0
0, 0
0, 0
0, 0
0, 0
0, 0
0, 0
0, 0
0, 0
0, 0
0, 0
0, 0
0, 0
0, 0
0, 0
0, 0
0, 0
0, 0
0, 0
0, 0
0, 0
0, 0
0, 0
0, 0
0, 0
0, 0
0, 0
0, 0
0, 0
0, 0
0, 0
0, 0
0, 0
0, 0
0, 0
0, 0
0, 0
0, 0
0, 0
0, 0
#ENDOFDATA     end of spectrum data