File: host_upload/12-01-2023/Dourbes (shot-by-shot)/upload_4/ps__0257_0689790785_000rfs_shot_3295.msa
#FORMAT      : EMSA/MAS spectral data file
#VERSION     : TC202v2.0 PIXL
#TITLE       : N/A
#DATE        :       Date in the format DD-MMM-YYYY, for example 07-JUL-2010
#TIME        :             The time of day at which the spectrum was recorded, in 24-hour format
#OWNER       : PIXL Flight Model       (PIXL will use this to indicate which instrument took the data.)
#NPOINTS     : 4096     Number of data points in the spectrum (This can be zero for configuration only files)
#NCOLUMNS    : 2     Number of data columns in the spectrum (This can be zero for configuration only files)
#XUNITS      : eV
#YUNITS      : COUNTS
#DATATYPE    : YY
#XPERCHAN    : 7.862, 7.881   eV per channel (separate by commas if more than one detector)
#OFFSET      : 18.5, -22.4         eV of first channel  (separate by commas if more than one detector
#SIGNALTYPE  : XRF
#YP_TEMP     : 3.005
#LIVETIME    : 8.99538, 8.99444   seconds (separate by commas if more than one detector)
#REALTIME    : 10, 10.0   seconds (separate by commas if more than one detector)
#SPECTRUM    : start of spectrum data
0, 0
0, 0
0, 0
0, 0
0, 0
0, 0
0, 1
0, 0
0, 0
0, 0
1, 2
26, 29
34, 39
3, 5
8, 4
90, 76
546, 454
80, 73
3, 7
6, 3
3, 3
19, 21
5, 8
3, 6
25, 20
34, 20
20, 9
10, 7
4, 3
9, 6
11, 2
5, 2
6, 2
13, 30
29, 32
9, 35
31, 102
20, 22
4, 2
3, 6
4, 3
11, 5
19, 21
36, 7
66, 6
27, 15
7, 9
10, 5
4, 7
5, 10
7, 9
15, 7
15, 10
64, 69
87, 86
25, 23
38, 34
647, 795
3507, 3779
2213, 1889
162, 137
21, 18
19, 23
153, 166
520, 545
280, 222
16, 21
5, 4
8, 9
4, 3
4, 8
2, 35
5, 20
9, 12
7, 6
2, 8
3, 6
2, 8
1, 6
4, 1
3, 5
1, 13
1, 3
4, 5
2, 3
1, 3
5, 2
7, 1
6, 3
8, 4
2, 3
0, 4
7, 1
6, 1
15, 6
3, 3
4, 1
4, 1
4, 6
1, 5
5, 3
2, 1
0, 3
1, 1
2, 2
0, 0
1, 1
0, 0
3, 2
2, 4
1, 1
1, 1
1, 6
2, 4
0, 1
5, 7
10, 10
2, 5
2, 4
2, 1
2, 1
2, 2
4, 2
0, 2
1, 3
2, 1
2, 1
1, 0
2, 0
2, 3
5, 0
4, 3
2, 0
1, 0
0, 0
0, 0
0, 1
0, 0
1, 0
0, 0
0, 1
0, 0
0, 0
0, 1
0, 0
0, 0
0, 0
0, 0
0, 0
0, 0
1, 0
0, 0
0, 0
3, 0
0, 0
0, 0
0, 0
0, 0
1, 0
0, 0
0, 0
1, 0
0, 0
1, 0
0, 0
0, 0
0, 1
0, 0
0, 1
0, 0
1, 0
0, 0
0, 0
0, 0
0, 1
0, 0
0, 0
0, 0
1, 0
0, 0
0, 1
0, 0
0, 0
0, 0
1, 1
1, 0
0, 0
0, 0
0, 0
0, 0
0, 0
0, 0
0, 0
0, 0
0, 0
0, 1
0, 0
0, 0
0, 0
0, 0
0, 0
0, 0
0, 0
0, 0
0, 0
0, 0
0, 0
0, 0
0, 0
0, 0
0, 0
0, 0
0, 0
0, 0
0, 0
0, 0
0, 0
0, 0
0, 0
0, 0
0, 0
0, 0
0, 0
0, 0
0, 0
0, 0
0, 0
0, 0
0, 0
0, 0
0, 0
0, 0
0, 0
0, 0
0, 0
0, 0
0, 0
0, 0
0, 0
0, 0
0, 0
0, 0
0, 0
0, 0
0, 0
0, 0
0, 0
0, 0
0, 0
0, 0
0, 0
0, 0
0, 0
0, 0
0, 0
0, 0
0, 0
0, 0
0, 0
0, 0
0, 0
0, 0
0, 0
0, 0
0, 0
0, 0
0, 0
0, 0
0, 0
0, 0
0, 0
0, 0
0, 0
0, 0
0, 0
0, 0
0, 0
0, 0
0, 0
0, 0
0, 0
0, 0
0, 0
0, 0
0, 0
0, 0
0, 0
0, 0
0, 0
0, 0
0, 0
0, 0
0, 0
0, 0
#ENDOFDATA     end of spectrum data