File: host_upload/12-01-2023/Dourbes (shot-by-shot)/upload_4/ps__0257_0689790785_000rfs_shot_3117.msa
#FORMAT      : EMSA/MAS spectral data file
#VERSION     : TC202v2.0 PIXL
#TITLE       : N/A
#DATE        :       Date in the format DD-MMM-YYYY, for example 07-JUL-2010
#TIME        :             The time of day at which the spectrum was recorded, in 24-hour format
#OWNER       : PIXL Flight Model       (PIXL will use this to indicate which instrument took the data.)
#NPOINTS     : 4096     Number of data points in the spectrum (This can be zero for configuration only files)
#NCOLUMNS    : 2     Number of data columns in the spectrum (This can be zero for configuration only files)
#XUNITS      : eV
#YUNITS      : COUNTS
#DATATYPE    : YY
#XPERCHAN    : 7.862, 7.881   eV per channel (separate by commas if more than one detector)
#OFFSET      : 18.5, -22.4         eV of first channel  (separate by commas if more than one detector
#SIGNALTYPE  : XRF
#YP_TEMP     : 3.198
#LIVETIME    : 9.14918, 9.13318   seconds (separate by commas if more than one detector)
#REALTIME    : 10, 10.0   seconds (separate by commas if more than one detector)
#SPECTRUM    : start of spectrum data
0, 0
0, 0
0, 0
0, 0
0, 0
0, 0
0, 0
0, 1
2, 0
1, 1
2, 2
20, 31
30, 38
3, 8
6, 12
128, 136
867, 895
158, 147
13, 13
5, 2
1, 4
6, 6
3, 0
3, 5
27, 29
23, 33
17, 12
13, 9
5, 3
3, 1
4, 4
8, 2
27, 46
629, 745
1085, 1090
122, 83
97, 103
124, 147
14, 9
1, 1
10, 8
24, 28
11, 11
7, 6
7, 6
10, 6
4, 8
2, 2
7, 14
44, 62
26, 26
4, 7
4, 5
27, 36
48, 41
13, 15
13, 33
208, 302
1056, 1183
632, 578
72, 58
17, 8
9, 13
50, 48
161, 241
90, 134
17, 27
23, 5
59, 4
16, 10
5, 5
5, 4
2, 4
9, 7
6, 6
6, 6
14, 10
10, 11
3, 12
4, 1
7, 6
4, 6
8, 3
4, 7
11, 8
13, 7
11, 3
3, 2
3, 3
3, 3
3, 2
4, 1
6, 0
6, 4
3, 1
2, 4
3, 0
3, 1
5, 2
2, 4
7, 5
6, 3
4, 3
0, 5
3, 3
3, 6
3, 5
1, 2
2, 1
3, 0
0, 2
1, 1
1, 3
2, 4
4, 3
1, 3
1, 2
1, 1
4, 2
1, 2
1, 0
1, 1
2, 1
1, 0
2, 2
1, 2
2, 0
0, 0
1, 0
1, 0
1, 1
1, 2
0, 1
1, 1
0, 3
1, 1
0, 0
2, 2
0, 0
2, 1
0, 1
2, 1
1, 0
1, 0
0, 1
1, 1
0, 0
1, 1
1, 1
0, 1
0, 1
0, 0
0, 0
0, 1
0, 1
0, 0
0, 0
0, 1
0, 1
0, 0
0, 0
2, 0
0, 0
0, 0
0, 0
0, 0
1, 0
0, 0
0, 0
0, 0
1, 0
0, 0
2, 0
0, 0
0, 0
0, 0
0, 0
0, 0
0, 0
0, 0
0, 0
0, 0
0, 0
0, 0
0, 0
0, 0
0, 0
0, 0
0, 0
0, 0
1, 0
0, 0
0, 0
0, 0
0, 0
0, 0
0, 0
0, 0
0, 0
0, 0
0, 0
0, 0
0, 0
0, 0
0, 1
0, 0
0, 0
0, 0
0, 0
0, 0
0, 0
0, 0
0, 0
0, 0
0, 0
0, 0
0, 0
0, 0
0, 0
0, 0
0, 0
0, 0
0, 0
0, 0
0, 0
0, 0
0, 0
0, 0
0, 0
0, 0
0, 0
0, 0
0, 0
0, 0
0, 0
0, 0
0, 0
0, 0
0, 0
0, 0
0, 0
0, 0
0, 0
0, 0
0, 0
0, 0
0, 0
0, 0
0, 0
0, 0
0, 0
0, 0
0, 0
0, 0
0, 0
0, 0
0, 0
0, 0
0, 0
0, 0
0, 0
0, 0
0, 0
0, 0
0, 0
0, 0
0, 0
0, 0
0, 0
0, 0
0, 0
0, 0
0, 0
0, 0
0, 0
0, 0
0, 0
0, 0
0, 0
0, 0
0, 0
0, 0
0, 0
0, 0
0, 0
0, 0
0, 0
0, 0
0, 0
0, 0
0, 0
0, 0
0, 0
0, 0
#ENDOFDATA     end of spectrum data