File: host_upload/12-01-2023/Dourbes (shot-by-shot)/upload_4/ps__0257_0689790785_000rfs_shot_3292.msa
#FORMAT      : EMSA/MAS spectral data file
#VERSION     : TC202v2.0 PIXL
#TITLE       : N/A
#DATE        :       Date in the format DD-MMM-YYYY, for example 07-JUL-2010
#TIME        :             The time of day at which the spectrum was recorded, in 24-hour format
#OWNER       : PIXL Flight Model       (PIXL will use this to indicate which instrument took the data.)
#NPOINTS     : 4096     Number of data points in the spectrum (This can be zero for configuration only files)
#NCOLUMNS    : 2     Number of data columns in the spectrum (This can be zero for configuration only files)
#XUNITS      : eV
#YUNITS      : COUNTS
#DATATYPE    : YY
#XPERCHAN    : 7.862, 7.881   eV per channel (separate by commas if more than one detector)
#OFFSET      : 18.5, -22.4         eV of first channel  (separate by commas if more than one detector
#SIGNALTYPE  : XRF
#YP_TEMP     : 3.037
#LIVETIME    : 8.99261, 8.99256   seconds (separate by commas if more than one detector)
#REALTIME    : 10, 10.0   seconds (separate by commas if more than one detector)
#SPECTRUM    : start of spectrum data
0, 0
0, 0
0, 0
0, 0
0, 0
0, 0
0, 0
0, 0
0, 1
1, 1
0, 3
38, 33
38, 31
9, 2
3, 7
83, 77
494, 456
91, 83
4, 4
1, 4
5, 1
3, 6
5, 3
9, 2
32, 36
30, 38
23, 28
15, 11
2, 2
5, 3
3, 2
5, 4
2, 1
8, 13
21, 22
9, 47
23, 91
12, 16
6, 3
2, 2
6, 3
15, 9
12, 20
19, 17
12, 7
5, 13
2, 9
4, 10
6, 7
11, 10
13, 8
13, 10
12, 16
59, 81
90, 94
26, 17
33, 50
677, 795
3717, 3914
2260, 1947
172, 135
23, 10
22, 26
159, 196
561, 593
318, 296
31, 22
5, 9
7, 11
7, 4
2, 10
1, 26
3, 17
4, 11
5, 9
7, 3
2, 6
4, 2
3, 6
5, 3
2, 5
1, 5
2, 3
6, 3
3, 3
2, 6
3, 3
0, 5
3, 2
3, 2
0, 7
1, 2
5, 2
10, 2
12, 3
7, 3
2, 4
3, 2
5, 7
2, 10
3, 4
5, 0
7, 3
1, 0
2, 1
2, 3
2, 2
2, 1
2, 5
4, 0
1, 2
3, 1
1, 2
0, 2
4, 1
2, 3
7, 6
6, 4
2, 0
2, 1
1, 3
4, 1
3, 3
1, 2
1, 3
1, 0
1, 1
1, 0
0, 2
1, 2
2, 1
2, 2
2, 1
0, 0
0, 0
0, 2
0, 2
1, 0
0, 0
0, 0
0, 0
0, 0
2, 0
0, 1
0, 0
1, 0
0, 0
0, 1
0, 0
0, 1
2, 1
1, 0
0, 1
0, 0
0, 0
0, 0
0, 1
1, 0
0, 0
0, 0
0, 1
0, 0
0, 0
1, 0
0, 1
0, 0
1, 1
0, 0
0, 0
0, 0
0, 0
1, 0
0, 0
0, 0
1, 0
0, 0
0, 1
0, 0
0, 0
0, 0
0, 0
0, 0
0, 0
0, 0
0, 0
1, 1
0, 0
0, 0
0, 0
0, 0
0, 0
0, 0
0, 1
0, 0
0, 0
0, 0
0, 0
0, 0
0, 0
0, 0
0, 0
0, 0
0, 0
0, 0
0, 0
0, 0
0, 0
0, 0
0, 0
0, 1
0, 0
0, 0
0, 0
0, 0
0, 0
0, 0
0, 0
0, 0
0, 0
0, 0
0, 1
0, 0
0, 0
0, 0
0, 0
0, 0
0, 0
0, 0
0, 0
0, 0
0, 0
0, 0
0, 0
0, 0
0, 0
0, 0
0, 0
0, 0
0, 0
0, 0
0, 0
0, 0
0, 0
0, 0
0, 0
0, 0
0, 0
0, 0
0, 0
0, 0
0, 0
0, 0
0, 0
0, 0
0, 0
0, 0
0, 0
0, 0
0, 0
0, 0
0, 0
0, 0
0, 0
0, 0
0, 0
0, 0
0, 0
0, 0
0, 0
0, 0
0, 0
0, 0
0, 0
0, 0
0, 0
0, 0
0, 0
0, 0
0, 0
0, 0
0, 0
0, 0
0, 0
0, 0
0, 0
0, 0
0, 0
0, 0
0, 0
0, 0
0, 0
0, 0
0, 0
0, 0
#ENDOFDATA     end of spectrum data