File: host_upload/12-01-2023/Dourbes (shot-by-shot)/upload_4/ps__0257_0689790785_000rfs_shot_3217.msa
#FORMAT      : EMSA/MAS spectral data file
#VERSION     : TC202v2.0 PIXL
#TITLE       : N/A
#DATE        :       Date in the format DD-MMM-YYYY, for example 07-JUL-2010
#TIME        :             The time of day at which the spectrum was recorded, in 24-hour format
#OWNER       : PIXL Flight Model       (PIXL will use this to indicate which instrument took the data.)
#NPOINTS     : 4096     Number of data points in the spectrum (This can be zero for configuration only files)
#NCOLUMNS    : 2     Number of data columns in the spectrum (This can be zero for configuration only files)
#XUNITS      : eV
#YUNITS      : COUNTS
#DATATYPE    : YY
#XPERCHAN    : 7.862, 7.881   eV per channel (separate by commas if more than one detector)
#OFFSET      : 18.5, -22.4         eV of first channel  (separate by commas if more than one detector
#SIGNALTYPE  : XRF
#YP_TEMP     : 3.037
#LIVETIME    : 9.02853, 9.00895   seconds (separate by commas if more than one detector)
#REALTIME    : 10, 10.0   seconds (separate by commas if more than one detector)
#SPECTRUM    : start of spectrum data
0, 0
0, 0
0, 0
0, 0
0, 0
0, 0
0, 0
0, 1
1, 2
1, 1
0, 3
24, 22
33, 34
4, 5
5, 9
78, 63
506, 549
77, 91
4, 5
3, 2
42, 10
84, 63
18, 18
20, 12
65, 65
74, 69
32, 23
22, 12
10, 8
1, 4
3, 4
6, 1
1, 2
28, 51
34, 89
5, 19
4, 3
7, 15
9, 6
2, 5
4, 3
16, 10
18, 28
14, 16
6, 13
12, 9
8, 14
11, 7
13, 9
8, 49
14, 79
8, 25
8, 16
65, 69
111, 93
37, 20
41, 31
562, 739
3188, 3432
1932, 1723
153, 113
37, 19
42, 40
134, 170
462, 516
286, 219
21, 18
5, 4
9, 8
7, 6
3, 10
5, 3
4, 6
3, 7
7, 5
6, 3
3, 6
3, 5
4, 5
1, 6
9, 13
5, 13
4, 5
4, 5
3, 4
3, 1
4, 6
4, 2
5, 3
5, 2
1, 2
7, 1
3, 1
1, 4
1, 4
3, 1
4, 3
1, 4
2, 7
4, 11
0, 8
2, 4
8, 2
1, 1
1, 0
5, 1
5, 0
3, 1
2, 5
1, 2
2, 3
2, 4
4, 3
3, 2
2, 1
5, 1
4, 6
7, 3
3, 2
1, 2
2, 0
1, 2
2, 3
2, 4
0, 2
0, 0
2, 0
2, 1
0, 1
0, 0
0, 0
1, 2
0, 1
2, 0
0, 0
1, 2
1, 1
1, 0
1, 0
0, 0
1, 0
1, 1
1, 2
0, 1
0, 0
0, 1
0, 0
0, 0
0, 0
1, 0
0, 0
0, 0
0, 0
0, 0
2, 0
2, 0
0, 0
1, 0
0, 0
0, 0
0, 0
0, 0
0, 0
0, 0
0, 1
0, 0
0, 1
0, 0
0, 0
0, 0
0, 0
0, 0
0, 0
0, 0
0, 0
0, 0
0, 0
0, 0
0, 1
0, 0
1, 0
0, 0
0, 0
0, 0
0, 0
1, 0
0, 0
0, 1
0, 0
2, 1
0, 0
0, 0
0, 1
0, 1
0, 0
0, 0
0, 0
0, 0
0, 0
0, 0
0, 0
0, 0
0, 0
0, 0
0, 0
0, 0
0, 0
0, 0
0, 0
0, 0
0, 0
0, 0
0, 0
0, 0
0, 0
0, 0
0, 0
0, 0
0, 0
0, 0
0, 0
0, 0
0, 0
0, 0
0, 0
0, 0
0, 0
0, 0
0, 0
0, 0
0, 0
0, 0
0, 0
0, 0
0, 0
0, 0
0, 0
0, 0
0, 0
0, 0
0, 0
0, 0
0, 0
0, 0
0, 0
0, 0
0, 0
0, 0
0, 0
0, 0
0, 0
0, 0
0, 0
0, 0
0, 0
0, 0
0, 0
0, 0
0, 0
0, 0
0, 0
0, 0
0, 0
0, 0
0, 0
0, 0
0, 0
0, 0
0, 0
0, 0
0, 0
0, 0
0, 0
0, 0
0, 0
0, 0
0, 0
0, 0
0, 0
0, 0
0, 0
0, 0
0, 0
0, 0
0, 0
0, 0
0, 0
0, 0
0, 0
0, 0
0, 0
0, 0
0, 0
0, 0
#ENDOFDATA     end of spectrum data