File: host_upload/12-01-2023/Dourbes (shot-by-shot)/upload_4/ps__0257_0689790785_000rfs_shot_3120.msa
#FORMAT      : EMSA/MAS spectral data file
#VERSION     : TC202v2.0 PIXL
#TITLE       : N/A
#DATE        :       Date in the format DD-MMM-YYYY, for example 07-JUL-2010
#TIME        :             The time of day at which the spectrum was recorded, in 24-hour format
#OWNER       : PIXL Flight Model       (PIXL will use this to indicate which instrument took the data.)
#NPOINTS     : 4096     Number of data points in the spectrum (This can be zero for configuration only files)
#NCOLUMNS    : 2     Number of data columns in the spectrum (This can be zero for configuration only files)
#XUNITS      : eV
#YUNITS      : COUNTS
#DATATYPE    : YY
#XPERCHAN    : 7.862, 7.881   eV per channel (separate by commas if more than one detector)
#OFFSET      : 18.5, -22.4         eV of first channel  (separate by commas if more than one detector
#SIGNALTYPE  : XRF
#YP_TEMP     : 3.037
#LIVETIME    : 9.14982, 9.14787   seconds (separate by commas if more than one detector)
#REALTIME    : 10, 10.0   seconds (separate by commas if more than one detector)
#SPECTRUM    : start of spectrum data
0, 0
0, 0
0, 0
0, 0
0, 0
0, 0
0, 0
0, 0
0, 1
0, 1
2, 1
26, 15
29, 35
10, 6
9, 10
157, 143
832, 951
155, 145
19, 17
0, 1
3, 5
3, 8
3, 3
2, 3
13, 16
19, 19
16, 17
10, 18
4, 4
9, 3
6, 8
2, 3
31, 28
612, 720
1055, 1117
89, 90
106, 134
161, 125
13, 11
2, 2
6, 7
25, 24
9, 12
4, 8
2, 3
5, 13
7, 3
3, 4
7, 10
42, 50
30, 22
3, 8
4, 8
33, 37
41, 58
9, 20
9, 27
163, 232
1049, 1142
660, 636
63, 42
8, 12
8, 10
34, 63
153, 208
92, 118
15, 18
21, 10
42, 8
24, 7
5, 5
5, 5
2, 5
4, 2
6, 6
7, 6
16, 13
15, 9
3, 5
1, 5
3, 3
6, 5
3, 7
7, 13
10, 8
9, 8
9, 4
9, 6
4, 9
4, 6
5, 4
4, 5
10, 3
5, 2
4, 4
4, 5
3, 2
1, 3
5, 3
4, 4
3, 2
2, 5
6, 2
4, 3
3, 1
0, 6
2, 10
5, 0
1, 2
0, 2
3, 1
1, 2
3, 1
2, 1
4, 1
2, 0
0, 3
1, 1
0, 0
0, 3
0, 2
1, 0
0, 2
2, 2
2, 1
0, 0
4, 1
1, 0
1, 2
3, 1
4, 0
3, 0
0, 1
0, 1
1, 0
0, 2
0, 0
0, 1
2, 1
0, 1
0, 0
0, 0
0, 0
2, 0
1, 2
0, 0
0, 0
1, 0
1, 1
0, 0
0, 0
1, 1
1, 1
0, 0
0, 1
0, 1
0, 0
0, 0
0, 0
0, 0
0, 1
0, 1
0, 0
0, 0
0, 0
0, 0
0, 0
0, 0
1, 0
0, 0
0, 0
0, 0
0, 1
0, 0
0, 0
0, 0
0, 0
0, 0
0, 0
0, 0
0, 0
0, 0
0, 0
0, 0
0, 0
0, 0
0, 0
0, 0
0, 0
0, 0
0, 0
0, 0
0, 0
0, 0
0, 0
1, 0
0, 0
0, 0
0, 0
0, 0
0, 0
0, 0
0, 0
0, 0
0, 0
0, 0
1, 0
0, 0
0, 0
0, 0
0, 0
0, 0
1, 0
0, 0
0, 0
0, 0
0, 0
0, 0
0, 0
0, 0
0, 0
0, 0
0, 0
0, 0
0, 0
0, 0
0, 0
0, 0
0, 0
0, 0
0, 0
0, 0
0, 0
0, 0
0, 0
0, 0
0, 0
0, 0
0, 0
0, 0
0, 0
0, 0
0, 0
0, 0
0, 0
0, 0
0, 0
0, 0
0, 0
0, 0
0, 0
0, 0
0, 0
0, 0
0, 0
0, 0
0, 0
0, 0
0, 0
0, 0
0, 0
0, 0
0, 0
0, 0
0, 0
0, 0
0, 0
0, 0
0, 0
0, 0
0, 0
0, 0
0, 0
0, 0
0, 0
0, 0
0, 0
0, 0
0, 0
0, 0
0, 0
0, 0
0, 0
0, 0
0, 0
0, 0
0, 0
0, 0
0, 0
0, 0
0, 0
0, 0
0, 0
0, 0
#ENDOFDATA     end of spectrum data