File: host_upload/12-01-2023/Dourbes (shot-by-shot)/upload_4/ps__0257_0689790785_000rfs_shot_3156.msa
#FORMAT      : EMSA/MAS spectral data file
#VERSION     : TC202v2.0 PIXL
#TITLE       : N/A
#DATE        :       Date in the format DD-MMM-YYYY, for example 07-JUL-2010
#TIME        :             The time of day at which the spectrum was recorded, in 24-hour format
#OWNER       : PIXL Flight Model       (PIXL will use this to indicate which instrument took the data.)
#NPOINTS     : 4096     Number of data points in the spectrum (This can be zero for configuration only files)
#NCOLUMNS    : 2     Number of data columns in the spectrum (This can be zero for configuration only files)
#XUNITS      : eV
#YUNITS      : COUNTS
#DATATYPE    : YY
#XPERCHAN    : 7.862, 7.881   eV per channel (separate by commas if more than one detector)
#OFFSET      : 18.5, -22.4         eV of first channel  (separate by commas if more than one detector
#SIGNALTYPE  : XRF
#YP_TEMP     : 3.198
#LIVETIME    : 9.04379, 9.03881   seconds (separate by commas if more than one detector)
#REALTIME    : 10, 10.0   seconds (separate by commas if more than one detector)
#SPECTRUM    : start of spectrum data
0, 0
0, 0
0, 0
0, 0
0, 0
0, 0
0, 0
0, 2
2, 0
0, 1
3, 3
43, 24
43, 38
4, 5
8, 11
91, 69
656, 598
99, 119
6, 9
2, 1
6, 3
10, 6
4, 3
7, 13
75, 64
40, 41
26, 16
24, 10
7, 5
6, 3
1, 2
6, 6
14, 13
204, 206
320, 296
16, 30
40, 42
54, 42
4, 7
4, 3
9, 34
33, 74
47, 28
25, 10
5, 9
12, 15
6, 8
6, 5
8, 12
23, 13
15, 16
7, 10
16, 11
42, 63
90, 80
24, 27
32, 48
500, 635
2900, 3161
1772, 1611
148, 106
9, 14
20, 24
121, 123
431, 503
266, 205
27, 21
11, 9
12, 3
22, 8
0, 7
5, 4
8, 7
3, 2
6, 1
3, 3
2, 4
6, 3
2, 7
4, 5
6, 4
6, 6
6, 2
4, 1
4, 3
6, 1
0, 8
5, 8
2, 9
3, 6
4, 4
1, 3
5, 2
2, 3
4, 3
4, 4
2, 9
9, 9
3, 2
10, 4
6, 2
3, 3
3, 3
4, 2
0, 1
5, 2
2, 0
3, 3
6, 4
1, 1
1, 4
3, 4
4, 2
2, 2
0, 2
2, 3
7, 8
3, 3
1, 2
3, 1
0, 4
2, 0
3, 1
3, 0
2, 2
2, 1
2, 1
0, 0
4, 1
0, 2
1, 1
1, 0
0, 2
0, 1
0, 0
3, 1
0, 0
0, 0
1, 0
0, 1
1, 0
0, 1
1, 0
0, 0
0, 0
0, 0
1, 2
0, 0
1, 0
1, 0
0, 0
0, 0
0, 1
0, 1
1, 0
0, 0
0, 1
0, 0
0, 0
0, 1
0, 1
0, 0
0, 0
0, 0
0, 1
0, 1
0, 0
0, 0
0, 0
0, 0
0, 0
0, 0
0, 0
2, 0
0, 0
0, 0
0, 1
0, 0
0, 0
0, 0
1, 1
0, 1
1, 1
0, 0
0, 0
0, 0
1, 0
1, 0
0, 1
0, 0
0, 0
0, 0
2, 0
0, 0
0, 0
0, 0
0, 0
0, 0
0, 0
0, 0
0, 0
0, 0
0, 0
0, 0
0, 0
0, 0
0, 0
0, 0
0, 0
0, 0
0, 0
0, 0
0, 0
0, 0
0, 0
0, 0
0, 0
0, 0
0, 0
0, 0
0, 0
0, 0
0, 0
0, 0
0, 0
0, 0
0, 0
0, 0
0, 0
0, 0
0, 0
0, 0
0, 0
0, 0
0, 0
0, 0
0, 0
0, 0
0, 0
0, 0
0, 0
0, 0
0, 0
0, 0
0, 0
0, 0
0, 0
0, 0
0, 0
0, 0
0, 0
0, 0
0, 0
0, 0
0, 0
0, 0
0, 0
0, 0
0, 0
0, 0
0, 0
0, 0
0, 0
0, 0
0, 0
0, 0
0, 0
0, 0
0, 0
0, 0
0, 0
0, 0
0, 0
0, 0
0, 0
0, 0
0, 0
0, 0
0, 0
0, 0
0, 0
0, 0
0, 0
0, 0
0, 0
0, 0
0, 0
0, 0
0, 0
0, 0
0, 0
0, 0
0, 0
0, 0
#ENDOFDATA     end of spectrum data