File: host_upload/12-01-2023/Dourbes (shot-by-shot)/upload_4/ps__0257_0689790785_000rfs_shot_3267.msa
#FORMAT      : EMSA/MAS spectral data file
#VERSION     : TC202v2.0 PIXL
#TITLE       : N/A
#DATE        :       Date in the format DD-MMM-YYYY, for example 07-JUL-2010
#TIME        :             The time of day at which the spectrum was recorded, in 24-hour format
#OWNER       : PIXL Flight Model       (PIXL will use this to indicate which instrument took the data.)
#NPOINTS     : 4096     Number of data points in the spectrum (This can be zero for configuration only files)
#NCOLUMNS    : 2     Number of data columns in the spectrum (This can be zero for configuration only files)
#XUNITS      : eV
#YUNITS      : COUNTS
#DATATYPE    : YY
#XPERCHAN    : 7.862, 7.881   eV per channel (separate by commas if more than one detector)
#OFFSET      : 18.5, -22.4         eV of first channel  (separate by commas if more than one detector
#SIGNALTYPE  : XRF
#YP_TEMP     : 2.909
#LIVETIME    : 9.00679, 8.98981   seconds (separate by commas if more than one detector)
#REALTIME    : 10, 10.0   seconds (separate by commas if more than one detector)
#SPECTRUM    : start of spectrum data
0, 0
0, 0
0, 0
0, 0
0, 0
0, 0
0, 0
0, 0
3, 1
1, 2
2, 2
38, 25
32, 35
5, 7
5, 7
91, 65
480, 481
77, 66
6, 3
4, 3
3, 1
4, 4
1, 2
10, 13
40, 55
37, 32
18, 17
12, 12
6, 9
1, 0
6, 8
2, 3
4, 3
22, 26
37, 41
2, 30
6, 23
3, 13
7, 7
6, 8
67, 67
272, 301
110, 107
15, 29
22, 37
58, 70
21, 31
5, 46
37, 71
263, 266
149, 180
12, 21
19, 21
48, 64
128, 194
48, 200
40, 82
573, 720
3159, 3289
1962, 1666
159, 116
30, 22
44, 26
152, 161
452, 501
281, 231
23, 17
4, 6
7, 3
4, 7
5, 7
3, 3
2, 6
6, 6
4, 3
10, 2
5, 2
5, 2
1, 3
8, 6
7, 5
6, 5
6, 2
7, 3
5, 7
6, 2
4, 1
1, 1
4, 4
4, 3
4, 4
6, 4
1, 3
3, 9
3, 5
1, 3
2, 0
1, 1
6, 3
1, 0
3, 2
1, 2
5, 0
6, 5
5, 5
3, 3
2, 3
2, 4
1, 1
0, 0
2, 3
2, 1
2, 4
2, 3
4, 3
4, 2
3, 5
7, 5
1, 1
1, 1
4, 1
3, 0
4, 2
2, 2
2, 0
1, 1
1, 0
1, 0
2, 2
2, 0
0, 0
0, 1
1, 0
0, 0
0, 0
2, 1
1, 0
0, 1
0, 1
0, 1
0, 0
0, 0
0, 0
2, 0
0, 0
0, 0
0, 0
0, 1
1, 0
0, 0
2, 0
0, 0
0, 0
0, 0
1, 1
0, 0
1, 0
0, 0
0, 0
1, 0
1, 0
0, 0
0, 0
2, 1
2, 0
0, 0
0, 0
0, 0
1, 0
0, 0
0, 0
0, 0
1, 0
0, 0
1, 0
0, 0
1, 0
0, 1
0, 0
0, 0
0, 0
0, 0
1, 1
1, 0
1, 0
0, 0
0, 0
0, 0
0, 0
0, 0
0, 0
0, 0
0, 0
0, 0
0, 0
0, 0
0, 0
1, 0
0, 0
0, 0
0, 0
0, 0
0, 0
0, 0
0, 0
0, 0
0, 0
0, 0
0, 0
0, 0
0, 0
0, 0
0, 0
0, 0
0, 0
0, 0
0, 0
1, 0
0, 0
0, 0
0, 0
0, 0
0, 0
0, 0
0, 0
0, 0
0, 0
0, 0
0, 0
0, 0
0, 0
0, 0
0, 0
0, 0
0, 0
0, 0
0, 0
0, 0
0, 0
0, 0
0, 0
0, 0
0, 0
0, 0
0, 0
0, 0
0, 0
0, 0
0, 0
0, 0
0, 0
0, 0
0, 0
0, 0
0, 0
0, 0
0, 0
0, 0
0, 0
0, 0
0, 0
0, 0
0, 0
0, 0
0, 0
0, 0
0, 0
0, 0
0, 0
0, 0
0, 0
0, 0
0, 0
0, 0
0, 0
0, 0
0, 0
0, 0
0, 0
0, 0
0, 0
0, 0
0, 0
0, 0
0, 0
0, 0
0, 0
0, 0
0, 0
0, 0
0, 0
0, 0
0, 0
0, 0
#ENDOFDATA     end of spectrum data