File: host_upload/12-01-2023/Dourbes (shot-by-shot)/upload_4/ps__0257_0689790785_000rfs_shot_3278.msa
#FORMAT      : EMSA/MAS spectral data file
#VERSION     : TC202v2.0 PIXL
#TITLE       : N/A
#DATE        :       Date in the format DD-MMM-YYYY, for example 07-JUL-2010
#TIME        :             The time of day at which the spectrum was recorded, in 24-hour format
#OWNER       : PIXL Flight Model       (PIXL will use this to indicate which instrument took the data.)
#NPOINTS     : 4096     Number of data points in the spectrum (This can be zero for configuration only files)
#NCOLUMNS    : 2     Number of data columns in the spectrum (This can be zero for configuration only files)
#XUNITS      : eV
#YUNITS      : COUNTS
#DATATYPE    : YY
#XPERCHAN    : 7.862, 7.881   eV per channel (separate by commas if more than one detector)
#OFFSET      : 18.5, -22.4         eV of first channel  (separate by commas if more than one detector
#SIGNALTYPE  : XRF
#YP_TEMP     : 3.101
#LIVETIME    : 9.12328, 9.14106   seconds (separate by commas if more than one detector)
#REALTIME    : 10, 10.0   seconds (separate by commas if more than one detector)
#SPECTRUM    : start of spectrum data
0, 0
0, 0
0, 0
0, 0
0, 0
0, 0
0, 0
0, 0
0, 2
1, 0
1, 3
21, 16
37, 24
5, 4
11, 4
147, 129
918, 818
152, 133
24, 14
1, 4
3, 9
6, 5
1, 3
2, 4
17, 23
22, 23
12, 18
14, 16
8, 11
3, 3
3, 5
3, 3
27, 21
700, 701
1067, 1020
108, 67
120, 116
164, 122
13, 8
6, 9
12, 14
38, 33
12, 12
4, 7
4, 2
11, 13
7, 22
3, 14
13, 11
71, 46
36, 24
5, 3
11, 4
31, 36
53, 62
27, 12
168, 11
554, 252
1268, 1192
752, 562
64, 32
6, 12
10, 8
53, 50
190, 159
112, 95
18, 22
3, 8
8, 5
6, 5
3, 5
9, 5
5, 3
1, 4
6, 4
16, 2
9, 6
7, 8
3, 5
3, 3
5, 6
3, 1
4, 3
1, 3
4, 9
5, 36
5, 49
9, 17
3, 8
3, 4
2, 5
5, 2
5, 9
13, 13
9, 5
5, 3
2, 2
1, 4
1, 7
3, 2
3, 1
3, 3
2, 6
3, 4
3, 3
16, 3
14, 3
7, 5
3, 3
1, 4
1, 0
2, 7
0, 2
1, 2
0, 2
1, 4
0, 3
2, 3
0, 3
1, 1
3, 1
3, 3
2, 4
3, 1
2, 0
2, 2
0, 2
4, 1
2, 1
0, 2
0, 1
0, 0
0, 0
0, 1
0, 0
0, 0
0, 0
1, 1
0, 0
1, 0
1, 0
1, 1
1, 0
2, 0
1, 1
0, 0
2, 1
0, 0
0, 0
1, 1
0, 0
0, 1
0, 0
0, 1
0, 0
0, 0
0, 0
0, 1
1, 1
1, 1
0, 0
1, 0
0, 1
2, 1
1, 0
0, 0
0, 1
0, 1
0, 0
0, 0
0, 0
1, 0
1, 0
0, 0
0, 0
0, 0
0, 0
0, 0
0, 1
0, 0
0, 0
1, 0
0, 1
1, 0
0, 0
0, 0
1, 0
0, 0
0, 0
0, 0
0, 1
0, 0
0, 0
0, 0
0, 0
0, 0
0, 0
0, 0
0, 0
0, 0
0, 0
0, 0
0, 0
0, 0
0, 0
0, 0
0, 0
0, 0
0, 0
0, 0
0, 0
0, 0
0, 0
0, 0
0, 0
0, 0
0, 0
0, 0
0, 0
0, 0
0, 0
0, 0
0, 0
0, 0
0, 0
0, 0
0, 0
0, 0
0, 0
0, 0
0, 0
0, 0
0, 0
0, 0
0, 0
0, 0
0, 0
0, 0
0, 0
0, 0
0, 0
0, 0
0, 0
0, 0
0, 0
0, 0
0, 0
0, 0
0, 0
0, 0
0, 0
0, 0
0, 0
0, 0
0, 0
0, 0
0, 0
0, 0
0, 0
0, 0
0, 0
0, 0
0, 0
0, 0
0, 0
0, 0
0, 0
0, 0
0, 0
0, 0
0, 0
0, 0
0, 0
0, 0
0, 0
0, 0
0, 0
0, 0
0, 0
0, 0
0, 0
0, 0
0, 0
0, 0
0, 0
0, 0
0, 0
0, 0
0, 0
0, 0
0, 0
0, 0
0, 0
0, 0
#ENDOFDATA     end of spectrum data