File: host_upload/12-01-2023/Dourbes (shot-by-shot)/upload_4/ps__0257_0689790785_000rfs_shot_3309.msa
#FORMAT      : EMSA/MAS spectral data file
#VERSION     : TC202v2.0 PIXL
#TITLE       : N/A
#DATE        :       Date in the format DD-MMM-YYYY, for example 07-JUL-2010
#TIME        :             The time of day at which the spectrum was recorded, in 24-hour format
#OWNER       : PIXL Flight Model       (PIXL will use this to indicate which instrument took the data.)
#NPOINTS     : 4096     Number of data points in the spectrum (This can be zero for configuration only files)
#NCOLUMNS    : 2     Number of data columns in the spectrum (This can be zero for configuration only files)
#XUNITS      : eV
#YUNITS      : COUNTS
#DATATYPE    : YY
#XPERCHAN    : 7.862, 7.881   eV per channel (separate by commas if more than one detector)
#OFFSET      : 18.5, -22.4         eV of first channel  (separate by commas if more than one detector
#SIGNALTYPE  : XRF
#YP_TEMP     : 2.973
#LIVETIME    : 9.02364, 9.00723   seconds (separate by commas if more than one detector)
#REALTIME    : 10, 10.0   seconds (separate by commas if more than one detector)
#SPECTRUM    : start of spectrum data
0, 0
0, 0
0, 0
0, 0
0, 0
0, 0
0, 0
0, 0
1, 2
0, 0
5, 2
31, 16
34, 42
6, 6
11, 13
81, 89
630, 598
100, 89
9, 14
3, 3
1, 3
2, 6
2, 3
4, 14
37, 40
38, 38
23, 24
12, 14
3, 6
3, 8
15, 15
7, 7
13, 18
102, 128
181, 185
23, 18
24, 29
36, 24
12, 8
9, 5
12, 8
16, 19
17, 24
29, 46
12, 22
9, 7
6, 9
6, 8
17, 6
34, 16
10, 15
11, 64
19, 53
48, 59
84, 103
22, 27
25, 31
611, 695
3127, 3307
1846, 1695
165, 101
18, 19
21, 23
140, 156
442, 498
263, 225
29, 29
7, 9
14, 7
9, 2
20, 8
7, 2
3, 4
4, 7
6, 10
2, 6
2, 7
2, 3
5, 4
7, 3
4, 6
3, 5
2, 9
0, 17
3, 7
2, 0
0, 0
6, 1
6, 3
0, 8
3, 8
7, 6
2, 3
2, 0
2, 3
4, 4
3, 3
0, 0
2, 0
4, 2
6, 4
1, 3
3, 1
4, 1
2, 2
1, 2
1, 1
4, 1
1, 3
5, 2
4, 1
1, 1
0, 0
0, 2
2, 0
3, 1
4, 5
7, 2
2, 0
0, 3
0, 0
6, 2
4, 1
1, 0
1, 0
1, 3
1, 2
3, 1
2, 0
1, 1
0, 0
0, 1
2, 0
1, 0
1, 0
1, 0
0, 0
0, 0
0, 0
0, 0
0, 0
1, 0
2, 1
1, 0
0, 2
2, 0
0, 2
1, 1
1, 0
1, 0
0, 0
0, 0
0, 0
0, 0
1, 0
0, 2
0, 0
0, 0
1, 1
1, 1
0, 0
1, 0
0, 0
0, 1
0, 0
0, 1
0, 0
0, 0
0, 0
0, 0
0, 0
1, 0
0, 0
0, 0
1, 0
0, 0
0, 0
0, 0
0, 0
0, 0
0, 0
0, 0
0, 1
1, 0
0, 0
0, 0
0, 0
0, 0
0, 0
0, 1
0, 0
0, 0
0, 0
0, 0
0, 0
0, 0
0, 0
0, 0
0, 0
0, 0
0, 0
0, 0
0, 0
0, 1
0, 0
0, 0
0, 0
0, 0
0, 0
0, 0
0, 0
1, 0
0, 0
0, 0
0, 0
0, 0
0, 0
0, 0
0, 0
0, 0
0, 0
0, 0
0, 0
0, 0
0, 0
0, 0
0, 0
0, 0
0, 0
0, 0
0, 0
0, 0
0, 0
0, 0
0, 0
0, 0
0, 0
0, 0
0, 0
0, 0
0, 0
0, 0
0, 0
0, 0
0, 0
0, 0
0, 0
0, 0
0, 0
0, 0
0, 0
0, 0
0, 0
0, 0
0, 0
0, 0
0, 0
0, 0
0, 0
0, 0
0, 0
0, 0
0, 0
0, 0
0, 0
0, 0
0, 0
0, 0
0, 0
0, 0
0, 0
0, 0
0, 0
0, 0
0, 0
0, 0
0, 0
0, 0
0, 0
0, 0
0, 0
0, 0
0, 0
0, 0
0, 0
0, 0
0, 0
0, 0
0, 0
0, 0
0, 0
0, 0
0, 0
0, 0
#ENDOFDATA     end of spectrum data