File: host_upload/12-01-2023/Dourbes (shot-by-shot)/upload_4/ps__0257_0689790785_000rfs_shot_3320.msa
#FORMAT      : EMSA/MAS spectral data file
#VERSION     : TC202v2.0 PIXL
#TITLE       : N/A
#DATE        :       Date in the format DD-MMM-YYYY, for example 07-JUL-2010
#TIME        :             The time of day at which the spectrum was recorded, in 24-hour format
#OWNER       : PIXL Flight Model       (PIXL will use this to indicate which instrument took the data.)
#NPOINTS     : 4096     Number of data points in the spectrum (This can be zero for configuration only files)
#NCOLUMNS    : 2     Number of data columns in the spectrum (This can be zero for configuration only files)
#XUNITS      : eV
#YUNITS      : COUNTS
#DATATYPE    : YY
#XPERCHAN    : 7.862, 7.881   eV per channel (separate by commas if more than one detector)
#OFFSET      : 18.5, -22.4         eV of first channel  (separate by commas if more than one detector
#SIGNALTYPE  : XRF
#YP_TEMP     : 3.198
#LIVETIME    : 9.02857, 9.02182   seconds (separate by commas if more than one detector)
#REALTIME    : 10, 10.0   seconds (separate by commas if more than one detector)
#SPECTRUM    : start of spectrum data
0, 0
0, 0
0, 0
0, 0
0, 0
0, 0
0, 0
0, 0
0, 0
1, 0
2, 0
25, 33
37, 37
5, 5
3, 8
85, 86
528, 537
84, 80
7, 11
1, 5
2, 4
18, 13
11, 7
17, 13
61, 65
83, 60
28, 31
16, 22
7, 8
5, 4
7, 6
7, 2
10, 9
156, 146
232, 217
36, 23
26, 36
38, 44
9, 7
6, 6
13, 9
18, 21
20, 18
18, 13
14, 6
11, 6
13, 3
8, 4
13, 16
24, 18
20, 20
16, 12
13, 14
60, 90
94, 76
30, 35
26, 40
561, 645
3036, 3267
1834, 1659
128, 101
23, 22
28, 30
125, 156
484, 459
239, 209
10, 17
6, 4
14, 9
8, 6
5, 9
5, 6
0, 10
10, 4
6, 5
5, 11
5, 19
4, 10
5, 4
7, 4
2, 5
7, 4
3, 5
7, 4
5, 4
5, 3
4, 4
2, 6
4, 2
6, 8
7, 3
1, 5
1, 2
2, 6
2, 3
1, 3
2, 4
1, 2
1, 0
5, 3
4, 1
1, 1
5, 1
4, 2
4, 3
4, 1
2, 3
2, 3
3, 1
1, 3
1, 2
2, 1
1, 3
1, 2
2, 0
6, 1
8, 3
1, 2
0, 1
0, 2
1, 4
2, 2
1, 1
0, 1
1, 0
0, 1
0, 1
2, 0
0, 3
0, 0
0, 1
0, 2
2, 0
1, 1
0, 2
0, 0
1, 0
1, 0
0, 0
0, 0
0, 0
1, 0
0, 0
0, 1
0, 0
0, 0
0, 0
1, 0
0, 0
1, 1
2, 0
0, 0
0, 0
2, 0
1, 0
0, 0
0, 0
0, 0
1, 0
0, 0
0, 0
0, 0
1, 0
0, 0
0, 0
0, 0
0, 0
0, 0
1, 0
1, 0
0, 0
0, 0
0, 1
1, 0
0, 0
0, 0
0, 0
0, 0
1, 0
0, 0
0, 0
0, 0
0, 1
1, 1
0, 0
1, 0
1, 0
0, 0
0, 0
1, 0
0, 0
0, 0
0, 1
0, 0
0, 0
0, 0
1, 0
0, 0
1, 0
0, 0
0, 0
0, 0
0, 0
0, 0
1, 0
0, 0
0, 0
0, 0
0, 0
0, 0
0, 0
0, 0
0, 0
0, 0
0, 0
0, 0
0, 0
0, 0
0, 0
0, 0
0, 0
0, 0
0, 0
0, 0
0, 0
0, 0
0, 0
0, 0
0, 0
0, 0
0, 0
0, 0
0, 0
0, 0
0, 0
0, 0
0, 0
0, 0
0, 0
0, 0
0, 0
0, 0
0, 0
0, 0
0, 0
0, 0
0, 0
0, 0
0, 0
0, 0
0, 0
0, 0
0, 0
0, 0
0, 0
0, 0
0, 0
0, 0
0, 0
0, 0
0, 0
0, 0
0, 0
0, 0
0, 0
0, 0
0, 0
0, 0
0, 0
0, 0
0, 0
0, 0
0, 0
0, 0
0, 0
0, 0
0, 0
0, 0
0, 0
0, 0
0, 0
0, 0
0, 0
0, 0
0, 0
0, 0
0, 0
0, 0
0, 0
0, 0
0, 0
0, 0
0, 0
0, 0
#ENDOFDATA     end of spectrum data