File: host_upload/12-01-2023/Dourbes (shot-by-shot)/upload_4/ps__0257_0689790785_000rfs_shot_3127.msa
#FORMAT      : EMSA/MAS spectral data file
#VERSION     : TC202v2.0 PIXL
#TITLE       : N/A
#DATE        :       Date in the format DD-MMM-YYYY, for example 07-JUL-2010
#TIME        :             The time of day at which the spectrum was recorded, in 24-hour format
#OWNER       : PIXL Flight Model       (PIXL will use this to indicate which instrument took the data.)
#NPOINTS     : 4096     Number of data points in the spectrum (This can be zero for configuration only files)
#NCOLUMNS    : 2     Number of data columns in the spectrum (This can be zero for configuration only files)
#XUNITS      : eV
#YUNITS      : COUNTS
#DATATYPE    : YY
#XPERCHAN    : 7.862, 7.881   eV per channel (separate by commas if more than one detector)
#OFFSET      : 18.5, -22.4         eV of first channel  (separate by commas if more than one detector
#SIGNALTYPE  : XRF
#YP_TEMP     : 3.198
#LIVETIME    : 9.0113, 8.99614   seconds (separate by commas if more than one detector)
#REALTIME    : 10, 10.0   seconds (separate by commas if more than one detector)
#SPECTRUM    : start of spectrum data
0, 0
0, 0
0, 0
0, 0
0, 0
0, 0
0, 0
0, 0
0, 0
2, 2
3, 3
28, 35
50, 24
5, 1
7, 4
87, 58
473, 519
82, 81
5, 3
2, 2
2, 4
4, 2
5, 4
9, 11
59, 57
40, 41
18, 22
11, 13
5, 2
5, 3
2, 6
1, 0
2, 5
13, 23
23, 29
3, 5
6, 4
3, 4
13, 1
13, 8
7, 5
15, 10
18, 15
11, 4
8, 6
4, 4
6, 6
3, 3
7, 9
9, 14
7, 7
6, 9
13, 12
46, 49
70, 80
22, 80
32, 113
635, 783
3467, 3777
2223, 1989
184, 129
13, 16
29, 22
126, 159
533, 561
290, 252
28, 18
5, 3
3, 8
7, 5
7, 4
3, 3
6, 1
16, 6
10, 7
3, 4
3, 4
2, 5
0, 3
2, 5
2, 2
1, 2
4, 1
2, 2
0, 2
2, 2
6, 3
10, 0
4, 3
2, 3
2, 1
1, 1
5, 0
3, 2
1, 5
2, 3
3, 3
3, 4
1, 2
2, 1
2, 4
4, 1
3, 2
2, 1
5, 1
3, 2
1, 0
2, 3
0, 1
1, 1
3, 3
0, 0
1, 4
1, 5
4, 2
4, 3
5, 6
3, 4
3, 1
2, 0
2, 1
2, 1
2, 1
1, 2
2, 0
2, 1
0, 0
0, 1
1, 0
5, 0
0, 2
1, 1
1, 1
1, 0
0, 0
0, 0
3, 3
0, 0
0, 0
0, 0
0, 0
0, 0
0, 0
1, 0
0, 0
1, 1
1, 0
0, 1
0, 1
2, 0
0, 0
0, 0
0, 0
2, 0
0, 0
0, 0
0, 0
0, 1
0, 0
0, 0
0, 1
0, 0
0, 0
0, 0
0, 1
0, 0
0, 0
0, 0
1, 0
0, 0
0, 0
1, 0
0, 0
0, 0
0, 0
0, 1
0, 0
0, 0
0, 0
0, 0
0, 0
0, 0
0, 0
0, 0
0, 0
1, 0
0, 0
0, 0
0, 0
0, 0
0, 0
0, 0
0, 0
0, 0
0, 0
0, 0
0, 0
1, 0
0, 0
0, 0
0, 0
0, 0
0, 0
0, 0
0, 0
0, 0
0, 0
0, 0
0, 0
0, 0
0, 0
0, 0
0, 0
0, 0
0, 0
0, 0
0, 0
0, 0
0, 0
0, 0
0, 0
0, 0
0, 0
0, 0
0, 0
0, 0
0, 0
0, 0
0, 0
0, 0
0, 0
0, 0
0, 0
0, 0
0, 0
0, 0
0, 0
0, 0
0, 0
0, 0
0, 0
0, 0
0, 0
0, 0
0, 0
0, 0
0, 0
0, 0
0, 0
0, 0
0, 0
0, 0
0, 0
0, 0
0, 0
0, 0
0, 0
0, 0
0, 0
0, 0
0, 0
0, 0
0, 0
0, 0
0, 0
0, 0
0, 0
0, 0
0, 0
0, 0
0, 0
0, 0
0, 0
0, 0
0, 0
0, 0
0, 0
0, 0
0, 0
0, 0
0, 0
0, 0
0, 0
0, 0
0, 0
0, 0
0, 0
0, 0
0, 0
0, 0
0, 0
0, 0
0, 0
0, 0
#ENDOFDATA     end of spectrum data