File: host_upload/12-01-2023/Dourbes (shot-by-shot)/upload_4/ps__0257_0689790785_000rfs_shot_3168.msa
#FORMAT      : EMSA/MAS spectral data file
#VERSION     : TC202v2.0 PIXL
#TITLE       : N/A
#DATE        :       Date in the format DD-MMM-YYYY, for example 07-JUL-2010
#TIME        :             The time of day at which the spectrum was recorded, in 24-hour format
#OWNER       : PIXL Flight Model       (PIXL will use this to indicate which instrument took the data.)
#NPOINTS     : 4096     Number of data points in the spectrum (This can be zero for configuration only files)
#NCOLUMNS    : 2     Number of data columns in the spectrum (This can be zero for configuration only files)
#XUNITS      : eV
#YUNITS      : COUNTS
#DATATYPE    : YY
#XPERCHAN    : 7.862, 7.881   eV per channel (separate by commas if more than one detector)
#OFFSET      : 18.5, -22.4         eV of first channel  (separate by commas if more than one detector
#SIGNALTYPE  : XRF
#YP_TEMP     : 3.294
#LIVETIME    : 8.99795, 9.00193   seconds (separate by commas if more than one detector)
#REALTIME    : 10, 10.0   seconds (separate by commas if more than one detector)
#SPECTRUM    : start of spectrum data
0, 0
0, 0
0, 0
0, 0
0, 0
0, 0
0, 0
0, 0
1, 0
1, 1
1, 1
35, 29
38, 40
5, 3
2, 7
72, 82
465, 475
91, 77
2, 9
3, 4
3, 2
5, 1
4, 4
5, 5
23, 38
28, 39
19, 18
4, 23
2, 0
4, 3
1, 1
2, 4
2, 2
17, 23
30, 28
8, 24
31, 40
10, 8
5, 9
2, 2
3, 7
8, 18
15, 19
18, 16
6, 6
6, 7
9, 10
6, 9
8, 12
8, 19
13, 9
12, 10
12, 14
69, 76
96, 93
27, 16
37, 39
720, 818
3716, 3790
2260, 1826
177, 115
18, 22
28, 47
158, 191
547, 556
291, 228
34, 15
7, 14
5, 6
7, 2
5, 3
7, 9
4, 5
8, 6
5, 7
8, 6
7, 8
0, 5
3, 3
4, 3
2, 7
3, 6
5, 6
2, 1
4, 4
4, 7
1, 2
5, 0
4, 0
2, 3
3, 4
2, 3
5, 3
3, 3
3, 6
4, 4
2, 1
3, 2
1, 5
3, 9
1, 1
3, 2
1, 3
6, 3
2, 4
2, 0
1, 1
2, 1
3, 2
2, 4
3, 2
3, 1
2, 4
2, 0
2, 1
4, 6
7, 8
5, 4
3, 2
4, 1
0, 2
3, 2
5, 2
3, 2
2, 0
1, 1
1, 1
1, 0
2, 0
2, 1
7, 3
2, 1
2, 0
1, 0
0, 2
0, 1
1, 0
0, 0
0, 0
1, 1
0, 0
1, 0
1, 0
2, 0
0, 0
0, 0
0, 0
3, 0
0, 0
0, 1
3, 1
0, 1
1, 1
0, 0
1, 1
0, 0
1, 0
0, 1
0, 0
0, 1
0, 0
1, 0
0, 0
0, 0
0, 0
0, 2
0, 1
0, 1
0, 0
0, 1
0, 1
0, 0
0, 0
0, 1
2, 0
0, 1
0, 0
0, 0
0, 0
0, 0
0, 0
1, 0
0, 0
0, 0
1, 0
0, 0
0, 0
0, 0
0, 0
1, 0
0, 0
0, 0
0, 0
0, 0
0, 0
0, 1
0, 0
0, 0
0, 0
0, 0
0, 0
0, 0
0, 0
0, 0
0, 0
0, 0
0, 0
0, 0
0, 0
0, 0
0, 0
0, 0
0, 0
0, 0
0, 0
0, 0
0, 1
0, 0
0, 0
0, 0
0, 0
0, 0
0, 0
0, 0
0, 0
0, 0
0, 0
0, 0
0, 0
0, 0
0, 0
0, 0
0, 0
0, 0
0, 0
0, 0
0, 0
0, 0
0, 0
0, 0
0, 0
0, 0
0, 0
0, 0
0, 0
0, 0
0, 0
0, 0
0, 0
0, 0
0, 0
0, 0
0, 0
0, 0
0, 0
0, 0
0, 0
0, 0
0, 0
0, 0
0, 0
0, 0
0, 0
0, 0
0, 0
0, 0
0, 0
0, 0
0, 0
0, 0
0, 0
0, 0
0, 0
0, 0
0, 0
0, 0
0, 0
0, 0
0, 0
0, 0
0, 0
0, 0
0, 0
0, 0
0, 0
0, 0
0, 0
0, 0
0, 0
0, 0
0, 0
0, 0
0, 0
0, 0
#ENDOFDATA     end of spectrum data