File: host_upload/12-01-2023/Dourbes (shot-by-shot)/upload_4/ps__0257_0689790785_000rfs_shot_3192.msa
#FORMAT      : EMSA/MAS spectral data file
#VERSION     : TC202v2.0 PIXL
#TITLE       : N/A
#DATE        :       Date in the format DD-MMM-YYYY, for example 07-JUL-2010
#TIME        :             The time of day at which the spectrum was recorded, in 24-hour format
#OWNER       : PIXL Flight Model       (PIXL will use this to indicate which instrument took the data.)
#NPOINTS     : 4096     Number of data points in the spectrum (This can be zero for configuration only files)
#NCOLUMNS    : 2     Number of data columns in the spectrum (This can be zero for configuration only files)
#XUNITS      : eV
#YUNITS      : COUNTS
#DATATYPE    : YY
#XPERCHAN    : 7.862, 7.881   eV per channel (separate by commas if more than one detector)
#OFFSET      : 18.5, -22.4         eV of first channel  (separate by commas if more than one detector
#SIGNALTYPE  : XRF
#YP_TEMP     : 2.973
#LIVETIME    : 8.98071, 8.96527   seconds (separate by commas if more than one detector)
#REALTIME    : 10, 10.0   seconds (separate by commas if more than one detector)
#SPECTRUM    : start of spectrum data
0, 0
0, 0
0, 0
0, 0
0, 0
0, 0
0, 0
0, 0
0, 1
1, 4
1, 7
32, 34
37, 32
4, 3
6, 4
77, 89
475, 483
77, 66
5, 12
1, 1
1, 10
7, 20
4, 3
11, 8
31, 66
49, 246
22, 145
8, 15
5, 5
3, 5
1, 6
14, 6
29, 7
20, 21
32, 32
5, 13
2, 11
17, 7
9, 2
4, 4
5, 7
22, 19
20, 22
16, 18
11, 8
5, 21
5, 30
11, 16
9, 7
20, 48
23, 213
11, 172
17, 40
52, 77
78, 111
36, 30
37, 52
612, 847
3437, 3860
2254, 1968
173, 138
8, 38
25, 29
151, 179
477, 605
332, 273
29, 24
5, 11
9, 5
9, 7
2, 16
2, 26
4, 13
5, 4
7, 6
8, 7
2, 4
1, 4
5, 2
4, 4
4, 4
5, 9
6, 2
4, 4
1, 2
1, 7
5, 3
1, 2
5, 3
1, 2
4, 9
1, 7
2, 7
2, 0
4, 3
2, 2
4, 6
3, 4
4, 3
5, 2
1, 3
3, 3
4, 1
0, 3
1, 3
3, 1
1, 4
3, 2
5, 4
1, 5
2, 4
3, 1
1, 5
0, 2
3, 1
1, 3
5, 8
8, 5
3, 5
0, 1
1, 0
0, 3
6, 2
3, 0
0, 0
0, 1
2, 0
0, 2
2, 2
1, 1
2, 5
0, 1
0, 0
1, 4
1, 0
1, 0
2, 0
0, 1
0, 0
0, 0
1, 1
1, 1
0, 0
0, 0
0, 1
0, 0
1, 0
0, 1
1, 0
0, 0
1, 0
0, 0
0, 0
0, 0
0, 0
0, 0
1, 0
0, 0
1, 1
0, 1
0, 0
0, 0
0, 1
0, 0
0, 0
0, 1
0, 0
0, 0
0, 0
0, 0
0, 0
0, 0
0, 1
0, 1
0, 0
0, 0
0, 1
1, 1
0, 1
0, 0
0, 0
1, 0
0, 0
0, 0
0, 0
0, 0
0, 0
0, 0
0, 0
0, 0
0, 0
0, 0
0, 0
0, 0
0, 0
0, 0
0, 0
0, 0
0, 0
0, 0
0, 0
0, 0
0, 0
0, 0
0, 0
0, 0
0, 0
0, 0
0, 0
0, 0
0, 0
0, 0
0, 0
0, 0
0, 0
0, 0
0, 0
0, 0
0, 0
0, 0
0, 0
0, 0
0, 0
0, 0
0, 0
0, 0
0, 0
0, 0
0, 0
0, 0
0, 0
0, 0
0, 0
0, 0
0, 0
0, 0
0, 0
0, 0
0, 0
0, 0
0, 0
0, 0
0, 0
0, 0
0, 0
0, 0
0, 0
0, 0
0, 0
0, 0
0, 0
0, 0
0, 0
0, 0
0, 0
0, 0
0, 0
0, 0
0, 0
0, 0
0, 0
0, 0
0, 0
0, 0
0, 0
0, 0
0, 0
0, 0
0, 0
0, 0
0, 0
0, 0
0, 0
0, 0
0, 0
0, 0
0, 0
0, 0
0, 0
0, 0
0, 0
0, 0
0, 0
0, 0
0, 0
0, 0
0, 0
0, 0
0, 0
0, 0
0, 0
0, 0
0, 0
0, 0
#ENDOFDATA     end of spectrum data