File: host_upload/12-01-2023/Dourbes (shot-by-shot)/upload_4/ps__0257_0689790785_000rfs_shot_3181.msa
#FORMAT      : EMSA/MAS spectral data file
#VERSION     : TC202v2.0 PIXL
#TITLE       : N/A
#DATE        :       Date in the format DD-MMM-YYYY, for example 07-JUL-2010
#TIME        :             The time of day at which the spectrum was recorded, in 24-hour format
#OWNER       : PIXL Flight Model       (PIXL will use this to indicate which instrument took the data.)
#NPOINTS     : 4096     Number of data points in the spectrum (This can be zero for configuration only files)
#NCOLUMNS    : 2     Number of data columns in the spectrum (This can be zero for configuration only files)
#XUNITS      : eV
#YUNITS      : COUNTS
#DATATYPE    : YY
#XPERCHAN    : 7.862, 7.881   eV per channel (separate by commas if more than one detector)
#OFFSET      : 18.5, -22.4         eV of first channel  (separate by commas if more than one detector
#SIGNALTYPE  : XRF
#YP_TEMP     : 3.198
#LIVETIME    : 9.00841, 8.99896   seconds (separate by commas if more than one detector)
#REALTIME    : 10, 10.0   seconds (separate by commas if more than one detector)
#SPECTRUM    : start of spectrum data
0, 0
0, 0
0, 0
0, 0
0, 0
0, 0
0, 0
0, 0
0, 1
2, 1
2, 1
26, 31
47, 30
2, 1
5, 8
97, 69
544, 544
91, 91
3, 4
0, 4
2, 3
7, 2
5, 4
4, 3
14, 16
26, 32
14, 6
11, 11
4, 4
2, 0
2, 2
1, 4
6, 6
76, 53
106, 88
17, 11
11, 21
11, 19
3, 5
4, 4
8, 4
14, 15
16, 15
9, 10
7, 6
5, 6
6, 4
6, 7
8, 9
9, 12
14, 12
8, 11
5, 6
50, 74
103, 79
27, 27
32, 46
622, 793
3506, 3719
2210, 1874
181, 127
12, 65
28, 67
135, 184
510, 581
304, 243
35, 29
18, 14
9, 6
5, 2
1, 8
1, 11
4, 3
2, 3
2, 2
6, 5
1, 2
2, 0
9, 2
3, 4
6, 6
1, 5
7, 5
2, 2
1, 5
6, 2
2, 4
2, 7
3, 3
3, 6
1, 2
3, 5
0, 3
0, 2
3, 1
3, 4
1, 3
2, 1
0, 3
0, 1
1, 3
3, 2
2, 3
1, 2
4, 3
3, 2
1, 3
1, 2
1, 1
1, 3
0, 2
3, 1
0, 2
1, 0
4, 4
5, 2
6, 8
6, 5
2, 2
2, 4
3, 2
1, 4
2, 4
2, 1
3, 1
1, 2
1, 0
0, 0
0, 0
0, 0
2, 0
2, 1
0, 0
0, 1
2, 0
0, 0
1, 0
0, 1
2, 1
0, 0
0, 0
1, 0
1, 0
0, 0
0, 0
0, 0
0, 0
1, 0
0, 0
1, 0
0, 2
0, 0
0, 0
0, 0
0, 0
0, 0
2, 0
2, 1
0, 0
0, 1
0, 1
0, 0
0, 0
0, 0
0, 0
0, 0
0, 0
0, 0
0, 0
1, 0
0, 1
0, 0
0, 0
0, 0
0, 0
0, 1
0, 0
0, 0
0, 1
0, 0
0, 0
0, 1
0, 0
0, 0
0, 0
0, 0
0, 0
0, 0
1, 0
0, 0
0, 0
0, 0
0, 0
0, 0
0, 0
0, 0
0, 0
0, 0
0, 0
0, 0
0, 0
0, 0
0, 0
0, 0
0, 0
1, 0
0, 0
0, 0
0, 0
0, 0
0, 0
0, 0
0, 0
0, 0
0, 0
0, 0
0, 0
0, 0
0, 0
0, 0
0, 0
0, 0
0, 0
0, 0
0, 0
0, 0
0, 0
0, 0
0, 0
0, 0
0, 0
0, 0
0, 0
0, 0
0, 0
0, 0
0, 0
0, 0
0, 0
0, 0
0, 0
0, 0
0, 0
0, 0
0, 0
0, 0
0, 0
0, 0
0, 0
0, 0
0, 0
0, 0
0, 0
0, 0
0, 0
0, 0
0, 0
0, 0
0, 0
0, 0
0, 0
0, 0
0, 0
0, 0
0, 0
0, 0
0, 0
0, 0
0, 0
0, 0
0, 0
0, 0
0, 0
0, 0
0, 0
0, 0
0, 0
0, 0
0, 0
0, 0
0, 0
0, 0
0, 0
0, 0
0, 0
0, 0
0, 0
0, 0
0, 0
0, 0
0, 0
0, 0
0, 0
0, 0
#ENDOFDATA     end of spectrum data