File: host_upload/12-01-2023/Dourbes (shot-by-shot)/upload_4/ps__0257_0689790785_000rfs_shot_3059.msa
#FORMAT      : EMSA/MAS spectral data file
#VERSION     : TC202v2.0 PIXL
#TITLE       : N/A
#DATE        :       Date in the format DD-MMM-YYYY, for example 07-JUL-2010
#TIME        :             The time of day at which the spectrum was recorded, in 24-hour format
#OWNER       : PIXL Flight Model       (PIXL will use this to indicate which instrument took the data.)
#NPOINTS     : 4096     Number of data points in the spectrum (This can be zero for configuration only files)
#NCOLUMNS    : 2     Number of data columns in the spectrum (This can be zero for configuration only files)
#XUNITS      : eV
#YUNITS      : COUNTS
#DATATYPE    : YY
#XPERCHAN    : 7.862, 7.881   eV per channel (separate by commas if more than one detector)
#OFFSET      : 18.5, -22.4         eV of first channel  (separate by commas if more than one detector
#SIGNALTYPE  : XRF
#YP_TEMP     : 3.55
#LIVETIME    : 9.01151, 8.98213   seconds (separate by commas if more than one detector)
#REALTIME    : 10, 10.0   seconds (separate by commas if more than one detector)
#SPECTRUM    : start of spectrum data
0, 0
0, 0
0, 0
0, 0
0, 0
0, 0
0, 0
0, 0
2, 1
1, 1
4, 1
24, 31
32, 35
1, 6
5, 9
87, 85
501, 613
89, 103
15, 4
12, 12
8, 12
108, 76
29, 24
10, 18
94, 84
86, 66
15, 34
16, 19
7, 10
1, 4
7, 12
6, 1
3, 5
23, 31
52, 49
13, 11
6, 7
8, 8
6, 4
2, 16
4, 23
19, 21
15, 19
11, 16
8, 8
3, 6
6, 13
11, 5
36, 11
86, 11
43, 13
8, 12
7, 21
39, 104
89, 105
24, 28
22, 52
569, 863
3198, 3848
2094, 2070
181, 132
45, 19
35, 27
116, 158
474, 565
296, 274
24, 25
6, 11
5, 8
9, 5
4, 7
4, 3
4, 2
2, 2
2, 6
7, 2
7, 4
3, 5
5, 4
10, 6
11, 4
5, 2
1, 5
7, 1
2, 2
0, 1
3, 2
5, 4
3, 5
1, 2
2, 2
1, 3
2, 5
1, 7
1, 2
2, 3
2, 5
3, 1
3, 2
1, 1
3, 1
0, 5
0, 2
0, 1
1, 3
4, 2
1, 4
1, 1
2, 2
0, 0
2, 1
3, 5
4, 1
1, 1
0, 2
6, 7
4, 8
5, 3
1, 2
1, 1
2, 3
1, 3
4, 1
1, 2
2, 0
1, 1
1, 1
2, 1
2, 0
2, 1
2, 5
0, 0
0, 1
0, 1
0, 3
0, 2
2, 0
0, 0
0, 0
0, 1
0, 1
0, 0
1, 0
1, 0
0, 1
0, 1
0, 0
0, 0
1, 1
0, 2
0, 1
1, 0
2, 0
0, 0
0, 0
0, 0
0, 1
0, 1
0, 0
0, 0
0, 0
0, 1
1, 0
0, 0
0, 0
1, 0
0, 0
0, 0
0, 0
0, 0
0, 0
0, 0
0, 0
0, 0
0, 0
0, 0
0, 0
0, 0
0, 0
0, 1
0, 0
0, 1
0, 1
0, 0
0, 1
0, 0
0, 0
0, 0
0, 1
0, 0
0, 0
0, 0
0, 0
0, 0
0, 0
0, 0
0, 1
0, 0
0, 0
0, 0
1, 0
0, 0
0, 0
0, 0
0, 0
0, 0
0, 0
0, 0
0, 0
0, 0
0, 0
0, 0
0, 0
0, 0
0, 0
0, 0
0, 0
0, 0
0, 0
0, 0
0, 0
0, 0
0, 0
0, 0
0, 0
0, 0
0, 0
0, 0
0, 0
0, 0
0, 0
0, 0
0, 0
0, 0
0, 0
0, 0
0, 0
0, 0
0, 0
0, 0
0, 0
0, 0
0, 0
0, 0
0, 0
0, 0
0, 0
0, 0
0, 0
0, 0
0, 0
0, 0
0, 0
0, 0
0, 0
0, 0
0, 0
0, 0
0, 0
0, 0
0, 0
0, 0
0, 0
0, 0
0, 0
0, 0
0, 0
0, 0
0, 0
0, 0
0, 0
0, 0
0, 0
0, 0
0, 0
0, 0
0, 0
0, 0
0, 0
0, 0
0, 0
0, 0
0, 0
0, 0
0, 0
0, 0
0, 0
0, 0
0, 0
0, 0
0, 0
0, 0
0, 0
0, 0
#ENDOFDATA     end of spectrum data