File: host_upload/12-01-2023/Dourbes (shot-by-shot)/upload_4/ps__0257_0689790785_000rfs_shot_3221.msa
#FORMAT      : EMSA/MAS spectral data file
#VERSION     : TC202v2.0 PIXL
#TITLE       : N/A
#DATE        :       Date in the format DD-MMM-YYYY, for example 07-JUL-2010
#TIME        :             The time of day at which the spectrum was recorded, in 24-hour format
#OWNER       : PIXL Flight Model       (PIXL will use this to indicate which instrument took the data.)
#NPOINTS     : 4096     Number of data points in the spectrum (This can be zero for configuration only files)
#NCOLUMNS    : 2     Number of data columns in the spectrum (This can be zero for configuration only files)
#XUNITS      : eV
#YUNITS      : COUNTS
#DATATYPE    : YY
#XPERCHAN    : 7.862, 7.881   eV per channel (separate by commas if more than one detector)
#OFFSET      : 18.5, -22.4         eV of first channel  (separate by commas if more than one detector
#SIGNALTYPE  : XRF
#YP_TEMP     : 2.909
#LIVETIME    : 9.05951, 9.07307   seconds (separate by commas if more than one detector)
#REALTIME    : 10, 10.0   seconds (separate by commas if more than one detector)
#SPECTRUM    : start of spectrum data
0, 0
0, 0
0, 0
0, 0
0, 0
0, 0
0, 0
0, 0
1, 2
2, 1
2, 2
29, 26
34, 25
2, 3
2, 10
119, 119
742, 683
126, 106
8, 8
1, 2
14, 5
44, 46
15, 17
29, 19
148, 148
106, 103
60, 39
26, 19
14, 12
5, 4
4, 4
8, 3
5, 6
44, 43
54, 68
7, 9
7, 5
16, 11
11, 9
8, 6
6, 8
22, 10
15, 22
19, 9
12, 15
15, 13
13, 17
17, 9
19, 17
13, 25
13, 35
11, 21
15, 15
31, 41
68, 57
23, 17
38, 31
464, 558
2564, 2648
1599, 1273
124, 92
24, 20
24, 28
145, 150
402, 390
223, 180
24, 12
4, 5
11, 10
5, 2
3, 4
5, 8
1, 5
5, 6
6, 2
8, 10
6, 7
6, 1
4, 6
9, 6
4, 12
6, 5
5, 8
6, 7
3, 6
10, 8
3, 2
8, 6
6, 10
7, 7
6, 5
5, 2
2, 6
4, 4
2, 3
5, 2
7, 3
6, 3
2, 7
2, 2
6, 5
4, 5
4, 2
2, 3
3, 1
4, 1
1, 2
2, 3
1, 2
1, 4
4, 4
4, 3
2, 3
3, 5
0, 2
1, 4
4, 2
4, 1
0, 1
2, 1
3, 4
2, 1
2, 1
4, 1
1, 0
1, 0
0, 1
2, 2
2, 1
2, 1
1, 0
1, 1
2, 3
2, 2
0, 2
0, 0
1, 3
0, 1
0, 1
0, 1
1, 0
1, 2
1, 1
0, 0
1, 1
1, 2
0, 1
0, 1
1, 1
0, 0
0, 2
1, 1
0, 1
0, 1
1, 0
0, 0
1, 0
1, 0
0, 0
0, 0
0, 0
1, 1
0, 0
0, 1
0, 1
0, 0
0, 0
1, 0
1, 0
1, 0
0, 0
1, 1
1, 0
0, 0
0, 0
0, 0
0, 0
0, 0
0, 0
0, 0
0, 0
0, 0
0, 0
0, 0
0, 0
0, 1
0, 0
0, 1
0, 0
0, 0
0, 0
0, 0
0, 1
0, 0
0, 0
0, 0
0, 0
0, 0
0, 0
0, 0
0, 0
0, 0
0, 0
0, 0
0, 0
0, 0
0, 0
0, 0
0, 0
0, 0
0, 1
0, 0
0, 0
0, 0
0, 0
0, 0
0, 0
0, 0
0, 0
0, 0
0, 0
0, 0
0, 0
0, 1
0, 0
0, 0
0, 0
0, 0
0, 0
0, 0
0, 0
0, 0
0, 0
0, 0
0, 0
0, 0
0, 0
0, 0
0, 0
0, 0
0, 0
0, 0
0, 0
0, 0
0, 0
0, 0
0, 0
0, 0
0, 0
0, 0
0, 0
0, 0
0, 0
0, 0
0, 0
0, 0
0, 0
0, 0
0, 0
0, 0
0, 0
0, 0
0, 0
0, 0
0, 0
0, 0
0, 0
0, 0
0, 0
0, 0
0, 0
0, 0
0, 0
0, 0
0, 0
0, 0
0, 0
0, 0
0, 0
0, 0
0, 0
0, 0
0, 0
0, 0
0, 0
0, 0
0, 0
0, 0
0, 0
0, 0
0, 0
0, 0
0, 0
0, 0
#ENDOFDATA     end of spectrum data