File: host_upload/12-01-2023/Dourbes (shot-by-shot)/upload_4/ps__0257_0689790785_000rfs_shot_3172.msa
#FORMAT      : EMSA/MAS spectral data file
#VERSION     : TC202v2.0 PIXL
#TITLE       : N/A
#DATE        :       Date in the format DD-MMM-YYYY, for example 07-JUL-2010
#TIME        :             The time of day at which the spectrum was recorded, in 24-hour format
#OWNER       : PIXL Flight Model       (PIXL will use this to indicate which instrument took the data.)
#NPOINTS     : 4096     Number of data points in the spectrum (This can be zero for configuration only files)
#NCOLUMNS    : 2     Number of data columns in the spectrum (This can be zero for configuration only files)
#XUNITS      : eV
#YUNITS      : COUNTS
#DATATYPE    : YY
#XPERCHAN    : 7.862, 7.881   eV per channel (separate by commas if more than one detector)
#OFFSET      : 18.5, -22.4         eV of first channel  (separate by commas if more than one detector
#SIGNALTYPE  : XRF
#YP_TEMP     : 3.069
#LIVETIME    : 8.98312, 8.99251   seconds (separate by commas if more than one detector)
#REALTIME    : 10, 10.0   seconds (separate by commas if more than one detector)
#SPECTRUM    : start of spectrum data
0, 0
0, 0
0, 0
0, 0
0, 0
0, 0
0, 0
0, 0
2, 1
0, 2
2, 3
29, 25
50, 44
2, 2
4, 3
63, 87
497, 525
81, 78
2, 8
1, 4
2, 2
10, 6
6, 3
7, 8
34, 43
29, 37
23, 22
12, 10
6, 6
2, 5
2, 1
0, 1
1, 4
15, 16
20, 16
26, 9
196, 11
111, 7
12, 6
1, 5
2, 7
14, 11
12, 18
12, 9
6, 8
5, 20
3, 16
11, 7
11, 3
9, 11
16, 14
18, 6
16, 16
71, 56
89, 85
28, 27
39, 37
692, 819
3569, 3879
2116, 1967
164, 112
16, 17
25, 38
138, 199
495, 594
280, 259
30, 32
2, 6
7, 13
3, 5
4, 1
6, 6
17, 5
12, 2
6, 5
3, 1
4, 1
3, 10
0, 8
6, 6
3, 3
2, 4
3, 4
2, 4
0, 1
1, 4
1, 1
7, 2
3, 4
3, 2
3, 4
2, 4
3, 2
6, 4
9, 4
5, 1
0, 2
1, 0
3, 5
0, 7
5, 6
5, 0
2, 0
1, 4
0, 6
3, 0
1, 2
2, 1
2, 0
2, 1
6, 2
2, 0
5, 2
1, 4
1, 1
2, 8
6, 11
4, 6
0, 2
2, 4
0, 1
0, 4
1, 0
2, 1
2, 0
0, 1
0, 3
0, 0
1, 0
0, 1
2, 0
6, 0
1, 1
0, 0
0, 0
1, 0
1, 1
1, 0
1, 2
0, 2
0, 0
3, 0
0, 1
0, 0
0, 0
0, 0
0, 1
0, 0
0, 0
0, 0
0, 0
0, 0
0, 1
0, 0
0, 0
0, 0
1, 1
0, 0
0, 1
1, 0
1, 0
0, 0
0, 0
0, 0
1, 1
0, 0
1, 1
0, 2
1, 0
0, 0
0, 0
0, 0
0, 0
0, 1
0, 0
0, 0
0, 0
0, 0
1, 0
0, 0
0, 0
0, 0
0, 0
0, 0
1, 0
0, 0
0, 0
0, 0
0, 0
0, 0
0, 0
0, 0
0, 0
0, 0
0, 0
0, 0
0, 0
0, 0
0, 0
0, 0
0, 0
0, 0
0, 0
0, 1
0, 0
1, 0
0, 0
0, 0
0, 0
0, 0
0, 0
0, 0
0, 0
0, 0
0, 0
0, 0
0, 0
0, 0
0, 0
0, 0
0, 0
0, 0
0, 0
0, 0
0, 0
0, 0
0, 0
0, 0
0, 0
0, 0
0, 0
0, 0
0, 0
0, 0
0, 0
0, 0
0, 0
0, 0
0, 0
0, 0
0, 0
0, 0
0, 0
0, 0
0, 0
0, 0
0, 0
0, 0
0, 0
0, 0
0, 0
0, 0
0, 0
0, 0
0, 0
0, 0
0, 0
0, 0
0, 0
0, 0
0, 0
0, 0
0, 0
0, 0
0, 0
0, 0
0, 0
0, 0
0, 0
0, 0
0, 0
0, 0
0, 0
0, 0
0, 0
0, 0
0, 0
0, 0
0, 0
0, 0
0, 0
0, 0
0, 0
0, 0
0, 0
0, 0
0, 0
0, 0
0, 0
0, 0
0, 0
0, 0
0, 0
0, 0
#ENDOFDATA     end of spectrum data