File: host_upload/12-01-2023/Dourbes (shot-by-shot)/upload_4/ps__0257_0689790785_000rfs_shot_3063.msa
#FORMAT      : EMSA/MAS spectral data file
#VERSION     : TC202v2.0 PIXL
#TITLE       : N/A
#DATE        :       Date in the format DD-MMM-YYYY, for example 07-JUL-2010
#TIME        :             The time of day at which the spectrum was recorded, in 24-hour format
#OWNER       : PIXL Flight Model       (PIXL will use this to indicate which instrument took the data.)
#NPOINTS     : 4096     Number of data points in the spectrum (This can be zero for configuration only files)
#NCOLUMNS    : 2     Number of data columns in the spectrum (This can be zero for configuration only files)
#XUNITS      : eV
#YUNITS      : COUNTS
#DATATYPE    : YY
#XPERCHAN    : 7.862, 7.881   eV per channel (separate by commas if more than one detector)
#OFFSET      : 18.5, -22.4         eV of first channel  (separate by commas if more than one detector
#SIGNALTYPE  : XRF
#YP_TEMP     : 3.133
#LIVETIME    : 9.00516, 9.00745   seconds (separate by commas if more than one detector)
#REALTIME    : 10, 10.0   seconds (separate by commas if more than one detector)
#SPECTRUM    : start of spectrum data
0, 0
0, 0
0, 0
0, 0
0, 0
0, 0
0, 0
0, 0
1, 0
0, 2
2, 2
15, 23
37, 27
9, 5
15, 10
123, 76
504, 575
88, 106
3, 6
1, 1
2, 1
15, 6
2, 2
10, 9
28, 65
53, 68
25, 25
15, 18
6, 1
9, 6
23, 18
6, 9
4, 2
24, 32
27, 36
4, 6
4, 10
2, 11
5, 7
3, 8
15, 20
44, 50
31, 35
20, 16
11, 15
14, 14
10, 8
7, 11
14, 30
44, 42
30, 35
12, 20
11, 17
50, 77
78, 76
24, 34
34, 21
578, 718
3251, 3684
2110, 1900
193, 119
148, 19
120, 29
158, 170
478, 586
278, 251
27, 18
7, 5
4, 7
6, 8
3, 5
3, 5
2, 2
1, 7
5, 7
4, 9
5, 10
12, 11
1, 9
7, 10
5, 2
3, 4
3, 2
4, 7
5, 4
1, 3
3, 1
7, 3
2, 6
6, 0
5, 2
4, 2
2, 3
3, 0
0, 1
3, 2
1, 1
3, 2
4, 4
1, 3
1, 3
1, 2
3, 4
4, 4
1, 2
1, 5
5, 3
2, 4
2, 3
2, 2
3, 1
2, 1
2, 1
0, 4
2, 1
2, 5
6, 9
5, 3
1, 3
0, 1
3, 2
2, 1
3, 3
1, 1
0, 0
1, 2
1, 1
3, 1
0, 1
2, 1
0, 1
0, 1
0, 2
0, 0
0, 1
0, 1
1, 0
1, 0
3, 0
0, 0
0, 0
2, 0
0, 1
2, 1
0, 0
0, 0
0, 1
0, 0
0, 0
0, 0
1, 0
0, 0
1, 1
0, 0
1, 1
0, 0
0, 0
0, 1
0, 1
0, 0
0, 0
0, 0
1, 1
0, 0
0, 0
1, 0
0, 0
1, 0
0, 0
0, 0
0, 0
1, 2
0, 0
0, 0
0, 0
1, 0
0, 0
1, 0
0, 0
0, 0
0, 0
0, 0
0, 0
0, 1
0, 0
0, 0
0, 0
0, 0
0, 0
0, 0
0, 0
0, 0
1, 0
0, 0
0, 0
0, 0
0, 0
0, 0
0, 1
0, 0
0, 0
0, 0
0, 0
0, 0
0, 0
0, 0
0, 0
0, 0
0, 0
0, 0
0, 0
0, 0
0, 0
0, 0
0, 0
0, 0
0, 0
0, 0
0, 0
0, 0
0, 0
0, 0
0, 0
0, 0
0, 0
0, 0
0, 0
0, 0
0, 0
0, 0
0, 0
0, 0
0, 0
0, 0
0, 0
0, 0
0, 0
0, 0
0, 0
0, 0
0, 0
0, 0
0, 0
0, 0
0, 0
0, 0
0, 0
0, 0
0, 0
0, 0
0, 0
0, 0
0, 0
0, 0
0, 0
0, 0
0, 0
0, 0
0, 0
0, 0
0, 0
0, 0
0, 0
0, 0
0, 0
0, 0
0, 0
0, 0
0, 0
0, 0
0, 0
0, 0
0, 0
0, 0
0, 0
0, 0
0, 0
0, 0
0, 0
0, 0
0, 0
0, 0
0, 0
0, 0
0, 0
0, 0
0, 0
0, 0
0, 0
0, 0
0, 0
0, 0
0, 0
0, 0
#ENDOFDATA     end of spectrum data