File: host_upload/12-01-2023/Dourbes (shot-by-shot)/upload_4/ps__0257_0689790785_000rfs_shot_3045.msa
#FORMAT      : EMSA/MAS spectral data file
#VERSION     : TC202v2.0 PIXL
#TITLE       : N/A
#DATE        :       Date in the format DD-MMM-YYYY, for example 07-JUL-2010
#TIME        :             The time of day at which the spectrum was recorded, in 24-hour format
#OWNER       : PIXL Flight Model       (PIXL will use this to indicate which instrument took the data.)
#NPOINTS     : 4096     Number of data points in the spectrum (This can be zero for configuration only files)
#NCOLUMNS    : 2     Number of data columns in the spectrum (This can be zero for configuration only files)
#XUNITS      : eV
#YUNITS      : COUNTS
#DATATYPE    : YY
#XPERCHAN    : 7.862, 7.881   eV per channel (separate by commas if more than one detector)
#OFFSET      : 18.5, -22.4         eV of first channel  (separate by commas if more than one detector
#SIGNALTYPE  : XRF
#YP_TEMP     : 3.294
#LIVETIME    : 9.00173, 8.99273   seconds (separate by commas if more than one detector)
#REALTIME    : 10, 10.0   seconds (separate by commas if more than one detector)
#SPECTRUM    : start of spectrum data
0, 0
0, 0
0, 0
0, 0
0, 0
0, 0
0, 0
0, 0
1, 1
1, 0
0, 3
29, 31
37, 38
4, 3
4, 1
70, 65
414, 490
82, 79
1, 6
8, 0
63, 5
51, 6
5, 5
2, 8
23, 25
40, 32
14, 13
12, 8
5, 3
2, 3
0, 5
0, 5
1, 6
16, 23
19, 75
3, 27
3, 6
8, 13
3, 6
1, 2
3, 10
10, 10
18, 20
14, 13
7, 4
5, 6
14, 9
8, 4
11, 11
10, 72
7, 148
7, 52
8, 11
55, 71
101, 86
24, 35
28, 33
604, 739
3490, 3729
2170, 2005
210, 135
28, 15
37, 22
135, 154
488, 518
311, 294
26, 20
2, 8
12, 13
3, 10
6, 3
2, 3
3, 3
2, 4
2, 4
5, 6
1, 2
2, 4
10, 0
4, 5
5, 17
4, 18
4, 6
6, 2
0, 4
3, 3
0, 3
2, 2
1, 4
0, 3
4, 3
2, 3
5, 2
2, 5
3, 2
0, 4
2, 5
4, 2
3, 3
1, 12
1, 13
4, 4
1, 2
4, 3
0, 2
2, 3
4, 0
3, 2
1, 0
3, 1
1, 1
0, 1
5, 1
4, 2
1, 2
5, 2
6, 8
2, 4
3, 2
2, 1
0, 1
2, 2
1, 3
3, 2
1, 0
0, 1
0, 2
0, 1
0, 0
2, 1
0, 1
1, 1
2, 1
0, 3
1, 0
1, 2
1, 1
0, 1
4, 0
0, 0
2, 0
0, 0
1, 0
1, 0
1, 0
1, 1
2, 2
0, 0
0, 1
0, 0
0, 0
0, 1
1, 0
0, 1
0, 1
1, 1
0, 0
0, 0
0, 0
1, 0
0, 0
1, 1
1, 0
1, 0
1, 0
0, 0
1, 0
0, 2
0, 0
0, 0
0, 0
0, 0
1, 0
2, 0
0, 0
0, 1
0, 0
0, 0
0, 0
0, 0
0, 0
0, 0
1, 0
0, 0
0, 0
0, 0
0, 1
0, 0
0, 0
0, 0
0, 0
0, 0
0, 0
0, 0
0, 0
0, 0
0, 1
0, 0
0, 1
0, 0
1, 0
0, 0
0, 0
0, 0
0, 0
1, 0
0, 0
0, 0
0, 0
0, 0
0, 0
0, 0
0, 0
0, 0
0, 0
0, 0
0, 0
0, 0
0, 0
0, 0
0, 0
0, 0
0, 0
0, 0
0, 0
0, 0
0, 0
0, 0
0, 0
0, 0
0, 0
0, 0
0, 0
0, 0
0, 0
0, 0
0, 0
0, 0
0, 0
0, 0
0, 0
0, 0
0, 0
0, 0
0, 0
0, 0
0, 0
0, 0
0, 0
0, 0
0, 0
0, 0
0, 0
0, 0
0, 0
0, 0
0, 0
0, 0
0, 0
0, 0
0, 0
0, 0
0, 0
0, 0
0, 0
0, 0
0, 0
0, 0
0, 0
0, 0
0, 0
0, 0
0, 0
0, 0
0, 0
0, 0
0, 0
0, 0
0, 0
0, 0
0, 0
0, 0
0, 0
0, 0
0, 0
0, 0
0, 0
0, 0
0, 0
0, 0
0, 0
0, 0
0, 0
0, 0
#ENDOFDATA     end of spectrum data