File: host_upload/12-01-2023/Dourbes (shot-by-shot)/upload_4/ps__0257_0689790785_000rfs_shot_3082.msa
#FORMAT      : EMSA/MAS spectral data file
#VERSION     : TC202v2.0 PIXL
#TITLE       : N/A
#DATE        :       Date in the format DD-MMM-YYYY, for example 07-JUL-2010
#TIME        :             The time of day at which the spectrum was recorded, in 24-hour format
#OWNER       : PIXL Flight Model       (PIXL will use this to indicate which instrument took the data.)
#NPOINTS     : 4096     Number of data points in the spectrum (This can be zero for configuration only files)
#NCOLUMNS    : 2     Number of data columns in the spectrum (This can be zero for configuration only files)
#XUNITS      : eV
#YUNITS      : COUNTS
#DATATYPE    : YY
#XPERCHAN    : 7.862, 7.881   eV per channel (separate by commas if more than one detector)
#OFFSET      : 18.5, -22.4         eV of first channel  (separate by commas if more than one detector
#SIGNALTYPE  : XRF
#YP_TEMP     : 2.973
#LIVETIME    : 9.00292, 9.00179   seconds (separate by commas if more than one detector)
#REALTIME    : 10, 10.0   seconds (separate by commas if more than one detector)
#SPECTRUM    : start of spectrum data
0, 0
0, 0
0, 0
0, 0
0, 0
0, 0
0, 0
1, 0
0, 0
1, 1
1, 0
41, 27
41, 31
3, 2
4, 4
65, 68
485, 481
76, 75
0, 8
2, 1
1, 1
6, 3
2, 3
7, 6
26, 22
22, 29
12, 10
14, 10
2, 3
3, 2
1, 1
2, 2
3, 1
10, 12
22, 21
4, 2
6, 2
3, 7
5, 4
2, 7
2, 0
7, 7
25, 12
6, 13
5, 5
4, 5
2, 3
5, 4
4, 8
6, 12
12, 11
6, 6
9, 10
55, 61
87, 95
30, 26
40, 55
708, 813
3669, 3810
2274, 1825
193, 139
10, 77
31, 80
149, 154
555, 545
300, 253
34, 26
15, 14
17, 6
5, 6
1, 7
1, 14
5, 8
3, 0
4, 4
4, 3
3, 2
3, 1
6, 2
4, 3
2, 3
1, 4
1, 1
1, 3
3, 1
2, 2
3, 5
3, 4
4, 5
4, 1
3, 2
3, 4
4, 1
1, 1
2, 3
4, 1
1, 3
2, 1
2, 5
2, 3
4, 2
5, 1
3, 3
1, 2
4, 1
1, 2
2, 1
3, 5
0, 1
0, 2
0, 1
1, 3
2, 2
0, 2
1, 1
5, 3
3, 9
3, 6
1, 1
1, 0
1, 3
1, 2
3, 5
2, 2
3, 1
1, 1
2, 1
1, 0
0, 1
0, 1
1, 1
1, 0
0, 0
1, 1
1, 1
1, 0
1, 1
1, 2
0, 0
1, 0
0, 0
0, 0
0, 0
1, 0
0, 0
3, 2
1, 0
1, 0
0, 0
1, 0
1, 0
0, 2
0, 0
0, 0
1, 0
0, 0
1, 0
0, 2
0, 0
0, 0
1, 0
1, 0
0, 1
0, 1
0, 0
0, 0
0, 0
0, 0
0, 0
1, 0
0, 1
0, 0
1, 1
0, 2
0, 0
0, 0
0, 0
0, 0
0, 0
1, 0
1, 0
0, 2
0, 0
0, 0
0, 0
0, 0
0, 0
0, 0
0, 0
0, 0
0, 0
0, 0
0, 0
0, 1
0, 0
1, 0
0, 0
0, 0
0, 0
0, 0
0, 0
0, 0
0, 0
0, 0
0, 0
0, 0
0, 0
0, 0
0, 0
0, 0
0, 0
0, 1
0, 0
1, 0
0, 0
0, 0
0, 0
0, 0
0, 0
0, 0
0, 0
0, 0
0, 0
0, 0
0, 0
0, 0
0, 0
0, 0
0, 0
0, 0
0, 0
0, 0
0, 0
0, 0
0, 0
0, 0
0, 0
0, 0
0, 0
0, 0
0, 0
0, 0
0, 0
0, 0
0, 0
0, 0
0, 0
0, 0
0, 0
0, 0
0, 0
0, 0
0, 0
0, 0
0, 0
0, 0
0, 0
0, 0
0, 0
0, 0
0, 0
0, 0
0, 0
0, 0
0, 0
0, 0
0, 0
0, 0
0, 0
0, 0
0, 0
0, 0
0, 0
0, 0
0, 0
0, 0
0, 0
0, 0
0, 0
0, 0
0, 0
0, 0
0, 0
0, 0
0, 0
0, 0
0, 0
0, 0
0, 0
0, 0
0, 0
0, 0
0, 0
0, 0
#ENDOFDATA     end of spectrum data