File: host_upload/12-01-2023/Dourbes (shot-by-shot)/upload_4/ps__0257_0689790785_000rfs_shot_3005.msa
#FORMAT      : EMSA/MAS spectral data file
#VERSION     : TC202v2.0 PIXL
#TITLE       : N/A
#DATE        :       Date in the format DD-MMM-YYYY, for example 07-JUL-2010
#TIME        :             The time of day at which the spectrum was recorded, in 24-hour format
#OWNER       : PIXL Flight Model       (PIXL will use this to indicate which instrument took the data.)
#NPOINTS     : 4096     Number of data points in the spectrum (This can be zero for configuration only files)
#NCOLUMNS    : 2     Number of data columns in the spectrum (This can be zero for configuration only files)
#XUNITS      : eV
#YUNITS      : COUNTS
#DATATYPE    : YY
#XPERCHAN    : 7.862, 7.881   eV per channel (separate by commas if more than one detector)
#OFFSET      : 18.5, -22.4         eV of first channel  (separate by commas if more than one detector
#SIGNALTYPE  : XRF
#YP_TEMP     : 2.973
#LIVETIME    : 8.86028, 8.97215   seconds (separate by commas if more than one detector)
#REALTIME    : 10, 10.0   seconds (separate by commas if more than one detector)
#SPECTRUM    : start of spectrum data
0, 0
0, 0
0, 0
0, 0
0, 0
0, 0
0, 0
0, 0
15, 1
36, 2
11, 1
26, 19
30, 24
10, 3
8, 3
109, 104
704, 673
117, 110
6, 6
2, 1
20, 23
144, 146
54, 41
93, 18
2038, 146
3584, 122
290, 48
19, 17
7, 9
3, 9
4, 6
6, 4
2, 3
26, 29
41, 42
3, 9
11, 12
13, 10
6, 8
8, 6
9, 7
13, 31
16, 97
12, 56
12, 6
7, 5
8, 6
2, 5
9, 10
23, 10
14, 6
15, 8
10, 10
49, 67
99, 83
39, 41
34, 35
596, 737
3324, 3632
2053, 1783
192, 112
61, 10
81, 25
136, 146
508, 510
337, 226
30, 16
9, 3
8, 6
9, 2
4, 7
2, 16
3, 10
6, 5
5, 2
5, 1
1, 6
1, 8
5, 2
2, 4
4, 1
6, 2
9, 2
10, 4
9, 13
5, 10
2, 2
2, 3
6, 3
5, 3
0, 0
4, 3
0, 1
0, 2
4, 4
2, 1
1, 2
4, 2
14, 1
11, 0
3, 1
1, 2
1, 0
1, 1
1, 2
0, 2
3, 3
3, 1
3, 0
0, 2
3, 3
3, 4
2, 1
1, 1
1, 1
3, 4
2, 2
2, 4
1, 1
0, 0
3, 0
5, 5
4, 2
1, 4
0, 0
1, 2
1, 0
0, 0
1, 0
2, 1
1, 0
0, 1
1, 0
0, 3
1, 0
0, 0
1, 0
1, 0
0, 1
1, 0
1, 0
1, 0
0, 0
0, 1
0, 1
0, 0
0, 1
0, 1
0, 0
0, 0
0, 0
1, 0
1, 0
0, 0
0, 0
0, 1
0, 0
0, 0
0, 0
1, 0
0, 2
0, 1
0, 1
0, 1
0, 0
0, 0
0, 0
0, 0
0, 0
0, 0
1, 0
1, 0
1, 0
0, 0
0, 0
0, 0
0, 0
0, 0
0, 0
0, 0
0, 0
0, 0
0, 0
0, 0
1, 0
0, 0
0, 1
0, 0
0, 0
0, 0
0, 0
0, 0
0, 0
0, 0
0, 0
0, 0
0, 0
0, 0
0, 0
0, 0
0, 0
0, 0
0, 0
0, 0
0, 0
0, 0
0, 0
0, 0
0, 0
0, 0
0, 0
0, 0
0, 0
0, 0
0, 0
0, 0
0, 0
0, 0
0, 0
0, 0
0, 0
0, 0
0, 0
0, 0
0, 0
0, 0
0, 0
0, 0
0, 0
0, 0
0, 0
0, 0
0, 0
0, 0
0, 0
0, 0
0, 0
0, 0
0, 0
0, 0
0, 0
0, 0
0, 0
0, 0
0, 0
0, 0
0, 0
0, 0
0, 0
0, 0
0, 0
0, 0
0, 0
0, 0
0, 0
0, 0
0, 0
0, 0
0, 0
0, 0
0, 0
0, 0
0, 0
0, 0
0, 0
0, 0
0, 0
0, 0
0, 0
0, 0
0, 0
0, 0
0, 0
0, 0
0, 0
0, 0
0, 0
0, 0
0, 0
0, 0
0, 0
0, 0
0, 0
0, 0
0, 0
0, 0
0, 0
0, 0
0, 0
0, 0
0, 0
0, 0
0, 0
0, 0
#ENDOFDATA     end of spectrum data