File: host_upload/12-01-2023/Dourbes (shot-by-shot)/upload_4/ps__0257_0689790785_000rfs_shot_3041.msa
#FORMAT      : EMSA/MAS spectral data file
#VERSION     : TC202v2.0 PIXL
#TITLE       : N/A
#DATE        :       Date in the format DD-MMM-YYYY, for example 07-JUL-2010
#TIME        :             The time of day at which the spectrum was recorded, in 24-hour format
#OWNER       : PIXL Flight Model       (PIXL will use this to indicate which instrument took the data.)
#NPOINTS     : 4096     Number of data points in the spectrum (This can be zero for configuration only files)
#NCOLUMNS    : 2     Number of data columns in the spectrum (This can be zero for configuration only files)
#XUNITS      : eV
#YUNITS      : COUNTS
#DATATYPE    : YY
#XPERCHAN    : 7.862, 7.881   eV per channel (separate by commas if more than one detector)
#OFFSET      : 18.5, -22.4         eV of first channel  (separate by commas if more than one detector
#SIGNALTYPE  : XRF
#YP_TEMP     : 3.005
#LIVETIME    : 9.00624, 8.99971   seconds (separate by commas if more than one detector)
#REALTIME    : 10, 10.0   seconds (separate by commas if more than one detector)
#SPECTRUM    : start of spectrum data
0, 0
0, 0
0, 0
0, 0
0, 0
0, 0
0, 0
0, 1
0, 0
0, 1
2, 1
34, 37
43, 23
1, 0
3, 3
69, 69
454, 487
90, 87
6, 4
5, 4
34, 0
39, 10
4, 0
2, 4
14, 19
25, 24
19, 11
12, 4
3, 6
5, 2
2, 2
2, 1
3, 0
15, 19
19, 65
1, 20
8, 2
1, 3
2, 2
1, 5
6, 6
6, 9
27, 18
18, 21
4, 4
6, 4
7, 4
9, 6
4, 12
7, 98
14, 152
15, 52
13, 16
56, 65
97, 97
27, 30
27, 45
648, 804
3489, 3874
2207, 1944
193, 131
29, 16
27, 30
145, 173
501, 542
295, 247
27, 15
3, 3
2, 6
1, 5
3, 4
2, 3
3, 6
4, 6
3, 4
2, 4
3, 2
2, 1
2, 4
6, 4
4, 18
6, 9
3, 3
1, 7
0, 6
1, 3
1, 6
5, 4
1, 3
2, 4
4, 0
2, 3
1, 4
2, 0
3, 1
1, 0
1, 3
0, 3
4, 4
3, 7
2, 13
2, 1
3, 1
7, 1
3, 3
2, 2
1, 1
0, 0
2, 1
4, 3
1, 1
2, 4
4, 5
4, 2
2, 1
5, 5
2, 7
10, 4
4, 0
1, 1
0, 2
4, 2
3, 5
5, 3
1, 1
1, 2
0, 0
0, 1
0, 2
0, 1
0, 0
0, 0
3, 2
0, 0
1, 1
0, 1
0, 1
0, 0
0, 2
1, 2
0, 0
0, 2
1, 0
0, 0
0, 1
0, 0
0, 0
0, 0
1, 1
0, 1
0, 0
1, 0
0, 1
1, 0
0, 1
0, 0
0, 0
0, 0
1, 0
0, 0
0, 0
0, 0
0, 2
0, 0
0, 0
0, 1
0, 0
0, 0
0, 0
0, 0
0, 0
0, 0
0, 0
0, 0
0, 0
0, 0
0, 0
0, 0
0, 0
0, 0
0, 0
0, 1
1, 0
1, 0
0, 0
0, 0
1, 0
0, 0
0, 0
0, 0
0, 0
1, 0
0, 0
0, 0
0, 1
0, 0
0, 0
0, 0
0, 0
0, 0
0, 0
0, 0
0, 0
0, 0
0, 0
0, 0
0, 0
0, 0
0, 0
0, 0
0, 0
0, 0
0, 0
0, 0
0, 0
0, 0
0, 0
0, 0
0, 0
0, 0
0, 0
0, 0
0, 0
0, 0
0, 0
0, 0
0, 0
0, 0
0, 0
0, 0
0, 0
0, 0
0, 0
0, 0
0, 0
0, 0
0, 0
0, 0
0, 0
0, 0
0, 0
0, 0
0, 0
0, 0
0, 0
0, 0
0, 0
0, 0
0, 0
0, 0
0, 0
0, 0
0, 0
0, 0
0, 0
0, 0
0, 0
0, 0
0, 0
0, 0
0, 0
0, 0
0, 0
0, 0
0, 0
0, 0
0, 0
0, 0
0, 0
0, 0
0, 0
0, 0
0, 0
0, 0
0, 0
0, 0
0, 0
0, 0
0, 0
0, 0
0, 0
0, 0
0, 0
0, 0
0, 0
0, 0
0, 0
0, 0
0, 0
0, 0
0, 0
0, 0
0, 0
0, 0
#ENDOFDATA     end of spectrum data