File: host_upload/12-01-2023/Dourbes (shot-by-shot)/upload_4/ps__0257_0689790785_000rfs_shot_3125.msa
#FORMAT      : EMSA/MAS spectral data file
#VERSION     : TC202v2.0 PIXL
#TITLE       : N/A
#DATE        :       Date in the format DD-MMM-YYYY, for example 07-JUL-2010
#TIME        :             The time of day at which the spectrum was recorded, in 24-hour format
#OWNER       : PIXL Flight Model       (PIXL will use this to indicate which instrument took the data.)
#NPOINTS     : 4096     Number of data points in the spectrum (This can be zero for configuration only files)
#NCOLUMNS    : 2     Number of data columns in the spectrum (This can be zero for configuration only files)
#XUNITS      : eV
#YUNITS      : COUNTS
#DATATYPE    : YY
#XPERCHAN    : 7.862, 7.881   eV per channel (separate by commas if more than one detector)
#OFFSET      : 18.5, -22.4         eV of first channel  (separate by commas if more than one detector
#SIGNALTYPE  : XRF
#YP_TEMP     : 3.069
#LIVETIME    : 9.04995, 9.1197   seconds (separate by commas if more than one detector)
#REALTIME    : 10, 10.0   seconds (separate by commas if more than one detector)
#SPECTRUM    : start of spectrum data
0, 0
0, 0
0, 0
0, 0
0, 0
0, 0
0, 0
0, 0
0, 0
1, 3
0, 1
29, 14
27, 33
11, 3
5, 9
145, 94
811, 569
130, 104
11, 5
4, 3
2, 2
5, 8
3, 2
8, 6
40, 29
30, 18
15, 15
19, 10
1, 4
5, 5
2, 3
3, 3
21, 12
394, 378
693, 553
59, 46
77, 69
91, 79
50, 6
12, 1
8, 9
21, 20
14, 11
14, 4
5, 4
8, 5
7, 9
7, 3
8, 6
31, 31
22, 14
9, 5
9, 13
58, 79
73, 153
23, 58
30, 64
438, 375
2665, 1762
1707, 927
132, 54
19, 16
21, 32
109, 83
373, 259
222, 145
15, 9
9, 1
18, 6
7, 4
2, 17
2, 26
6, 11
11, 11
14, 8
10, 2
8, 3
5, 1
7, 2
3, 1
1, 4
5, 0
6, 5
6, 6
4, 5
4, 5
4, 3
7, 3
8, 1
2, 6
6, 4
6, 2
5, 2
2, 1
0, 3
1, 1
2, 0
2, 6
2, 3
3, 7
5, 2
2, 1
2, 0
2, 2
2, 3
2, 2
1, 3
2, 3
1, 2
3, 3
1, 3
3, 4
2, 1
1, 1
7, 1
2, 0
4, 3
4, 1
1, 1
2, 0
1, 0
3, 2
3, 4
4, 1
4, 2
0, 0
0, 1
2, 1
0, 1
1, 0
1, 0
2, 1
0, 1
0, 1
0, 0
0, 0
2, 1
0, 2
1, 1
0, 0
0, 2
0, 1
0, 1
0, 1
1, 0
1, 1
0, 1
0, 0
1, 0
0, 0
2, 0
0, 1
0, 0
1, 0
0, 1
1, 0
0, 0
1, 0
1, 1
0, 1
1, 0
0, 0
0, 0
0, 0
1, 0
0, 0
0, 0
1, 1
0, 0
0, 0
0, 0
0, 0
0, 1
0, 0
0, 0
0, 0
0, 1
0, 0
0, 0
0, 0
0, 0
0, 0
0, 0
0, 0
0, 0
0, 0
0, 0
0, 0
0, 0
0, 0
0, 0
0, 0
0, 0
0, 0
0, 0
0, 0
0, 0
0, 0
0, 0
0, 0
0, 0
0, 0
0, 0
0, 0
0, 0
0, 0
0, 0
0, 0
0, 0
0, 0
0, 0
0, 0
0, 0
0, 0
0, 0
0, 0
0, 0
0, 0
0, 0
0, 0
0, 0
0, 0
0, 0
0, 0
0, 0
0, 0
0, 0
0, 0
0, 0
0, 0
0, 0
0, 0
0, 0
0, 0
0, 0
0, 0
0, 0
0, 0
0, 0
0, 0
0, 0
0, 0
0, 0
0, 0
0, 0
0, 0
0, 0
0, 0
0, 0
0, 0
0, 0
0, 0
0, 0
0, 0
0, 0
0, 0
0, 0
0, 0
0, 0
0, 0
0, 0
0, 0
0, 0
0, 0
0, 0
0, 0
0, 0
0, 0
0, 0
0, 0
0, 0
0, 0
0, 0
0, 0
0, 0
0, 0
0, 0
0, 0
0, 0
0, 0
0, 0
0, 0
0, 0
0, 0
0, 0
0, 0
0, 0
0, 0
0, 0
0, 0
0, 0
0, 0
0, 0
0, 0
#ENDOFDATA     end of spectrum data