File: host_upload/12-01-2023/Dourbes (shot-by-shot)/upload_4/ps__0257_0689790785_000rfs_shot_3235.msa
#FORMAT      : EMSA/MAS spectral data file
#VERSION     : TC202v2.0 PIXL
#TITLE       : N/A
#DATE        :       Date in the format DD-MMM-YYYY, for example 07-JUL-2010
#TIME        :             The time of day at which the spectrum was recorded, in 24-hour format
#OWNER       : PIXL Flight Model       (PIXL will use this to indicate which instrument took the data.)
#NPOINTS     : 4096     Number of data points in the spectrum (This can be zero for configuration only files)
#NCOLUMNS    : 2     Number of data columns in the spectrum (This can be zero for configuration only files)
#XUNITS      : eV
#YUNITS      : COUNTS
#DATATYPE    : YY
#XPERCHAN    : 7.862, 7.881   eV per channel (separate by commas if more than one detector)
#OFFSET      : 18.5, -22.4         eV of first channel  (separate by commas if more than one detector
#SIGNALTYPE  : XRF
#YP_TEMP     : 2.845
#LIVETIME    : 9.0638, 9.05343   seconds (separate by commas if more than one detector)
#REALTIME    : 10, 10.0   seconds (separate by commas if more than one detector)
#SPECTRUM    : start of spectrum data
0, 0
0, 0
0, 0
0, 0
0, 0
0, 0
0, 0
0, 0
3, 5
4, 3
0, 1
23, 20
21, 30
8, 5
13, 9
73, 82
542, 538
91, 80
6, 7
2, 2
8, 9
56, 72
25, 19
46, 51
231, 267
145, 142
49, 66
23, 31
11, 13
4, 0
13, 17
11, 7
3, 6
53, 50
66, 62
14, 7
8, 11
17, 17
13, 13
8, 5
7, 12
17, 19
22, 25
12, 14
17, 5
10, 20
8, 15
10, 19
7, 22
18, 14
16, 9
5, 12
17, 12
39, 61
74, 81
26, 28
23, 44
473, 658
2607, 2968
1579, 1435
116, 102
21, 14
35, 28
142, 147
405, 439
235, 203
26, 18
6, 5
11, 5
10, 6
3, 5
6, 6
3, 5
5, 9
8, 11
6, 9
5, 9
9, 8
7, 4
7, 3
6, 6
7, 5
6, 7
5, 6
1, 4
5, 4
5, 5
5, 5
1, 5
4, 5
3, 2
4, 7
2, 3
5, 4
1, 6
3, 4
1, 4
3, 2
1, 2
3, 3
1, 4
1, 0
2, 4
3, 1
4, 3
3, 2
3, 0
2, 5
3, 3
3, 4
1, 2
3, 3
1, 1
0, 2
2, 0
1, 3
3, 6
3, 7
0, 3
0, 1
5, 6
3, 3
5, 3
1, 1
1, 0
2, 3
2, 0
2, 0
0, 0
0, 2
1, 0
0, 2
1, 1
1, 2
2, 2
2, 2
1, 3
0, 0
2, 1
1, 0
0, 2
0, 0
0, 0
0, 1
0, 1
0, 0
2, 0
0, 1
0, 0
1, 0
1, 1
1, 0
0, 0
0, 1
0, 0
0, 0
0, 0
1, 0
0, 0
0, 0
0, 0
0, 0
0, 1
0, 0
0, 0
0, 2
0, 0
0, 0
0, 0
1, 0
0, 0
1, 0
0, 0
1, 0
0, 0
0, 0
0, 0
1, 0
0, 0
0, 0
0, 0
0, 0
0, 1
0, 0
0, 0
0, 0
0, 1
0, 0
0, 1
0, 0
0, 0
0, 0
0, 0
0, 0
0, 0
0, 0
0, 0
0, 1
0, 0
0, 0
0, 0
0, 0
0, 0
0, 0
0, 0
0, 0
0, 0
0, 0
0, 0
0, 0
0, 0
0, 0
0, 0
0, 1
0, 0
0, 0
0, 0
0, 1
0, 0
0, 0
0, 0
0, 0
0, 0
0, 0
0, 0
0, 0
0, 0
0, 0
0, 0
0, 0
0, 0
0, 0
0, 0
0, 0
0, 0
0, 0
0, 0
0, 0
0, 0
0, 0
0, 0
0, 0
0, 0
0, 0
0, 0
0, 0
0, 0
0, 0
0, 0
0, 0
0, 0
0, 0
0, 0
0, 0
0, 0
0, 0
0, 0
0, 0
0, 0
0, 0
0, 0
0, 0
0, 0
0, 0
0, 0
0, 0
0, 0
0, 0
0, 0
0, 0
0, 0
0, 0
0, 0
0, 0
0, 0
0, 0
0, 0
0, 0
0, 0
0, 0
0, 0
0, 0
0, 0
0, 0
0, 0
0, 0
0, 0
0, 0
0, 0
0, 0
0, 0
0, 0
0, 0
0, 0
#ENDOFDATA     end of spectrum data