File: host_upload/12-01-2023/Dourbes (shot-by-shot)/upload_4/ps__0257_0689790785_000rfs_shot_3142.msa
#FORMAT      : EMSA/MAS spectral data file
#VERSION     : TC202v2.0 PIXL
#TITLE       : N/A
#DATE        :       Date in the format DD-MMM-YYYY, for example 07-JUL-2010
#TIME        :             The time of day at which the spectrum was recorded, in 24-hour format
#OWNER       : PIXL Flight Model       (PIXL will use this to indicate which instrument took the data.)
#NPOINTS     : 4096     Number of data points in the spectrum (This can be zero for configuration only files)
#NCOLUMNS    : 2     Number of data columns in the spectrum (This can be zero for configuration only files)
#XUNITS      : eV
#YUNITS      : COUNTS
#DATATYPE    : YY
#XPERCHAN    : 7.862, 7.881   eV per channel (separate by commas if more than one detector)
#OFFSET      : 18.5, -22.4         eV of first channel  (separate by commas if more than one detector
#SIGNALTYPE  : XRF
#YP_TEMP     : 3.23
#LIVETIME    : 9.14379, 9.13566   seconds (separate by commas if more than one detector)
#REALTIME    : 10, 10.0   seconds (separate by commas if more than one detector)
#SPECTRUM    : start of spectrum data
0, 0
0, 0
0, 0
0, 0
0, 0
0, 0
0, 0
0, 0
0, 3
1, 1
1, 1
20, 30
34, 29
3, 5
3, 9
114, 137
831, 844
145, 147
13, 17
2, 0
3, 1
2, 5
6, 3
7, 7
27, 25
41, 30
31, 23
18, 13
7, 9
7, 9
6, 3
4, 9
32, 31
535, 652
952, 972
91, 67
113, 112
136, 104
13, 11
2, 3
3, 5
29, 35
12, 14
3, 6
6, 6
8, 11
9, 5
4, 9
7, 13
49, 55
22, 32
6, 13
13, 9
28, 38
45, 53
18, 21
13, 31
217, 291
1220, 1323
800, 643
84, 44
11, 13
14, 14
49, 64
179, 229
104, 115
15, 14
14, 4
52, 7
16, 7
5, 5
6, 3
2, 3
6, 8
6, 5
6, 4
8, 12
9, 12
5, 3
9, 5
5, 4
7, 0
2, 9
4, 2
10, 10
11, 13
4, 3
4, 4
4, 6
2, 4
4, 2
6, 4
10, 5
4, 3
8, 3
3, 6
1, 4
6, 1
8, 3
4, 2
6, 2
2, 2
3, 4
2, 5
1, 2
2, 10
5, 6
4, 2
2, 2
1, 2
2, 0
4, 3
1, 1
2, 0
2, 1
2, 3
4, 3
0, 4
4, 1
1, 4
3, 2
1, 0
0, 3
1, 1
2, 1
4, 0
3, 0
1, 3
1, 2
0, 2
0, 0
1, 2
0, 0
3, 1
1, 1
2, 1
2, 0
0, 0
1, 0
0, 0
0, 1
0, 1
0, 0
0, 0
0, 0
0, 0
0, 0
0, 1
1, 2
0, 0
0, 0
0, 0
0, 0
0, 0
1, 0
0, 1
0, 0
0, 0
0, 0
0, 1
0, 2
0, 0
0, 0
1, 0
0, 1
0, 0
1, 0
0, 0
0, 0
0, 0
1, 0
0, 1
0, 0
0, 1
0, 0
0, 0
0, 1
0, 0
0, 2
0, 0
0, 0
0, 0
0, 0
0, 1
1, 0
0, 0
0, 1
0, 0
0, 1
0, 0
0, 0
0, 0
0, 0
0, 0
0, 0
0, 0
0, 0
0, 0
0, 0
0, 0
0, 0
0, 0
0, 0
0, 0
0, 0
0, 0
0, 0
0, 0
0, 0
0, 0
0, 0
0, 0
0, 1
0, 0
0, 0
0, 0
0, 0
0, 0
1, 0
0, 0
0, 0
0, 0
0, 0
0, 0
0, 0
0, 0
0, 0
0, 0
0, 0
0, 0
0, 0
0, 0
0, 0
0, 0
0, 0
0, 0
0, 0
0, 0
0, 0
0, 0
0, 0
0, 0
0, 0
0, 0
0, 0
0, 0
0, 0
0, 0
0, 0
0, 0
0, 0
0, 0
0, 0
0, 0
0, 0
0, 0
0, 0
0, 0
0, 0
0, 0
0, 0
0, 0
0, 0
0, 0
0, 0
0, 0
0, 0
0, 0
0, 0
0, 0
0, 0
0, 0
0, 0
0, 0
0, 0
0, 0
0, 0
0, 0
0, 0
0, 0
0, 0
0, 0
0, 0
0, 0
0, 0
0, 0
0, 0
0, 0
0, 0
0, 0
0, 0
0, 0
0, 0
0, 0
#ENDOFDATA     end of spectrum data