File: host_upload/12-01-2023/Dourbes (shot-by-shot)/upload_4/ps__0257_0689790785_000rfs_shot_3232.msa
#FORMAT      : EMSA/MAS spectral data file
#VERSION     : TC202v2.0 PIXL
#TITLE       : N/A
#DATE        :       Date in the format DD-MMM-YYYY, for example 07-JUL-2010
#TIME        :             The time of day at which the spectrum was recorded, in 24-hour format
#OWNER       : PIXL Flight Model       (PIXL will use this to indicate which instrument took the data.)
#NPOINTS     : 4096     Number of data points in the spectrum (This can be zero for configuration only files)
#NCOLUMNS    : 2     Number of data columns in the spectrum (This can be zero for configuration only files)
#XUNITS      : eV
#YUNITS      : COUNTS
#DATATYPE    : YY
#XPERCHAN    : 7.862, 7.881   eV per channel (separate by commas if more than one detector)
#OFFSET      : 18.5, -22.4         eV of first channel  (separate by commas if more than one detector
#SIGNALTYPE  : XRF
#YP_TEMP     : 2.781
#LIVETIME    : 9.07743, 9.07652   seconds (separate by commas if more than one detector)
#REALTIME    : 10, 10.0   seconds (separate by commas if more than one detector)
#SPECTRUM    : start of spectrum data
0, 0
0, 0
0, 0
0, 0
0, 0
0, 0
0, 0
0, 1
1, 5
1, 5
3, 3
25, 15
30, 17
13, 8
17, 22
82, 94
564, 710
127, 87
12, 15
12, 10
5, 6
22, 25
8, 9
26, 37
185, 197
155, 129
63, 65
32, 36
11, 10
10, 3
21, 23
8, 8
5, 5
53, 51
88, 75
8, 11
12, 11
14, 19
6, 13
6, 12
10, 7
17, 17
16, 27
28, 9
18, 11
13, 19
16, 7
11, 14
20, 7
11, 17
17, 18
14, 12
22, 19
53, 50
64, 55
26, 11
23, 38
493, 576
2511, 2684
1538, 1372
120, 104
36, 25
28, 33
107, 113
347, 394
220, 187
16, 17
3, 9
10, 9
10, 8
6, 6
6, 7
14, 10
5, 8
5, 5
10, 8
7, 4
6, 10
7, 8
11, 6
5, 8
3, 9
3, 5
7, 6
5, 6
7, 3
3, 4
2, 6
0, 7
7, 5
0, 12
6, 5
5, 8
4, 7
5, 7
3, 4
6, 5
2, 3
7, 4
5, 5
2, 6
3, 0
4, 5
3, 3
1, 4
3, 3
1, 2
4, 6
2, 3
2, 1
0, 1
1, 3
2, 5
1, 5
3, 4
2, 4
3, 4
3, 2
4, 3
2, 1
3, 4
4, 4
2, 3
2, 5
1, 1
0, 1
1, 1
0, 1
3, 2
0, 2
3, 2
0, 1
2, 2
0, 1
0, 0
0, 1
2, 1
0, 1
1, 0
0, 0
0, 1
2, 0
1, 1
1, 0
0, 1
0, 0
0, 0
1, 0
1, 0
2, 0
0, 2
1, 1
0, 0
0, 0
0, 1
2, 0
0, 1
0, 0
0, 1
1, 0
0, 1
0, 1
0, 0
0, 1
0, 0
0, 0
1, 0
1, 0
0, 0
0, 1
0, 1
1, 0
0, 0
0, 0
0, 0
1, 0
0, 0
0, 0
0, 0
0, 0
0, 0
1, 0
0, 0
0, 0
0, 0
0, 0
0, 0
0, 0
0, 0
0, 0
0, 0
0, 0
0, 0
0, 0
0, 0
0, 0
0, 0
0, 0
0, 0
0, 0
0, 0
0, 0
0, 0
0, 0
0, 0
0, 0
0, 0
0, 0
0, 0
0, 0
0, 0
0, 0
0, 0
0, 0
0, 0
0, 0
0, 0
0, 0
0, 0
0, 0
0, 0
0, 0
0, 0
0, 0
0, 0
0, 0
0, 0
0, 0
0, 0
0, 0
0, 0
0, 0
0, 0
0, 0
0, 0
0, 0
0, 0
0, 0
0, 0
0, 0
0, 0
0, 0
0, 0
0, 0
0, 0
0, 0
0, 0
0, 0
0, 0
0, 0
0, 0
0, 0
0, 0
0, 0
0, 0
0, 0
0, 0
0, 0
0, 0
0, 0
0, 0
0, 0
0, 0
0, 0
0, 0
0, 0
0, 0
0, 0
0, 0
0, 0
0, 0
0, 0
0, 0
0, 0
0, 0
0, 0
0, 0
0, 0
0, 0
0, 0
0, 0
0, 0
0, 0
0, 0
0, 0
0, 0
0, 0
0, 0
0, 0
0, 0
0, 0
0, 0
0, 0
0, 0
#ENDOFDATA     end of spectrum data