File: host_upload/12-01-2023/Dourbes (shot-by-shot)/upload_4/ps__0257_0689790785_000rfs_shot_3244.msa
#FORMAT      : EMSA/MAS spectral data file
#VERSION     : TC202v2.0 PIXL
#TITLE       : N/A
#DATE        :       Date in the format DD-MMM-YYYY, for example 07-JUL-2010
#TIME        :             The time of day at which the spectrum was recorded, in 24-hour format
#OWNER       : PIXL Flight Model       (PIXL will use this to indicate which instrument took the data.)
#NPOINTS     : 4096     Number of data points in the spectrum (This can be zero for configuration only files)
#NCOLUMNS    : 2     Number of data columns in the spectrum (This can be zero for configuration only files)
#XUNITS      : eV
#YUNITS      : COUNTS
#DATATYPE    : YY
#XPERCHAN    : 7.862, 7.881   eV per channel (separate by commas if more than one detector)
#OFFSET      : 18.5, -22.4         eV of first channel  (separate by commas if more than one detector
#SIGNALTYPE  : XRF
#YP_TEMP     : 3.133
#LIVETIME    : 9.06082, 9.07556   seconds (separate by commas if more than one detector)
#REALTIME    : 10, 10.0   seconds (separate by commas if more than one detector)
#SPECTRUM    : start of spectrum data
0, 0
0, 0
0, 0
0, 0
0, 0
0, 0
0, 0
1, 0
1, 2
1, 1
1, 0
29, 19
27, 24
5, 3
12, 3
104, 91
740, 671
123, 102
3, 9
1, 1
27, 18
166, 135
48, 34
31, 22
127, 128
106, 101
57, 50
19, 20
5, 4
1, 1
9, 7
3, 4
3, 2
52, 47
61, 57
13, 9
7, 11
17, 13
7, 12
8, 13
9, 9
10, 13
20, 26
18, 19
18, 11
10, 11
11, 3
7, 11
23, 13
22, 27
12, 27
9, 15
11, 16
58, 43
73, 78
26, 22
38, 24
472, 576
2582, 2534
1715, 1249
127, 71
41, 19
31, 28
121, 130
403, 407
246, 168
17, 18
6, 5
12, 10
4, 5
8, 5
4, 6
8, 5
8, 5
5, 5
5, 4
6, 6
7, 6
11, 6
4, 6
10, 4
6, 6
4, 5
3, 6
6, 3
4, 6
4, 7
7, 5
6, 7
5, 4
5, 4
5, 5
6, 3
2, 6
4, 2
5, 6
2, 7
2, 3
1, 3
2, 2
5, 1
2, 5
3, 3
4, 4
1, 5
2, 4
4, 3
5, 2
2, 5
7, 2
2, 1
5, 2
1, 0
0, 1
3, 3
8, 4
4, 9
3, 2
4, 3
1, 4
1, 2
1, 4
2, 2
1, 0
3, 3
2, 1
0, 0
1, 1
1, 2
0, 1
1, 2
1, 1
0, 0
1, 2
0, 1
0, 0
2, 2
1, 2
1, 1
1, 0
0, 0
0, 0
2, 0
1, 1
0, 1
0, 1
0, 0
0, 2
0, 0
0, 1
1, 2
0, 0
0, 0
1, 0
1, 2
0, 0
2, 1
0, 0
0, 0
0, 0
0, 0
0, 0
1, 0
0, 0
0, 0
0, 1
0, 1
0, 1
1, 0
1, 2
0, 0
0, 0
1, 0
1, 0
1, 0
0, 1
1, 1
0, 0
1, 0
0, 0
0, 0
0, 0
0, 0
0, 0
0, 2
0, 0
0, 0
0, 0
0, 0
0, 0
0, 0
0, 0
0, 0
0, 0
0, 0
0, 0
0, 1
0, 0
0, 0
0, 0
0, 0
0, 0
0, 0
0, 0
0, 0
0, 0
0, 0
0, 0
0, 0
0, 0
0, 0
0, 0
0, 0
0, 0
0, 0
0, 0
0, 0
0, 0
0, 0
0, 0
0, 0
0, 0
0, 0
0, 0
0, 0
0, 0
0, 0
0, 0
0, 0
0, 0
0, 0
0, 0
0, 0
0, 0
0, 0
0, 0
0, 0
0, 0
0, 0
0, 0
0, 0
0, 0
0, 0
0, 0
0, 0
0, 0
0, 0
0, 0
0, 0
0, 0
0, 0
0, 0
0, 0
0, 0
0, 0
0, 0
0, 0
0, 0
0, 0
0, 0
0, 0
0, 0
0, 0
0, 0
0, 0
0, 0
0, 0
0, 0
0, 0
0, 0
0, 0
0, 0
0, 0
0, 0
0, 0
0, 0
0, 0
0, 0
0, 0
0, 0
0, 0
0, 0
0, 0
0, 0
0, 0
0, 0
0, 0
0, 0
0, 0
0, 0
0, 0
0, 0
0, 0
0, 0
#ENDOFDATA     end of spectrum data