File: host_upload/12-01-2023/Dourbes (shot-by-shot)/upload_4/ps__0257_0689790785_000rfs_shot_3287.msa
#FORMAT      : EMSA/MAS spectral data file
#VERSION     : TC202v2.0 PIXL
#TITLE       : N/A
#DATE        :       Date in the format DD-MMM-YYYY, for example 07-JUL-2010
#TIME        :             The time of day at which the spectrum was recorded, in 24-hour format
#OWNER       : PIXL Flight Model       (PIXL will use this to indicate which instrument took the data.)
#NPOINTS     : 4096     Number of data points in the spectrum (This can be zero for configuration only files)
#NCOLUMNS    : 2     Number of data columns in the spectrum (This can be zero for configuration only files)
#XUNITS      : eV
#YUNITS      : COUNTS
#DATATYPE    : YY
#XPERCHAN    : 7.862, 7.881   eV per channel (separate by commas if more than one detector)
#OFFSET      : 18.5, -22.4         eV of first channel  (separate by commas if more than one detector
#SIGNALTYPE  : XRF
#YP_TEMP     : 3.23
#LIVETIME    : 9.00881, 9.00496   seconds (separate by commas if more than one detector)
#REALTIME    : 10, 10.0   seconds (separate by commas if more than one detector)
#SPECTRUM    : start of spectrum data
0, 0
0, 0
0, 0
0, 0
0, 0
0, 0
0, 0
0, 0
2, 1
0, 1
0, 1
21, 27
21, 32
4, 5
10, 10
82, 96
601, 625
79, 107
8, 5
6, 9
4, 3
7, 6
1, 4
10, 18
42, 59
37, 40
36, 24
18, 19
10, 7
5, 7
10, 9
5, 3
8, 6
93, 84
144, 129
23, 39
25, 46
31, 24
6, 10
3, 7
3, 11
24, 21
26, 26
13, 23
11, 11
12, 15
18, 6
9, 5
8, 6
15, 20
15, 10
13, 10
12, 14
44, 70
87, 70
41, 19
57, 45
628, 767
3224, 3610
1999, 1724
160, 102
18, 18
18, 14
132, 163
520, 536
254, 251
31, 20
8, 11
4, 10
9, 10
4, 5
4, 18
3, 21
4, 7
4, 7
3, 5
7, 3
7, 4
5, 1
4, 7
3, 4
1, 4
3, 7
8, 4
3, 3
2, 2
0, 4
2, 4
2, 4
2, 2
7, 4
2, 5
2, 4
10, 2
7, 3
6, 1
0, 1
7, 3
6, 2
1, 6
5, 1
2, 2
2, 4
2, 5
3, 1
2, 4
1, 2
3, 3
0, 1
2, 4
2, 2
2, 1
0, 2
1, 1
1, 2
2, 2
6, 10
6, 3
0, 2
2, 4
0, 0
2, 5
3, 4
3, 1
0, 0
3, 2
1, 0
0, 2
2, 1
2, 1
0, 0
2, 0
1, 1
1, 1
0, 0
0, 0
0, 0
0, 0
0, 0
1, 0
1, 1
1, 0
0, 1
0, 1
0, 0
2, 1
0, 0
0, 1
0, 1
0, 0
0, 0
0, 0
1, 0
1, 0
1, 0
0, 2
0, 0
0, 0
1, 1
0, 0
0, 0
0, 0
1, 0
0, 0
0, 0
0, 0
0, 1
0, 0
0, 1
0, 0
0, 1
0, 1
0, 0
0, 0
0, 0
0, 0
1, 0
0, 0
0, 0
0, 0
0, 0
0, 0
0, 0
0, 0
0, 0
0, 1
0, 0
0, 0
0, 0
0, 0
0, 1
0, 0
0, 0
0, 0
0, 0
0, 0
0, 0
0, 0
0, 0
0, 0
0, 0
0, 0
0, 0
0, 0
0, 0
0, 1
0, 0
0, 0
0, 0
0, 0
0, 0
0, 0
0, 0
0, 0
0, 0
0, 0
0, 0
0, 0
0, 0
0, 0
0, 0
0, 0
0, 0
0, 0
0, 0
0, 0
0, 0
0, 0
0, 0
0, 0
0, 0
0, 0
0, 0
0, 0
0, 0
0, 0
0, 0
0, 0
0, 0
0, 0
0, 0
0, 0
0, 0
0, 0
0, 0
0, 0
0, 0
0, 0
0, 0
0, 0
0, 0
0, 0
0, 0
0, 0
0, 0
0, 0
0, 0
0, 0
0, 0
0, 0
0, 0
0, 0
0, 0
0, 0
0, 0
0, 0
0, 0
0, 0
0, 0
0, 0
0, 0
0, 0
0, 0
0, 0
0, 0
0, 0
0, 0
0, 0
0, 0
0, 0
0, 0
0, 0
0, 0
0, 0
0, 0
0, 0
0, 0
0, 0
0, 0
0, 0
0, 0
0, 0
0, 0
0, 0
#ENDOFDATA     end of spectrum data