File: host_upload/12-01-2023/Dourbes (shot-by-shot)/upload_4/ps__0257_0689790785_000rfs_shot_3248.msa
#FORMAT      : EMSA/MAS spectral data file
#VERSION     : TC202v2.0 PIXL
#TITLE       : N/A
#DATE        :       Date in the format DD-MMM-YYYY, for example 07-JUL-2010
#TIME        :             The time of day at which the spectrum was recorded, in 24-hour format
#OWNER       : PIXL Flight Model       (PIXL will use this to indicate which instrument took the data.)
#NPOINTS     : 4096     Number of data points in the spectrum (This can be zero for configuration only files)
#NCOLUMNS    : 2     Number of data columns in the spectrum (This can be zero for configuration only files)
#XUNITS      : eV
#YUNITS      : COUNTS
#DATATYPE    : YY
#XPERCHAN    : 7.862, 7.881   eV per channel (separate by commas if more than one detector)
#OFFSET      : 18.5, -22.4         eV of first channel  (separate by commas if more than one detector
#SIGNALTYPE  : XRF
#YP_TEMP     : 2.941
#LIVETIME    : 9.07033, 9.03767   seconds (separate by commas if more than one detector)
#REALTIME    : 10, 10.0   seconds (separate by commas if more than one detector)
#SPECTRUM    : start of spectrum data
0, 0
0, 0
0, 0
0, 0
0, 0
0, 0
0, 0
1, 0
0, 3
2, 0
2, 2
24, 21
32, 31
5, 8
4, 10
75, 62
417, 440
77, 71
7, 6
2, 3
14, 10
92, 65
33, 19
18, 38
143, 128
108, 108
37, 41
33, 26
12, 12
7, 3
7, 10
6, 5
4, 8
85, 84
119, 141
18, 9
21, 19
25, 24
14, 17
4, 15
11, 10
13, 17
20, 26
21, 26
6, 7
14, 10
13, 8
12, 9
16, 21
11, 21
20, 9
9, 11
18, 18
78, 114
114, 122
38, 30
31, 41
460, 682
2539, 3015
1587, 1476
126, 104
21, 28
29, 53
122, 129
353, 456
221, 203
22, 22
6, 5
5, 5
6, 5
5, 4
8, 5
5, 5
7, 8
6, 6
5, 7
5, 3
5, 4
5, 7
5, 5
4, 6
2, 5
5, 6
5, 4
1, 5
7, 9
8, 0
6, 11
4, 6
7, 4
5, 5
6, 7
6, 6
6, 3
5, 3
1, 4
2, 2
6, 7
1, 3
2, 3
7, 3
3, 2
6, 3
2, 4
2, 2
1, 4
1, 2
8, 3
4, 2
3, 1
3, 5
1, 4
4, 0
1, 2
3, 3
2, 2
5, 10
4, 7
4, 1
0, 2
2, 4
2, 0
1, 3
0, 3
3, 2
1, 4
2, 1
1, 2
2, 1
3, 1
3, 2
1, 0
1, 2
1, 0
0, 0
0, 0
0, 1
2, 2
1, 1
0, 0
3, 0
1, 2
1, 0
1, 1
0, 0
1, 0
0, 1
0, 1
0, 0
0, 0
0, 1
0, 0
0, 0
0, 1
0, 1
0, 0
0, 0
0, 2
0, 1
0, 1
2, 0
0, 0
0, 0
0, 0
0, 0
0, 0
2, 0
0, 0
0, 0
1, 0
0, 0
0, 1
0, 1
0, 0
0, 0
0, 0
0, 0
0, 0
0, 0
0, 0
0, 0
0, 0
1, 0
1, 0
0, 1
0, 0
0, 0
0, 0
0, 1
0, 0
0, 0
0, 0
0, 0
1, 0
1, 0
0, 0
0, 0
0, 0
1, 0
0, 0
0, 0
0, 0
1, 0
0, 0
0, 0
0, 0
0, 0
0, 0
0, 0
0, 0
0, 0
0, 0
0, 0
0, 0
0, 0
0, 0
0, 0
0, 0
0, 0
0, 0
0, 0
0, 0
0, 0
0, 0
0, 0
0, 0
0, 0
0, 0
0, 0
0, 0
0, 0
0, 0
0, 0
0, 0
0, 0
0, 0
0, 0
0, 0
0, 0
0, 0
0, 0
0, 0
0, 0
0, 0
0, 0
0, 0
0, 0
0, 0
0, 0
0, 0
0, 0
0, 0
0, 0
0, 0
0, 0
0, 0
0, 0
0, 0
0, 0
0, 0
0, 0
0, 0
0, 0
0, 0
0, 0
0, 0
0, 0
0, 0
0, 0
0, 0
0, 0
0, 0
0, 0
0, 0
0, 0
0, 0
0, 0
0, 0
0, 0
0, 0
0, 0
0, 0
0, 0
0, 0
0, 0
0, 0
0, 0
0, 0
0, 0
0, 0
0, 0
0, 0
0, 0
0, 0
#ENDOFDATA     end of spectrum data