File: host_upload/12-01-2023/Dourbes (shot-by-shot)/upload_4/ps__0257_0689790785_000rfs_shot_3154.msa
#FORMAT      : EMSA/MAS spectral data file
#VERSION     : TC202v2.0 PIXL
#TITLE       : N/A
#DATE        :       Date in the format DD-MMM-YYYY, for example 07-JUL-2010
#TIME        :             The time of day at which the spectrum was recorded, in 24-hour format
#OWNER       : PIXL Flight Model       (PIXL will use this to indicate which instrument took the data.)
#NPOINTS     : 4096     Number of data points in the spectrum (This can be zero for configuration only files)
#NCOLUMNS    : 2     Number of data columns in the spectrum (This can be zero for configuration only files)
#XUNITS      : eV
#YUNITS      : COUNTS
#DATATYPE    : YY
#XPERCHAN    : 7.862, 7.881   eV per channel (separate by commas if more than one detector)
#OFFSET      : 18.5, -22.4         eV of first channel  (separate by commas if more than one detector
#SIGNALTYPE  : XRF
#YP_TEMP     : 3.005
#LIVETIME    : 9.14935, 9.14286   seconds (separate by commas if more than one detector)
#REALTIME    : 10, 10.0   seconds (separate by commas if more than one detector)
#SPECTRUM    : start of spectrum data
0, 0
0, 0
0, 0
0, 0
0, 0
0, 0
0, 0
0, 0
2, 1
1, 2
0, 2
25, 30
40, 24
8, 3
7, 12
140, 153
879, 874
134, 157
8, 15
4, 3
6, 4
4, 3
3, 3
10, 12
37, 45
30, 28
20, 19
12, 10
4, 6
6, 1
3, 2
4, 2
18, 29
550, 618
917, 1001
96, 87
112, 124
143, 125
21, 11
2, 3
18, 8
46, 33
20, 11
5, 7
3, 3
5, 15
5, 6
4, 4
3, 21
40, 64
42, 27
1, 7
7, 5
31, 30
51, 51
13, 18
14, 22
200, 292
1148, 1337
737, 621
68, 47
10, 12
11, 19
56, 83
193, 185
113, 98
10, 5
11, 7
14, 10
4, 8
5, 5
3, 2
6, 3
3, 6
8, 2
8, 7
3, 7
3, 5
5, 4
3, 1
3, 5
6, 3
9, 9
5, 6
4, 2
4, 14
2, 6
1, 7
1, 12
4, 13
6, 3
9, 5
2, 2
4, 1
4, 6
5, 5
2, 2
1, 2
4, 4
6, 5
5, 3
2, 0
1, 1
1, 2
3, 5
5, 4
0, 2
3, 3
2, 3
6, 2
2, 5
5, 2
4, 4
2, 2
0, 3
1, 0
2, 1
2, 1
0, 1
7, 1
2, 2
2, 0
2, 3
2, 1
4, 1
1, 2
1, 2
3, 1
1, 3
4, 1
0, 1
0, 1
2, 1
1, 0
1, 2
0, 2
1, 3
0, 1
1, 1
3, 0
0, 0
3, 0
0, 0
0, 0
0, 1
1, 1
0, 0
2, 2
1, 0
0, 1
1, 0
2, 0
0, 2
0, 0
1, 0
1, 0
0, 0
0, 0
1, 0
1, 0
0, 1
1, 0
0, 0
0, 0
1, 0
1, 1
0, 0
0, 0
1, 0
1, 0
0, 0
0, 0
0, 0
0, 0
0, 0
0, 0
2, 0
1, 0
0, 0
0, 0
0, 0
0, 0
0, 0
1, 0
0, 1
0, 0
0, 0
0, 0
0, 0
0, 0
0, 0
0, 0
0, 1
0, 0
0, 0
0, 0
0, 0
0, 0
0, 0
0, 0
0, 0
0, 0
0, 0
0, 0
0, 0
0, 0
0, 0
0, 0
0, 0
0, 0
0, 0
0, 0
0, 0
0, 0
0, 0
0, 0
0, 0
0, 0
0, 0
0, 0
0, 0
0, 0
0, 0
0, 0
0, 0
0, 0
0, 0
0, 0
0, 0
0, 0
0, 0
0, 0
0, 0
0, 0
0, 0
0, 0
0, 0
0, 0
0, 0
0, 0
0, 0
0, 0
0, 0
0, 0
0, 0
0, 0
0, 0
0, 0
0, 0
0, 0
0, 0
0, 0
0, 0
0, 0
0, 0
0, 0
0, 0
0, 0
0, 0
0, 0
0, 0
0, 0
0, 0
0, 0
0, 0
0, 0
0, 0
0, 0
0, 0
0, 0
0, 0
0, 0
0, 0
0, 0
0, 0
0, 0
0, 0
0, 0
0, 0
0, 0
0, 0
0, 0
0, 0
0, 0
0, 0
0, 0
0, 0
0, 0
0, 0
0, 0
0, 0
0, 0
0, 0
0, 0
#ENDOFDATA     end of spectrum data