File: host_upload/12-01-2023/Dourbes (shot-by-shot)/upload_4/ps__0257_0689790785_000rfs_shot_3152.msa
#FORMAT      : EMSA/MAS spectral data file
#VERSION     : TC202v2.0 PIXL
#TITLE       : N/A
#DATE        :       Date in the format DD-MMM-YYYY, for example 07-JUL-2010
#TIME        :             The time of day at which the spectrum was recorded, in 24-hour format
#OWNER       : PIXL Flight Model       (PIXL will use this to indicate which instrument took the data.)
#NPOINTS     : 4096     Number of data points in the spectrum (This can be zero for configuration only files)
#NCOLUMNS    : 2     Number of data columns in the spectrum (This can be zero for configuration only files)
#XUNITS      : eV
#YUNITS      : COUNTS
#DATATYPE    : YY
#XPERCHAN    : 7.862, 7.881   eV per channel (separate by commas if more than one detector)
#OFFSET      : 18.5, -22.4         eV of first channel  (separate by commas if more than one detector
#SIGNALTYPE  : XRF
#YP_TEMP     : 3.165
#LIVETIME    : 9.1301, 9.13433   seconds (separate by commas if more than one detector)
#REALTIME    : 10, 10.0   seconds (separate by commas if more than one detector)
#SPECTRUM    : start of spectrum data
0, 0
0, 0
0, 0
0, 0
0, 0
0, 0
0, 0
0, 0
0, 1
2, 3
4, 2
27, 19
17, 26
9, 7
8, 15
123, 100
676, 715
117, 113
20, 17
6, 2
6, 1
7, 4
3, 7
9, 13
33, 48
63, 58
26, 32
26, 26
11, 13
6, 8
4, 6
4, 3
21, 31
521, 566
845, 790
95, 56
106, 106
136, 116
8, 13
3, 3
10, 8
47, 42
18, 20
8, 7
8, 5
13, 16
15, 11
6, 8
18, 15
41, 43
38, 31
10, 5
11, 17
38, 48
88, 62
22, 22
17, 20
268, 345
1429, 1480
904, 731
73, 62
13, 13
12, 12
64, 81
236, 248
117, 114
24, 11
13, 6
10, 11
7, 6
5, 6
7, 8
6, 5
10, 4
12, 6
10, 5
4, 10
6, 7
3, 10
8, 7
2, 7
4, 8
7, 5
4, 5
7, 3
2, 4
3, 4
6, 5
2, 9
6, 13
4, 11
7, 4
5, 4
2, 1
3, 4
1, 4
8, 4
2, 2
4, 5
6, 0
7, 2
3, 5
5, 2
5, 2
1, 1
5, 7
4, 1
3, 0
1, 1
1, 1
4, 1
8, 2
6, 0
0, 1
1, 3
1, 1
4, 3
1, 1
1, 2
3, 4
2, 2
2, 2
5, 3
0, 1
2, 3
1, 1
1, 0
0, 0
2, 0
3, 0
2, 1
2, 2
1, 2
0, 0
1, 0
0, 1
0, 0
0, 0
1, 0
1, 1
2, 0
0, 0
1, 1
1, 0
0, 0
0, 2
0, 0
0, 1
0, 1
1, 0
0, 1
0, 0
2, 0
0, 0
0, 0
0, 0
0, 1
0, 0
0, 0
0, 0
1, 2
1, 0
0, 0
0, 0
0, 2
1, 0
0, 0
0, 2
0, 1
0, 0
1, 2
0, 0
1, 0
0, 1
0, 0
2, 0
0, 0
0, 0
0, 0
0, 0
0, 0
0, 0
0, 0
0, 1
0, 0
0, 0
0, 0
0, 1
0, 0
0, 0
0, 0
0, 0
0, 0
1, 0
0, 0
0, 0
0, 0
0, 0
0, 0
0, 0
0, 0
0, 0
0, 0
0, 0
0, 0
0, 0
0, 0
0, 0
0, 0
0, 0
0, 0
0, 0
0, 0
0, 0
0, 0
0, 0
0, 0
0, 0
0, 0
0, 0
0, 0
0, 0
0, 0
0, 0
0, 0
0, 0
0, 0
0, 0
0, 0
0, 0
0, 0
0, 0
0, 0
0, 0
0, 0
0, 0
0, 0
0, 0
0, 0
0, 0
0, 0
0, 0
0, 0
0, 0
0, 0
0, 0
0, 0
0, 0
0, 0
0, 0
0, 0
0, 0
0, 0
0, 0
0, 0
0, 0
0, 0
0, 0
0, 0
0, 0
0, 0
0, 0
0, 0
0, 0
0, 0
0, 0
0, 0
0, 0
0, 0
0, 0
0, 0
0, 0
0, 0
0, 0
0, 0
0, 0
0, 0
0, 0
0, 0
0, 0
0, 0
0, 0
0, 0
0, 0
0, 0
0, 0
0, 0
0, 0
0, 0
0, 0
0, 0
0, 0
0, 0
0, 0
#ENDOFDATA     end of spectrum data