File: host_upload/12-01-2023/Dourbes (shot-by-shot)/upload_4/ps__0257_0689790785_000rfs_shot_3138.msa
#FORMAT      : EMSA/MAS spectral data file
#VERSION     : TC202v2.0 PIXL
#TITLE       : N/A
#DATE        :       Date in the format DD-MMM-YYYY, for example 07-JUL-2010
#TIME        :             The time of day at which the spectrum was recorded, in 24-hour format
#OWNER       : PIXL Flight Model       (PIXL will use this to indicate which instrument took the data.)
#NPOINTS     : 4096     Number of data points in the spectrum (This can be zero for configuration only files)
#NCOLUMNS    : 2     Number of data columns in the spectrum (This can be zero for configuration only files)
#XUNITS      : eV
#YUNITS      : COUNTS
#DATATYPE    : YY
#XPERCHAN    : 7.862, 7.881   eV per channel (separate by commas if more than one detector)
#OFFSET      : 18.5, -22.4         eV of first channel  (separate by commas if more than one detector
#SIGNALTYPE  : XRF
#YP_TEMP     : 2.813
#LIVETIME    : 9.13958, 9.14265   seconds (separate by commas if more than one detector)
#REALTIME    : 10, 10.0   seconds (separate by commas if more than one detector)
#SPECTRUM    : start of spectrum data
0, 0
0, 0
0, 0
0, 0
0, 0
0, 0
0, 0
1, 0
1, 0
3, 3
1, 1
30, 16
34, 38
8, 6
14, 12
141, 112
842, 758
173, 134
15, 11
5, 4
3, 1
7, 9
1, 3
23, 14
65, 57
55, 38
40, 34
27, 19
8, 8
4, 2
4, 8
6, 4
37, 23
550, 592
936, 813
102, 70
90, 94
126, 109
11, 8
5, 5
13, 12
30, 30
20, 11
7, 9
6, 2
14, 12
7, 8
3, 6
9, 13
53, 51
25, 30
5, 6
7, 6
27, 39
55, 72
12, 21
14, 19
223, 265
1261, 1233
858, 640
57, 38
8, 7
10, 14
52, 57
182, 207
115, 102
15, 16
35, 8
31, 6
9, 3
2, 3
8, 7
7, 4
1, 1
9, 6
9, 4
16, 10
8, 7
11, 6
2, 2
8, 4
7, 5
4, 7
4, 9
3, 9
7, 7
7, 5
7, 5
4, 0
5, 7
5, 4
3, 4
5, 3
4, 4
3, 1
3, 2
6, 1
5, 1
2, 6
2, 5
3, 3
0, 3
6, 3
2, 4
5, 1
4, 3
0, 5
3, 1
2, 4
1, 3
2, 4
1, 0
1, 2
2, 2
2, 2
2, 2
3, 1
2, 3
2, 2
1, 1
1, 0
1, 1
0, 0
2, 1
1, 1
5, 3
1, 0
1, 3
3, 3
0, 1
1, 2
2, 1
1, 0
1, 1
2, 2
1, 1
1, 2
0, 1
0, 1
0, 0
0, 0
1, 1
0, 0
1, 1
1, 2
1, 0
1, 1
3, 0
0, 0
0, 0
0, 0
0, 1
0, 1
0, 0
0, 0
0, 0
0, 0
1, 0
0, 0
0, 0
0, 0
1, 0
0, 0
1, 0
2, 0
0, 1
0, 1
0, 2
0, 2
0, 0
1, 0
1, 0
1, 0
0, 0
0, 0
0, 0
1, 0
0, 0
0, 0
0, 0
0, 0
0, 0
0, 0
0, 0
0, 0
0, 0
0, 0
1, 0
0, 0
0, 0
0, 0
0, 0
0, 0
0, 0
0, 0
0, 0
0, 0
0, 0
0, 0
0, 0
0, 0
0, 0
0, 0
0, 0
0, 0
0, 0
0, 0
0, 0
0, 0
0, 0
0, 0
0, 0
0, 0
0, 0
0, 0
0, 0
0, 0
0, 0
0, 0
0, 0
0, 0
0, 0
0, 0
0, 0
0, 0
0, 0
0, 0
0, 0
0, 0
0, 0
0, 0
0, 0
0, 0
0, 0
0, 0
0, 0
0, 0
0, 0
0, 0
0, 0
0, 0
0, 0
0, 0
0, 0
0, 0
0, 0
0, 0
0, 0
0, 0
0, 0
0, 0
0, 0
0, 0
0, 0
0, 0
0, 0
0, 0
0, 0
0, 0
0, 0
0, 0
0, 0
0, 0
0, 0
0, 0
0, 0
0, 0
0, 0
0, 0
0, 0
0, 0
0, 0
0, 0
0, 0
0, 0
0, 0
0, 0
0, 0
0, 0
0, 0
0, 0
0, 0
0, 0
0, 0
0, 0
0, 0
0, 0
0, 0
0, 0
0, 0
0, 0
0, 0
0, 0
0, 0
#ENDOFDATA     end of spectrum data