File: host_upload/12-01-2023/Dourbes (shot-by-shot)/upload_4/ps__0257_0689790785_000rfs_shot_3315.msa
#FORMAT      : EMSA/MAS spectral data file
#VERSION     : TC202v2.0 PIXL
#TITLE       : N/A
#DATE        :       Date in the format DD-MMM-YYYY, for example 07-JUL-2010
#TIME        :             The time of day at which the spectrum was recorded, in 24-hour format
#OWNER       : PIXL Flight Model       (PIXL will use this to indicate which instrument took the data.)
#NPOINTS     : 4096     Number of data points in the spectrum (This can be zero for configuration only files)
#NCOLUMNS    : 2     Number of data columns in the spectrum (This can be zero for configuration only files)
#XUNITS      : eV
#YUNITS      : COUNTS
#DATATYPE    : YY
#XPERCHAN    : 7.862, 7.881   eV per channel (separate by commas if more than one detector)
#OFFSET      : 18.5, -22.4         eV of first channel  (separate by commas if more than one detector
#SIGNALTYPE  : XRF
#YP_TEMP     : 3.037
#LIVETIME    : 9.14862, 9.13868   seconds (separate by commas if more than one detector)
#REALTIME    : 10, 10.0   seconds (separate by commas if more than one detector)
#SPECTRUM    : start of spectrum data
0, 0
0, 0
0, 0
0, 0
0, 0
0, 0
0, 0
0, 0
0, 3
1, 3
1, 1
21, 20
34, 30
8, 5
9, 5
145, 142
864, 946
157, 128
23, 18
2, 0
4, 0
12, 9
5, 4
10, 12
41, 25
26, 23
11, 12
9, 14
8, 2
4, 3
5, 1
5, 5
27, 35
598, 685
967, 995
97, 75
108, 107
144, 131
20, 12
0, 5
9, 4
40, 35
23, 22
3, 11
4, 6
9, 8
4, 5
2, 4
11, 8
50, 53
22, 25
8, 6
7, 10
23, 31
50, 41
12, 15
12, 15
212, 284
1106, 1217
667, 616
75, 45
13, 8
7, 12
41, 66
180, 202
114, 91
15, 9
24, 6
35, 6
18, 4
5, 3
7, 4
1, 6
7, 4
9, 5
3, 7
3, 15
4, 15
8, 0
3, 3
5, 5
6, 0
7, 2
2, 5
3, 14
4, 12
1, 4
5, 9
4, 21
3, 17
0, 8
11, 1
11, 8
5, 2
5, 1
1, 4
4, 3
1, 5
2, 4
4, 4
2, 1
0, 2
1, 2
4, 2
1, 1
3, 3
0, 3
5, 2
5, 3
2, 3
5, 0
7, 1
3, 2
2, 3
4, 4
3, 2
1, 3
1, 1
0, 2
1, 1
2, 0
4, 2
1, 1
1, 1
3, 0
2, 4
2, 1
3, 2
2, 0
2, 1
0, 0
0, 1
1, 2
1, 3
0, 2
1, 1
3, 1
1, 4
0, 0
0, 0
1, 0
0, 1
0, 0
1, 0
1, 3
0, 0
1, 1
2, 0
1, 1
0, 1
0, 0
0, 1
0, 0
1, 0
0, 1
0, 0
0, 0
0, 0
0, 0
0, 0
0, 1
0, 0
0, 0
0, 0
0, 0
0, 0
0, 0
0, 0
1, 0
0, 0
1, 0
0, 1
0, 0
0, 0
0, 1
0, 0
0, 0
0, 0
0, 0
0, 0
0, 0
0, 0
1, 1
0, 1
0, 0
1, 0
0, 0
0, 1
0, 0
0, 1
0, 0
0, 0
0, 0
1, 0
0, 0
0, 0
0, 0
0, 0
1, 0
0, 0
0, 0
0, 0
0, 0
0, 0
0, 0
0, 0
0, 0
0, 0
0, 0
0, 0
0, 0
0, 0
0, 0
0, 0
0, 0
0, 0
0, 0
0, 0
1, 0
0, 0
0, 0
0, 0
0, 0
0, 0
0, 0
0, 0
0, 0
0, 0
0, 0
0, 0
0, 0
0, 0
0, 0
0, 0
0, 0
0, 0
0, 0
0, 0
0, 0
0, 0
0, 0
0, 0
0, 0
0, 0
0, 0
0, 0
0, 0
0, 0
0, 0
0, 0
0, 0
0, 0
0, 0
0, 0
0, 0
0, 0
0, 0
0, 0
0, 0
0, 0
0, 0
0, 0
0, 0
0, 0
0, 0
0, 0
0, 0
0, 0
0, 0
0, 0
0, 0
0, 0
0, 0
0, 0
0, 0
0, 0
0, 0
0, 0
0, 0
0, 0
0, 0
0, 0
0, 0
0, 0
0, 0
0, 0
0, 0
0, 0
0, 0
0, 0
0, 0
0, 0
0, 0
0, 0
#ENDOFDATA     end of spectrum data