File: host_upload/12-01-2023/Dourbes (shot-by-shot)/upload_4/ps__0257_0689790785_000rfs_shot_3037.msa
#FORMAT      : EMSA/MAS spectral data file
#VERSION     : TC202v2.0 PIXL
#TITLE       : N/A
#DATE        :       Date in the format DD-MMM-YYYY, for example 07-JUL-2010
#TIME        :             The time of day at which the spectrum was recorded, in 24-hour format
#OWNER       : PIXL Flight Model       (PIXL will use this to indicate which instrument took the data.)
#NPOINTS     : 4096     Number of data points in the spectrum (This can be zero for configuration only files)
#NCOLUMNS    : 2     Number of data columns in the spectrum (This can be zero for configuration only files)
#XUNITS      : eV
#YUNITS      : COUNTS
#DATATYPE    : YY
#XPERCHAN    : 7.862, 7.881   eV per channel (separate by commas if more than one detector)
#OFFSET      : 18.5, -22.4         eV of first channel  (separate by commas if more than one detector
#SIGNALTYPE  : XRF
#YP_TEMP     : 3.422
#LIVETIME    : 9.01418, 8.9932   seconds (separate by commas if more than one detector)
#REALTIME    : 10, 10.0   seconds (separate by commas if more than one detector)
#SPECTRUM    : start of spectrum data
0, 0
0, 0
0, 0
0, 0
0, 0
0, 0
0, 0
0, 1
1, 2
1, 5
2, 1
17, 27
31, 30
1, 4
2, 4
46, 39
295, 284
47, 37
7, 5
0, 2
9, 17
42, 58
13, 20
18, 34
132, 116
127, 97
42, 43
22, 28
12, 8
5, 8
3, 7
5, 2
9, 12
90, 129
151, 171
15, 20
18, 18
27, 23
20, 14
10, 5
7, 11
18, 17
23, 45
23, 26
13, 9
29, 12
15, 8
11, 19
15, 19
14, 20
18, 18
15, 15
19, 24
62, 101
107, 125
27, 35
36, 47
565, 785
3192, 3656
2057, 1925
168, 134
32, 25
34, 50
141, 165
470, 526
271, 239
20, 23
7, 4
7, 11
4, 2
6, 14
6, 4
4, 5
10, 6
10, 4
7, 4
6, 13
11, 2
4, 3
5, 6
4, 8
3, 6
5, 4
3, 2
2, 10
3, 4
7, 3
3, 2
5, 5
1, 2
4, 3
4, 7
4, 6
3, 7
2, 3
1, 3
2, 4
1, 5
4, 2
1, 1
7, 6
4, 5
0, 3
2, 7
3, 0
2, 1
6, 3
1, 4
2, 4
3, 1
1, 1
1, 0
2, 2
5, 3
0, 1
2, 2
6, 6
2, 1
2, 4
2, 1
0, 5
6, 2
3, 3
1, 2
0, 1
3, 1
2, 1
1, 0
2, 0
1, 0
2, 0
0, 0
1, 1
0, 1
0, 2
1, 0
0, 1
0, 0
1, 1
2, 2
1, 0
0, 0
0, 0
0, 1
1, 0
0, 1
1, 1
0, 1
0, 0
1, 0
0, 1
0, 0
0, 0
0, 0
0, 0
0, 0
3, 0
1, 1
0, 0
1, 0
1, 1
1, 1
0, 0
0, 0
0, 2
0, 0
2, 0
0, 1
0, 0
0, 1
0, 0
0, 0
1, 0
0, 0
1, 0
1, 0
1, 0
0, 1
1, 0
1, 0
0, 0
0, 0
0, 0
0, 0
0, 0
0, 0
0, 0
0, 0
0, 1
0, 0
0, 0
0, 0
0, 0
0, 0
0, 0
1, 0
0, 0
0, 0
0, 0
0, 0
0, 0
0, 0
0, 0
0, 0
0, 0
0, 0
0, 0
0, 0
0, 0
0, 0
0, 0
0, 0
0, 0
0, 0
0, 0
0, 0
0, 0
0, 0
0, 0
0, 0
0, 0
0, 0
0, 0
0, 0
0, 0
0, 0
0, 0
0, 0
0, 0
0, 0
0, 0
0, 0
0, 0
0, 0
0, 0
0, 0
0, 0
0, 0
0, 0
0, 0
0, 0
0, 0
0, 0
0, 0
0, 0
0, 0
0, 0
0, 0
0, 0
0, 0
0, 0
0, 0
0, 0
0, 0
0, 0
0, 0
0, 0
0, 0
0, 0
0, 0
0, 0
0, 0
0, 0
0, 0
0, 0
0, 0
0, 0
0, 0
0, 0
0, 0
0, 0
0, 0
0, 0
0, 0
0, 0
0, 0
0, 0
0, 0
0, 0
0, 0
0, 0
0, 0
0, 0
0, 0
0, 0
0, 0
0, 0
0, 0
0, 0
0, 0
0, 0
0, 0
0, 0
0, 0
#ENDOFDATA     end of spectrum data