File: host_upload/12-01-2023/Dourbes (shot-by-shot)/upload_4/ps__0257_0689790785_000rfs_shot_3113.msa
#FORMAT      : EMSA/MAS spectral data file
#VERSION     : TC202v2.0 PIXL
#TITLE       : N/A
#DATE        :       Date in the format DD-MMM-YYYY, for example 07-JUL-2010
#TIME        :             The time of day at which the spectrum was recorded, in 24-hour format
#OWNER       : PIXL Flight Model       (PIXL will use this to indicate which instrument took the data.)
#NPOINTS     : 4096     Number of data points in the spectrum (This can be zero for configuration only files)
#NCOLUMNS    : 2     Number of data columns in the spectrum (This can be zero for configuration only files)
#XUNITS      : eV
#YUNITS      : COUNTS
#DATATYPE    : YY
#XPERCHAN    : 7.862, 7.881   eV per channel (separate by commas if more than one detector)
#OFFSET      : 18.5, -22.4         eV of first channel  (separate by commas if more than one detector
#SIGNALTYPE  : XRF
#YP_TEMP     : 3.005
#LIVETIME    : 9.15059, 9.14773   seconds (separate by commas if more than one detector)
#REALTIME    : 10, 10.0   seconds (separate by commas if more than one detector)
#SPECTRUM    : start of spectrum data
0, 0
0, 0
0, 0
0, 0
0, 0
0, 0
0, 0
1, 0
3, 1
2, 1
2, 0
27, 18
39, 26
5, 2
14, 8
144, 130
956, 901
163, 165
14, 17
1, 1
4, 3
4, 7
2, 4
2, 9
26, 33
21, 26
19, 15
8, 15
8, 1
4, 2
4, 4
2, 1
21, 28
603, 716
1052, 1031
107, 86
102, 101
136, 148
9, 7
4, 1
7, 8
44, 28
13, 10
4, 7
5, 4
9, 5
6, 6
11, 4
10, 9
42, 55
25, 20
6, 8
7, 7
23, 42
59, 48
16, 18
10, 20
214, 252
1075, 1169
749, 599
98, 53
19, 7
9, 12
38, 41
178, 176
97, 100
14, 6
26, 9
26, 6
8, 5
7, 3
1, 7
8, 6
2, 2
4, 5
5, 3
8, 7
6, 13
3, 4
7, 6
6, 3
5, 5
9, 5
6, 5
4, 2
2, 7
7, 8
10, 7
5, 23
5, 24
3, 13
5, 6
6, 6
4, 2
2, 3
3, 2
3, 3
3, 6
7, 3
4, 7
7, 4
2, 2
2, 5
2, 6
1, 7
1, 7
4, 3
2, 1
4, 0
3, 0
8, 1
4, 0
2, 2
1, 1
3, 1
2, 2
5, 4
0, 2
1, 3
0, 1
0, 1
0, 3
1, 3
2, 4
0, 1
1, 2
0, 1
1, 2
0, 2
2, 2
0, 0
2, 0
3, 2
0, 3
1, 1
1, 1
0, 0
2, 0
0, 0
1, 0
1, 0
2, 0
0, 0
0, 1
0, 1
1, 0
4, 3
1, 1
2, 0
0, 0
0, 0
0, 0
0, 0
2, 0
1, 0
2, 0
0, 0
0, 0
0, 0
0, 0
1, 0
0, 0
0, 0
0, 0
0, 0
1, 0
0, 0
0, 0
0, 0
0, 0
0, 0
0, 0
0, 0
0, 1
0, 0
0, 0
0, 0
0, 0
0, 1
1, 1
0, 0
0, 0
0, 0
1, 0
0, 0
0, 0
0, 0
0, 0
0, 0
0, 0
0, 0
0, 0
1, 0
0, 1
0, 0
0, 0
0, 0
0, 0
0, 0
0, 0
1, 0
0, 0
0, 0
0, 0
0, 0
0, 0
0, 0
0, 0
0, 1
0, 1
0, 0
0, 0
0, 0
0, 0
0, 0
0, 0
0, 0
0, 0
0, 0
0, 0
0, 0
0, 0
0, 0
0, 1
0, 0
0, 0
0, 0
0, 0
0, 0
0, 0
0, 0
0, 0
0, 0
0, 0
0, 0
0, 0
0, 0
0, 0
0, 0
0, 0
0, 0
0, 0
0, 0
0, 0
0, 0
0, 0
0, 0
0, 0
0, 0
0, 0
0, 0
0, 0
0, 0
0, 0
0, 0
0, 0
0, 0
0, 0
0, 0
0, 0
0, 0
0, 0
0, 0
0, 0
0, 0
0, 0
0, 0
0, 0
0, 0
0, 0
0, 0
0, 0
0, 0
0, 0
0, 0
0, 0
0, 0
0, 0
0, 0
0, 0
0, 0
0, 0
0, 0
0, 0
0, 0
0, 0
0, 0
0, 0
0, 0
0, 0
0, 0
0, 0
0, 0
0, 0
#ENDOFDATA     end of spectrum data