File: host_upload/12-01-2023/Dourbes (shot-by-shot)/upload_4/ps__0257_0689790785_000rfs_shot_3028.msa
#FORMAT      : EMSA/MAS spectral data file
#VERSION     : TC202v2.0 PIXL
#TITLE       : N/A
#DATE        :       Date in the format DD-MMM-YYYY, for example 07-JUL-2010
#TIME        :             The time of day at which the spectrum was recorded, in 24-hour format
#OWNER       : PIXL Flight Model       (PIXL will use this to indicate which instrument took the data.)
#NPOINTS     : 4096     Number of data points in the spectrum (This can be zero for configuration only files)
#NCOLUMNS    : 2     Number of data columns in the spectrum (This can be zero for configuration only files)
#XUNITS      : eV
#YUNITS      : COUNTS
#DATATYPE    : YY
#XPERCHAN    : 7.862, 7.881   eV per channel (separate by commas if more than one detector)
#OFFSET      : 18.5, -22.4         eV of first channel  (separate by commas if more than one detector
#SIGNALTYPE  : XRF
#YP_TEMP     : 2.973
#LIVETIME    : 9.11713, 9.11942   seconds (separate by commas if more than one detector)
#REALTIME    : 10, 10.0   seconds (separate by commas if more than one detector)
#SPECTRUM    : start of spectrum data
0, 0
0, 0
0, 0
0, 0
0, 0
0, 0
0, 0
0, 0
2, 0
2, 0
6, 2
9, 22
33, 29
29, 15
56, 48
103, 96
683, 652
132, 105
5, 7
3, 2
1, 2
12, 13
2, 4
17, 12
71, 115
62, 49
34, 30
20, 15
3, 4
6, 3
45, 35
25, 13
13, 9
49, 39
54, 37
10, 6
7, 13
19, 11
42, 15
12, 13
5, 7
17, 17
14, 15
11, 22
11, 10
13, 13
8, 9
5, 6
7, 9
16, 15
12, 13
6, 9
11, 12
34, 49
46, 76
27, 75
35, 42
437, 433
2189, 2085
1356, 1145
120, 88
18, 20
12, 38
67, 130
358, 355
227, 177
22, 11
5, 6
11, 5
4, 4
10, 6
4, 3
11, 8
5, 3
1, 5
7, 8
6, 3
11, 5
6, 6
4, 3
10, 4
4, 1
7, 2
5, 4
2, 9
7, 7
5, 8
5, 2
4, 9
7, 3
5, 2
6, 4
10, 0
6, 7
3, 1
4, 4
1, 4
2, 4
2, 3
6, 3
1, 3
3, 5
3, 6
1, 2
2, 2
3, 2
8, 2
3, 1
2, 2
3, 4
0, 1
1, 0
6, 1
3, 3
3, 1
1, 2
8, 2
4, 3
0, 3
2, 2
3, 0
1, 1
3, 1
3, 0
3, 1
1, 0
1, 0
1, 0
2, 0
2, 0
1, 1
3, 2
0, 1
0, 0
1, 2
0, 0
2, 0
2, 2
1, 1
1, 0
2, 0
0, 0
0, 1
0, 0
1, 1
1, 0
1, 2
1, 0
1, 2
0, 0
0, 0
1, 1
0, 0
2, 1
1, 0
1, 0
0, 0
0, 0
1, 0
0, 0
0, 0
0, 0
0, 1
1, 0
0, 0
0, 0
0, 1
0, 0
0, 0
1, 0
0, 0
0, 0
0, 0
0, 0
1, 0
0, 0
0, 0
0, 0
0, 0
0, 0
0, 1
0, 0
1, 0
0, 0
0, 0
0, 0
0, 0
0, 0
0, 0
0, 0
0, 0
1, 0
0, 0
1, 0
0, 0
0, 0
0, 0
0, 0
1, 0
0, 0
0, 0
0, 0
0, 0
0, 0
0, 0
0, 0
0, 0
0, 0
0, 0
0, 0
0, 0
0, 0
0, 0
0, 0
0, 1
0, 0
0, 0
0, 0
0, 0
0, 0
0, 0
0, 0
0, 0
0, 0
0, 0
0, 0
0, 0
0, 0
0, 0
0, 0
0, 0
0, 0
0, 0
0, 0
0, 0
0, 0
0, 0
0, 0
0, 0
0, 0
0, 0
0, 0
0, 0
0, 0
0, 0
0, 0
0, 0
0, 0
0, 0
0, 0
0, 0
0, 0
0, 0
0, 0
0, 0
0, 0
0, 0
0, 0
0, 0
0, 0
0, 0
0, 0
0, 0
0, 0
0, 0
0, 0
0, 0
0, 0
0, 0
0, 0
0, 0
0, 0
0, 0
0, 0
0, 0
0, 0
0, 0
0, 0
0, 0
0, 0
0, 0
0, 0
0, 0
0, 0
0, 0
0, 0
0, 0
0, 0
0, 0
0, 0
0, 0
0, 0
0, 0
0, 0
#ENDOFDATA     end of spectrum data