File: host_upload/02-11-2024/rqc/uplink1/ps__0567_0717304816_000rfs_shot_102.msa
#FORMAT      : EMSA/MAS spectral data file
#VERSION     : TC202v2.0 PIXL
#TITLE       : Novarupta (sol567) subset1
#DATE        : 02-11-2024      Date in the format DD-MMM-YYYY, for example 07-JUL-2010
#TIME        :             The time of day at which the spectrum was recorded, in 24-hour format
#OWNER       : PIXL Flight Model       (PIXL will use this to indicate which instrument took the data.)
#NPOINTS     : 4096     Number of data points in the spectrum (This can be zero for configuration only files)
#NCOLUMNS    : 2     Number of data columns in the spectrum (This can be zero for configuration only files)
#XUNITS      : eV
#YUNITS      : COUNTS
#DATATYPE    : YY
#XPERCHAN    : 7.862, 7.881   eV per channel (separate by commas if more than one detector)
#OFFSET      : 18.5, -22.4         eV of first channel  (separate by commas if more than one detector
#SIGNALTYPE  : XRF
#YP_TEMP     : -1.004
#LIVETIME    : 8.85267, 8.82118   seconds (separate by commas if more than one detector)
#REALTIME    : 10, 10.0   seconds (separate by commas if more than one detector)
#SPECTRUM    : start of spectrum data
0, 0
0, 0
0, 0
0, 0
0, 0
0, 0
0, 0
0, 1
4, 4
0, 3
6, 1
13, 16
13, 16
25, 25
47, 44
110, 124
458, 563
135, 132
28, 36
17, 30
60, 64
252, 337
110, 109
73, 63
181, 218
87, 113
84, 60
26, 37
11, 4
6, 10
25, 34
14, 15
24, 27
223, 247
301, 351
55, 48
52, 66
47, 48
12, 11
12, 13
9, 24
56, 65
28, 38
13, 8
15, 19
16, 18
8, 12
8, 7
11, 17
32, 39
11, 15
10, 11
14, 10
38, 42
44, 47
19, 13
25, 38
384, 530
1546, 1874
935, 916
113, 74
17, 11
24, 27
86, 116
225, 292
140, 145
12, 17
10, 7
6, 10
8, 6
11, 3
10, 4
5, 4
3, 7
8, 12
5, 5
6, 8
6, 9
10, 11
8, 6
8, 9
1, 8
4, 3
4, 9
2, 6
5, 4
6, 4
2, 4
8, 4
3, 3
4, 4
2, 4
7, 8
8, 2
2, 3
3, 4
3, 6
4, 2
2, 6
4, 3
3, 6
1, 3
3, 4
4, 4
2, 5
1, 3
2, 2
2, 5
1, 2
3, 2
2, 1
0, 0
3, 0
0, 3
2, 1
2, 4
3, 3
1, 4
5, 3
0, 0
1, 2
1, 2
2, 2
1, 1
0, 1
0, 1
1, 1
1, 2
1, 1
1, 0
0, 1
0, 1
0, 0
0, 0
0, 2
1, 0
0, 1
0, 0
0, 0
1, 0
1, 0
1, 1
0, 1
0, 0
1, 3
1, 0
3, 0
0, 0
1, 0
1, 0
0, 1
0, 0
1, 0
0, 0
0, 1
1, 0
0, 1
0, 0
0, 0
0, 1
0, 0
0, 0
0, 0
0, 0
0, 1
0, 0
0, 0
0, 0
0, 0
0, 1
0, 0
0, 1
0, 0
0, 2
1, 1
0, 0
0, 0
0, 0
0, 0
0, 0
0, 0
0, 0
0, 0
0, 0
0, 1
0, 0
0, 0
0, 0
0, 0
0, 0
0, 0
0, 1
0, 0
0, 1
0, 0
0, 0
0, 0
0, 0
0, 0
0, 0
0, 0
0, 0
0, 0
0, 0
0, 0
0, 0
0, 0
0, 0
0, 0
0, 0
0, 0
0, 0
0, 0
0, 0
0, 0
0, 0
0, 0
0, 0
0, 0
0, 0
0, 0
0, 0
0, 0
0, 0
0, 0
0, 0
0, 0
0, 0
0, 0
0, 0
0, 0
0, 0
0, 0
0, 0
0, 0
0, 0
0, 0
0, 0
0, 0
0, 0
0, 0
0, 0
0, 0
0, 0
0, 0
0, 0
0, 0
0, 0
0, 0
0, 0
0, 0
0, 0
0, 0
0, 0
0, 0
0, 0
0, 0
0, 0
0, 0
0, 0
0, 0
0, 0
0, 0
0, 0
0, 0
0, 0
0, 0
0, 0
0, 0
0, 0
0, 0
0, 0
0, 0
0, 0
0, 0
0, 0
0, 0
0, 0
0, 0
0, 0
0, 0
0, 0
0, 0
0, 0
0, 0
0, 0
0, 0
0, 0
0, 0
0, 0
0, 0
0, 0
0, 0
0, 0
#ENDOFDATA     end of spectrum data