File: host_upload/02-11-2024/rqc/uplink1/ps__0567_0717304816_000rfs_shot_203.msa
#FORMAT      : EMSA/MAS spectral data file
#VERSION     : TC202v2.0 PIXL
#TITLE       : Novarupta (sol567) subset1
#DATE        : 02-11-2024      Date in the format DD-MMM-YYYY, for example 07-JUL-2010
#TIME        :             The time of day at which the spectrum was recorded, in 24-hour format
#OWNER       : PIXL Flight Model       (PIXL will use this to indicate which instrument took the data.)
#NPOINTS     : 4096     Number of data points in the spectrum (This can be zero for configuration only files)
#NCOLUMNS    : 2     Number of data columns in the spectrum (This can be zero for configuration only files)
#XUNITS      : eV
#YUNITS      : COUNTS
#DATATYPE    : YY
#XPERCHAN    : 7.862, 7.881   eV per channel (separate by commas if more than one detector)
#OFFSET      : 18.5, -22.4         eV of first channel  (separate by commas if more than one detector
#SIGNALTYPE  : XRF
#YP_TEMP     : 0.664
#LIVETIME    : 8.84251, 8.82676   seconds (separate by commas if more than one detector)
#REALTIME    : 10, 10.0   seconds (separate by commas if more than one detector)
#SPECTRUM    : start of spectrum data
0, 0
0, 0
0, 0
0, 0
0, 0
0, 0
0, 0
1, 1
5, 0
3, 2
6, 1
10, 8
17, 22
22, 37
39, 40
93, 130
478, 501
130, 120
27, 31
29, 22
42, 51
305, 337
121, 109
63, 84
173, 227
98, 106
85, 93
34, 27
11, 6
4, 11
24, 28
19, 22
18, 7
204, 235
286, 310
56, 59
40, 46
50, 48
7, 10
9, 6
24, 21
67, 71
41, 43
12, 14
16, 23
19, 22
12, 15
16, 10
13, 16
25, 27
18, 22
14, 12
11, 10
24, 36
45, 39
18, 22
26, 41
359, 476
1537, 1728
1063, 964
105, 94
13, 14
14, 21
74, 96
238, 297
136, 123
23, 20
8, 5
12, 8
8, 4
8, 6
10, 4
2, 6
5, 6
7, 6
5, 8
9, 2
6, 10
9, 7
10, 14
9, 7
6, 10
3, 4
3, 7
5, 10
6, 6
7, 6
2, 4
5, 5
3, 5
4, 3
2, 2
3, 2
3, 4
7, 2
5, 2
4, 6
4, 5
1, 1
2, 2
1, 2
3, 5
1, 2
2, 3
2, 3
4, 1
4, 4
3, 2
0, 5
4, 0
1, 3
2, 2
4, 2
1, 1
2, 3
4, 0
2, 2
3, 2
2, 0
2, 1
2, 2
2, 1
0, 2
1, 2
2, 1
2, 1
1, 0
2, 1
1, 1
0, 0
1, 1
1, 0
0, 0
0, 2
2, 1
0, 1
0, 1
0, 0
1, 0
1, 2
2, 0
0, 0
0, 1
0, 0
0, 1
1, 2
1, 0
1, 0
1, 0
1, 0
0, 2
0, 0
0, 0
2, 1
0, 0
0, 0
0, 0
0, 1
1, 2
1, 0
0, 0
0, 0
0, 0
1, 1
0, 0
0, 1
0, 1
0, 0
0, 0
0, 0
0, 0
0, 0
0, 0
1, 0
1, 1
0, 0
0, 0
0, 0
1, 0
0, 0
0, 0
0, 0
0, 0
0, 0
0, 0
0, 0
0, 0
0, 0
0, 1
0, 0
0, 0
0, 0
0, 1
0, 0
0, 0
0, 0
0, 0
0, 0
0, 0
0, 0
0, 0
0, 0
0, 0
0, 0
0, 0
0, 0
0, 0
0, 0
0, 0
0, 0
0, 0
0, 0
0, 0
0, 0
0, 0
0, 0
0, 0
0, 0
0, 0
0, 1
0, 0
0, 0
0, 0
0, 0
0, 0
0, 0
0, 0
0, 0
0, 0
0, 0
0, 0
0, 0
0, 0
0, 0
0, 0
0, 0
0, 0
0, 0
0, 0
0, 0
0, 0
0, 0
0, 0
0, 0
0, 0
0, 0
0, 0
0, 0
0, 0
0, 0
0, 0
0, 0
0, 0
0, 0
0, 0
0, 0
0, 0
0, 0
0, 0
0, 0
0, 0
0, 0
0, 0
0, 0
0, 0
0, 0
0, 0
0, 0
0, 0
0, 0
0, 0
0, 0
0, 0
0, 0
0, 0
0, 0
0, 0
0, 0
0, 0
0, 0
0, 0
0, 0
0, 0
0, 0
0, 0
0, 0
0, 0
0, 0
0, 0
0, 0
0, 0
0, 0
0, 0
0, 0
#ENDOFDATA     end of spectrum data