File: host_upload/02-11-2024/rqc/uplink1/ps__0567_0717304816_000rfs_shot_357.msa
#FORMAT      : EMSA/MAS spectral data file
#VERSION     : TC202v2.0 PIXL
#TITLE       : Novarupta (sol567) subset1
#DATE        : 02-11-2024      Date in the format DD-MMM-YYYY, for example 07-JUL-2010
#TIME        :             The time of day at which the spectrum was recorded, in 24-hour format
#OWNER       : PIXL Flight Model       (PIXL will use this to indicate which instrument took the data.)
#NPOINTS     : 4096     Number of data points in the spectrum (This can be zero for configuration only files)
#NCOLUMNS    : 2     Number of data columns in the spectrum (This can be zero for configuration only files)
#XUNITS      : eV
#YUNITS      : COUNTS
#DATATYPE    : YY
#XPERCHAN    : 7.862, 7.881   eV per channel (separate by commas if more than one detector)
#OFFSET      : 18.5, -22.4         eV of first channel  (separate by commas if more than one detector
#SIGNALTYPE  : XRF
#YP_TEMP     : 1.626
#LIVETIME    : 8.8299, 8.81104   seconds (separate by commas if more than one detector)
#REALTIME    : 10, 10.0   seconds (separate by commas if more than one detector)
#SPECTRUM    : start of spectrum data
0, 0
0, 0
0, 0
0, 0
0, 0
0, 0
0, 0
0, 0
5, 1
4, 2
3, 0
2, 7
15, 19
22, 29
30, 44
100, 142
448, 541
121, 111
25, 40
30, 24
52, 52
290, 326
117, 122
58, 74
191, 249
114, 125
64, 75
26, 21
8, 12
8, 10
14, 20
14, 20
18, 24
203, 237
314, 327
57, 57
37, 37
55, 59
11, 15
8, 11
18, 12
56, 79
31, 43
11, 14
17, 16
27, 23
13, 22
19, 8
11, 12
20, 31
12, 36
7, 9
22, 16
20, 53
47, 41
22, 25
23, 29
352, 480
1624, 1761
1087, 994
100, 95
12, 25
19, 27
85, 91
253, 281
156, 174
23, 18
8, 5
10, 13
3, 11
7, 5
4, 5
6, 4
9, 7
7, 10
11, 9
7, 12
4, 5
8, 20
10, 12
7, 9
9, 6
4, 6
2, 4
5, 6
5, 3
8, 3
4, 8
9, 5
5, 4
2, 3
9, 4
6, 4
2, 5
3, 3
8, 2
1, 2
6, 3
7, 2
4, 0
2, 5
2, 2
4, 2
3, 1
4, 1
1, 8
7, 1
1, 4
1, 4
1, 2
3, 2
2, 3
1, 3
0, 3
4, 2
5, 5
5, 4
1, 3
1, 0
1, 2
0, 3
1, 1
2, 2
0, 5
1, 0
1, 1
0, 3
2, 2
1, 2
0, 1
1, 2
3, 1
0, 1
0, 0
1, 0
0, 0
3, 0
0, 0
1, 0
2, 0
0, 3
1, 0
0, 0
1, 1
0, 0
0, 0
0, 0
0, 0
0, 0
0, 1
0, 0
0, 0
0, 1
0, 1
0, 0
0, 0
0, 1
0, 1
0, 0
0, 1
1, 0
0, 0
0, 1
1, 0
0, 0
0, 3
1, 0
0, 1
0, 2
0, 0
0, 1
1, 1
0, 1
0, 0
0, 0
0, 1
0, 0
0, 0
0, 0
0, 0
0, 0
0, 0
0, 1
0, 0
0, 0
1, 0
0, 0
0, 0
0, 0
0, 0
0, 0
0, 0
0, 0
0, 0
0, 1
1, 0
0, 0
0, 0
0, 0
0, 0
0, 0
0, 0
0, 0
0, 1
0, 0
0, 0
0, 0
0, 1
0, 0
0, 0
0, 0
0, 0
0, 0
0, 0
0, 0
0, 0
0, 0
0, 0
0, 0
0, 0
0, 0
0, 0
0, 0
0, 0
0, 0
0, 0
0, 0
0, 0
0, 0
0, 0
0, 0
0, 0
0, 0
0, 0
0, 0
0, 0
0, 0
0, 0
0, 0
0, 0
0, 0
0, 0
0, 0
0, 0
0, 0
0, 0
0, 0
0, 0
0, 0
0, 0
0, 0
0, 0
0, 0
0, 0
0, 0
0, 0
0, 0
0, 0
0, 0
0, 0
0, 0
0, 0
0, 0
0, 0
0, 0
0, 0
0, 0
0, 0
0, 0
0, 0
0, 0
0, 0
0, 0
0, 0
0, 0
0, 0
0, 0
0, 0
0, 0
0, 0
0, 0
0, 0
0, 0
0, 0
0, 0
0, 0
0, 0
0, 0
0, 0
0, 0
0, 0
0, 0
0, 0
0, 0
#ENDOFDATA     end of spectrum data