File: host_upload/02-11-2024/rqc/uplink1/ps__0567_0717304816_000rfs_shot_312.msa
#FORMAT      : EMSA/MAS spectral data file
#VERSION     : TC202v2.0 PIXL
#TITLE       : Novarupta (sol567) subset1
#DATE        : 02-11-2024      Date in the format DD-MMM-YYYY, for example 07-JUL-2010
#TIME        :             The time of day at which the spectrum was recorded, in 24-hour format
#OWNER       : PIXL Flight Model       (PIXL will use this to indicate which instrument took the data.)
#NPOINTS     : 4096     Number of data points in the spectrum (This can be zero for configuration only files)
#NCOLUMNS    : 2     Number of data columns in the spectrum (This can be zero for configuration only files)
#XUNITS      : eV
#YUNITS      : COUNTS
#DATATYPE    : YY
#XPERCHAN    : 7.862, 7.881   eV per channel (separate by commas if more than one detector)
#OFFSET      : 18.5, -22.4         eV of first channel  (separate by commas if more than one detector
#SIGNALTYPE  : XRF
#YP_TEMP     : 1.53
#LIVETIME    : 8.84281, 8.81502   seconds (separate by commas if more than one detector)
#REALTIME    : 10, 10.0   seconds (separate by commas if more than one detector)
#SPECTRUM    : start of spectrum data
0, 0
0, 0
0, 0
0, 0
0, 0
0, 0
0, 0
0, 0
2, 2
6, 2
4, 5
12, 10
4, 14
11, 28
29, 56
110, 135
436, 536
120, 131
29, 35
20, 28
42, 71
279, 326
120, 105
65, 79
186, 225
111, 109
66, 85
28, 25
13, 9
10, 8
24, 28
14, 18
19, 33
186, 273
347, 337
54, 60
39, 37
68, 46
16, 8
11, 10
20, 23
57, 67
31, 35
9, 12
17, 17
14, 16
13, 11
4, 12
16, 14
22, 31
26, 16
20, 13
19, 18
33, 45
43, 55
25, 24
22, 36
343, 476
1530, 1897
1050, 1054
109, 111
23, 16
17, 18
66, 92
253, 301
172, 160
19, 15
11, 15
13, 16
8, 7
5, 9
7, 8
3, 6
3, 9
8, 10
8, 14
5, 7
7, 7
10, 4
13, 14
6, 11
5, 3
5, 7
7, 5
12, 3
10, 4
3, 3
7, 9
4, 5
2, 3
2, 3
3, 5
2, 6
4, 4
7, 3
0, 7
3, 2
0, 8
2, 6
4, 2
4, 3
3, 1
5, 3
1, 0
1, 2
1, 3
2, 5
3, 4
3, 0
2, 3
0, 2
3, 1
1, 2
1, 2
1, 0
6, 3
2, 1
2, 4
3, 1
2, 1
1, 3
1, 2
2, 1
1, 1
0, 0
1, 0
1, 1
3, 2
1, 4
0, 1
0, 1
0, 1
2, 1
2, 0
1, 2
1, 0
0, 1
1, 1
0, 3
1, 0
1, 0
0, 0
1, 1
0, 2
1, 0
1, 0
0, 0
1, 0
2, 0
0, 1
0, 0
1, 0
0, 1
0, 0
1, 0
0, 0
1, 0
0, 0
1, 0
0, 0
0, 0
0, 1
0, 0
0, 0
0, 1
1, 1
0, 0
0, 0
1, 1
0, 1
0, 0
0, 0
0, 0
0, 0
0, 0
0, 0
0, 0
0, 1
0, 0
0, 0
1, 0
0, 1
0, 1
0, 0
1, 1
0, 0
0, 0
0, 0
0, 0
0, 0
0, 1
0, 0
0, 0
0, 0
0, 0
0, 0
0, 0
0, 0
0, 0
0, 0
0, 0
0, 0
0, 0
0, 0
0, 0
0, 0
0, 0
0, 0
0, 0
0, 0
0, 0
0, 0
1, 0
0, 0
0, 0
0, 0
0, 0
0, 0
0, 1
0, 0
0, 0
0, 0
0, 0
0, 0
0, 0
0, 0
0, 0
0, 0
0, 0
0, 0
0, 0
0, 0
0, 0
0, 0
0, 0
0, 0
0, 0
0, 0
0, 0
0, 0
0, 0
0, 0
0, 0
0, 0
0, 0
0, 0
0, 0
0, 0
0, 0
0, 0
0, 0
0, 0
0, 0
0, 0
0, 0
0, 0
0, 0
0, 0
0, 0
0, 0
0, 0
0, 0
0, 0
0, 0
0, 0
0, 0
0, 0
0, 0
0, 0
0, 0
0, 0
0, 0
0, 0
0, 0
0, 0
0, 0
0, 0
0, 0
0, 0
0, 0
0, 0
0, 0
0, 0
0, 0
0, 0
0, 0
0, 0
0, 0
0, 0
0, 0
0, 0
0, 0
0, 0
0, 0
#ENDOFDATA     end of spectrum data