File: host_upload/02-11-2024/rqc/uplink1/ps__0567_0717304816_000rfs_shot_259.msa
#FORMAT      : EMSA/MAS spectral data file
#VERSION     : TC202v2.0 PIXL
#TITLE       : Novarupta (sol567) subset1
#DATE        : 02-11-2024      Date in the format DD-MMM-YYYY, for example 07-JUL-2010
#TIME        :             The time of day at which the spectrum was recorded, in 24-hour format
#OWNER       : PIXL Flight Model       (PIXL will use this to indicate which instrument took the data.)
#NPOINTS     : 4096     Number of data points in the spectrum (This can be zero for configuration only files)
#NCOLUMNS    : 2     Number of data columns in the spectrum (This can be zero for configuration only files)
#XUNITS      : eV
#YUNITS      : COUNTS
#DATATYPE    : YY
#XPERCHAN    : 7.862, 7.881   eV per channel (separate by commas if more than one detector)
#OFFSET      : 18.5, -22.4         eV of first channel  (separate by commas if more than one detector
#SIGNALTYPE  : XRF
#YP_TEMP     : 1.209
#LIVETIME    : 8.83193, 8.82021   seconds (separate by commas if more than one detector)
#REALTIME    : 10, 10.0   seconds (separate by commas if more than one detector)
#SPECTRUM    : start of spectrum data
0, 0
0, 0
0, 0
0, 0
0, 0
0, 0
0, 0
0, 0
6, 2
2, 2
2, 2
5, 10
12, 11
19, 27
42, 49
94, 130
554, 533
136, 121
34, 40
24, 21
56, 56
331, 292
108, 101
79, 86
243, 245
133, 119
57, 67
22, 29
6, 13
10, 8
26, 19
10, 13
21, 30
218, 210
345, 338
47, 50
40, 40
45, 57
11, 17
3, 11
23, 22
65, 69
28, 32
17, 12
23, 13
23, 21
13, 14
15, 11
16, 21
32, 26
31, 23
17, 14
12, 14
52, 39
54, 59
19, 25
44, 36
387, 468
1604, 1748
1084, 1053
136, 108
11, 18
17, 14
99, 100
278, 245
155, 144
33, 15
16, 10
10, 11
12, 8
7, 6
4, 5
4, 2
8, 5
10, 9
5, 6
5, 5
9, 6
7, 8
7, 12
5, 3
6, 5
2, 3
3, 7
3, 7
8, 5
3, 6
3, 4
6, 2
5, 5
3, 8
3, 3
4, 2
4, 4
4, 4
6, 5
3, 1
2, 4
0, 3
3, 4
4, 3
6, 3
3, 1
1, 2
3, 3
2, 2
2, 4
1, 2
0, 2
2, 2
1, 4
1, 1
6, 1
3, 2
2, 3
1, 1
3, 6
2, 1
2, 0
0, 1
4, 3
1, 3
2, 1
1, 1
0, 1
5, 1
3, 1
1, 0
2, 0
1, 1
0, 0
0, 1
1, 3
0, 1
0, 0
0, 3
0, 0
1, 2
0, 0
0, 2
0, 0
1, 1
0, 0
1, 1
1, 1
0, 0
1, 1
0, 1
2, 1
0, 0
0, 0
0, 1
0, 0
0, 1
0, 0
1, 1
0, 1
0, 1
0, 0
0, 0
1, 0
0, 0
0, 0
0, 0
0, 0
0, 0
1, 1
0, 0
0, 1
0, 0
1, 0
0, 0
1, 1
0, 0
0, 0
0, 0
0, 1
0, 0
1, 0
0, 1
1, 0
0, 0
0, 0
0, 0
0, 0
0, 0
0, 0
0, 0
0, 1
0, 0
0, 0
0, 0
0, 0
0, 0
0, 0
0, 0
0, 0
0, 0
0, 0
0, 0
0, 0
0, 0
0, 0
0, 0
0, 0
0, 0
0, 0
0, 0
0, 0
0, 0
0, 0
0, 0
0, 1
0, 0
0, 0
0, 0
0, 0
0, 0
0, 0
0, 0
0, 0
0, 0
0, 0
0, 0
0, 0
0, 0
0, 0
0, 0
0, 0
0, 0
0, 0
0, 0
0, 0
0, 0
0, 0
0, 0
0, 0
0, 0
0, 0
0, 0
0, 0
0, 0
0, 0
0, 0
0, 0
0, 0
0, 0
0, 0
0, 0
0, 0
0, 0
0, 0
0, 0
0, 0
0, 0
0, 0
0, 0
0, 0
0, 0
0, 0
0, 0
0, 0
0, 0
0, 0
0, 0
0, 0
0, 0
0, 0
0, 0
0, 0
0, 0
0, 0
0, 0
0, 0
0, 0
0, 0
0, 0
0, 0
0, 0
0, 0
0, 0
0, 0
0, 0
0, 0
0, 0
0, 0
0, 0
0, 0
0, 0
0, 0
0, 0
0, 0
0, 0
0, 0
#ENDOFDATA     end of spectrum data