File: host_upload/02-11-2024/rqc/uplink1/ps__0567_0717304816_000rfs_shot_122.msa
#FORMAT      : EMSA/MAS spectral data file
#VERSION     : TC202v2.0 PIXL
#TITLE       : Novarupta (sol567) subset1
#DATE        : 02-11-2024      Date in the format DD-MMM-YYYY, for example 07-JUL-2010
#TIME        :             The time of day at which the spectrum was recorded, in 24-hour format
#OWNER       : PIXL Flight Model       (PIXL will use this to indicate which instrument took the data.)
#NPOINTS     : 4096     Number of data points in the spectrum (This can be zero for configuration only files)
#NCOLUMNS    : 2     Number of data columns in the spectrum (This can be zero for configuration only files)
#XUNITS      : eV
#YUNITS      : COUNTS
#DATATYPE    : YY
#XPERCHAN    : 7.862, 7.881   eV per channel (separate by commas if more than one detector)
#OFFSET      : 18.5, -22.4         eV of first channel  (separate by commas if more than one detector
#SIGNALTYPE  : XRF
#YP_TEMP     : -0.459
#LIVETIME    : 8.84368, 8.81603   seconds (separate by commas if more than one detector)
#REALTIME    : 10, 10.0   seconds (separate by commas if more than one detector)
#SPECTRUM    : start of spectrum data
0, 0
0, 0
0, 0
0, 0
0, 0
0, 0
0, 0
1, 0
4, 4
2, 5
6, 4
11, 10
10, 13
24, 24
42, 56
105, 139
467, 512
117, 125
30, 36
15, 25
45, 55
257, 313
110, 101
66, 75
226, 229
108, 114
69, 87
31, 27
11, 5
9, 9
27, 39
15, 10
23, 28
228, 239
318, 300
42, 45
55, 50
39, 56
14, 7
10, 8
21, 16
62, 69
41, 44
23, 17
16, 21
16, 20
15, 11
6, 11
8, 14
30, 29
15, 16
11, 15
12, 18
25, 54
43, 47
21, 20
31, 42
425, 474
1508, 1877
948, 937
114, 81
16, 16
19, 30
99, 100
234, 305
136, 148
24, 19
13, 14
11, 9
9, 10
9, 3
6, 2
3, 5
3, 6
6, 8
5, 9
4, 8
9, 7
8, 11
4, 17
3, 7
17, 5
6, 3
7, 3
8, 7
4, 7
5, 7
6, 3
5, 4
2, 4
4, 4
7, 4
5, 4
6, 2
3, 4
5, 9
2, 4
5, 3
0, 8
5, 3
2, 3
1, 5
1, 3
1, 0
3, 6
3, 4
2, 2
1, 1
4, 2
1, 2
4, 4
3, 2
0, 2
2, 1
3, 5
2, 1
0, 6
3, 2
1, 0
0, 2
1, 0
5, 1
2, 2
2, 1
2, 3
1, 1
0, 1
0, 0
0, 0
1, 0
4, 2
0, 2
3, 2
0, 0
1, 0
0, 0
4, 1
1, 0
0, 0
0, 1
1, 0
0, 0
1, 0
0, 0
1, 0
1, 1
1, 0
0, 2
0, 0
1, 0
0, 0
0, 0
0, 0
0, 0
0, 0
1, 0
1, 0
0, 0
1, 0
0, 1
1, 0
0, 1
0, 0
0, 0
0, 1
0, 0
1, 1
0, 0
0, 0
0, 2
0, 0
0, 0
0, 0
0, 0
0, 0
0, 0
0, 0
0, 0
0, 0
0, 0
0, 0
0, 0
0, 0
2, 2
0, 0
0, 0
0, 0
0, 0
0, 0
0, 0
0, 0
1, 0
0, 0
1, 0
0, 0
0, 1
0, 0
0, 0
0, 0
0, 0
0, 0
0, 0
0, 0
0, 0
0, 0
0, 0
0, 0
0, 0
0, 0
0, 0
0, 0
0, 0
0, 0
0, 0
0, 0
0, 0
0, 0
0, 0
0, 0
0, 0
0, 0
0, 0
0, 0
0, 0
0, 0
0, 0
0, 0
0, 0
0, 0
0, 0
0, 0
0, 0
0, 0
0, 0
0, 0
0, 0
0, 0
0, 0
0, 0
0, 0
0, 0
0, 0
0, 0
0, 0
0, 0
0, 0
0, 0
0, 0
0, 0
0, 0
0, 0
0, 0
0, 0
0, 0
0, 0
0, 0
0, 0
0, 0
0, 0
0, 0
0, 0
0, 0
0, 0
0, 0
0, 0
0, 0
0, 0
0, 0
0, 0
0, 0
0, 0
0, 0
0, 0
0, 0
0, 0
0, 0
0, 0
0, 0
0, 0
0, 0
0, 0
0, 0
0, 0
0, 0
0, 0
0, 0
0, 0
0, 0
0, 0
0, 0
0, 0
0, 0
0, 0
0, 0
#ENDOFDATA     end of spectrum data