File: host_upload/02-11-2024/rqc/uplink1/ps__0567_0717304816_000rfs_shot_271.msa
#FORMAT      : EMSA/MAS spectral data file
#VERSION     : TC202v2.0 PIXL
#TITLE       : Novarupta (sol567) subset1
#DATE        : 02-11-2024      Date in the format DD-MMM-YYYY, for example 07-JUL-2010
#TIME        :             The time of day at which the spectrum was recorded, in 24-hour format
#OWNER       : PIXL Flight Model       (PIXL will use this to indicate which instrument took the data.)
#NPOINTS     : 4096     Number of data points in the spectrum (This can be zero for configuration only files)
#NCOLUMNS    : 2     Number of data columns in the spectrum (This can be zero for configuration only files)
#XUNITS      : eV
#YUNITS      : COUNTS
#DATATYPE    : YY
#XPERCHAN    : 7.862, 7.881   eV per channel (separate by commas if more than one detector)
#OFFSET      : 18.5, -22.4         eV of first channel  (separate by commas if more than one detector
#SIGNALTYPE  : XRF
#YP_TEMP     : 1.498
#LIVETIME    : 8.81799, 8.81152   seconds (separate by commas if more than one detector)
#REALTIME    : 10, 10.0   seconds (separate by commas if more than one detector)
#SPECTRUM    : start of spectrum data
0, 0
0, 0
0, 0
0, 0
0, 0
0, 0
0, 1
0, 1
2, 1
3, 1
1, 6
11, 11
8, 13
19, 28
46, 53
131, 131
503, 556
120, 110
28, 36
25, 14
64, 75
291, 343
135, 139
75, 88
188, 263
118, 124
66, 74
27, 33
3, 12
7, 11
30, 29
23, 23
14, 17
209, 233
301, 369
57, 66
44, 45
57, 59
12, 10
5, 14
18, 29
53, 70
40, 40
15, 18
11, 11
19, 13
15, 18
9, 19
11, 17
29, 34
21, 19
17, 14
15, 18
31, 40
46, 49
20, 31
30, 32
350, 504
1607, 1862
997, 996
108, 109
17, 22
17, 28
90, 124
240, 265
163, 174
22, 14
7, 14
12, 16
10, 5
4, 6
5, 6
5, 6
7, 11
5, 5
13, 7
6, 5
7, 7
11, 10
11, 13
3, 9
7, 6
2, 8
6, 7
5, 3
4, 6
8, 7
2, 3
3, 3
6, 3
5, 1
6, 5
8, 2
5, 3
2, 5
2, 4
3, 3
7, 5
0, 5
4, 2
2, 2
2, 3
1, 0
4, 6
5, 3
3, 5
4, 4
4, 4
7, 1
2, 3
1, 0
4, 2
0, 2
3, 0
1, 0
3, 4
3, 5
0, 1
0, 4
2, 2
0, 1
2, 1
1, 2
0, 0
0, 1
1, 4
3, 1
0, 1
1, 0
1, 3
0, 0
1, 0
2, 0
1, 1
1, 3
1, 1
1, 1
0, 2
2, 0
3, 0
2, 2
0, 2
0, 0
0, 0
0, 0
0, 0
0, 1
1, 0
0, 0
0, 0
0, 1
1, 1
0, 4
2, 0
0, 0
0, 0
0, 0
2, 0
0, 0
0, 0
1, 0
0, 0
0, 0
0, 0
2, 0
0, 1
0, 0
0, 0
0, 1
0, 1
0, 1
0, 0
2, 0
1, 0
0, 0
0, 0
0, 0
0, 0
0, 1
0, 0
0, 0
0, 1
0, 0
0, 0
0, 0
0, 0
0, 0
0, 0
0, 0
0, 0
0, 0
0, 0
0, 0
1, 0
0, 0
0, 0
0, 0
1, 0
0, 0
0, 0
0, 0
0, 0
0, 0
0, 0
0, 0
0, 0
0, 0
0, 0
0, 1
0, 0
0, 0
0, 0
0, 0
0, 0
0, 0
0, 0
0, 0
0, 0
0, 0
0, 0
0, 0
0, 0
0, 0
0, 0
0, 0
0, 0
0, 0
0, 0
0, 0
0, 0
0, 0
0, 0
0, 0
0, 0
0, 0
0, 0
0, 0
0, 0
0, 0
0, 0
0, 0
0, 0
0, 0
0, 0
0, 0
0, 0
0, 0
0, 0
0, 0
0, 0
0, 0
0, 0
0, 0
0, 0
0, 0
0, 0
0, 0
0, 0
0, 0
0, 0
0, 0
0, 0
0, 0
0, 0
0, 0
0, 0
0, 0
0, 0
0, 0
0, 0
0, 0
0, 0
0, 0
0, 0
0, 0
0, 0
0, 0
0, 0
0, 0
0, 0
0, 0
0, 0
0, 0
0, 0
0, 0
0, 0
0, 0
0, 0
0, 0
0, 0
0, 0
0, 0
0, 0
0, 0
#ENDOFDATA     end of spectrum data