File: host_upload/02-11-2024/rqc/uplink1/ps__0567_0717304816_000rfs_shot_378.msa
#FORMAT      : EMSA/MAS spectral data file
#VERSION     : TC202v2.0 PIXL
#TITLE       : Novarupta (sol567) subset1
#DATE        : 02-11-2024      Date in the format DD-MMM-YYYY, for example 07-JUL-2010
#TIME        :             The time of day at which the spectrum was recorded, in 24-hour format
#OWNER       : PIXL Flight Model       (PIXL will use this to indicate which instrument took the data.)
#NPOINTS     : 4096     Number of data points in the spectrum (This can be zero for configuration only files)
#NCOLUMNS    : 2     Number of data columns in the spectrum (This can be zero for configuration only files)
#XUNITS      : eV
#YUNITS      : COUNTS
#DATATYPE    : YY
#XPERCHAN    : 7.862, 7.881   eV per channel (separate by commas if more than one detector)
#OFFSET      : 18.5, -22.4         eV of first channel  (separate by commas if more than one detector
#SIGNALTYPE  : XRF
#YP_TEMP     : 1.658
#LIVETIME    : 8.8238, 8.79429   seconds (separate by commas if more than one detector)
#REALTIME    : 10, 10.0   seconds (separate by commas if more than one detector)
#SPECTRUM    : start of spectrum data
0, 0
0, 0
0, 0
0, 0
0, 0
0, 0
0, 0
1, 0
1, 5
2, 2
2, 2
9, 15
16, 9
22, 26
37, 52
107, 123
454, 537
112, 104
27, 33
23, 27
53, 76
285, 329
110, 119
64, 88
210, 238
116, 139
74, 93
29, 32
7, 8
7, 4
29, 28
13, 13
24, 20
174, 255
296, 377
66, 58
30, 42
48, 58
5, 14
9, 5
20, 21
66, 78
42, 42
17, 19
17, 18
20, 18
5, 20
11, 17
12, 14
26, 39
20, 29
10, 17
7, 8
25, 48
46, 59
23, 16
30, 29
352, 512
1573, 1949
1060, 1161
114, 128
14, 14
16, 19
86, 99
252, 291
173, 172
23, 15
18, 6
13, 15
11, 12
2, 9
4, 5
6, 3
7, 6
9, 6
4, 11
9, 6
7, 10
11, 12
6, 14
10, 5
5, 11
6, 5
8, 2
9, 5
6, 2
2, 8
6, 5
3, 6
2, 4
3, 6
8, 2
1, 4
0, 3
4, 4
4, 4
2, 1
2, 3
5, 1
1, 6
4, 2
5, 9
4, 2
0, 3
1, 4
3, 0
3, 4
3, 3
1, 3
3, 3
1, 4
1, 1
3, 2
2, 1
1, 2
0, 3
5, 8
0, 2
2, 1
3, 2
1, 2
1, 3
2, 0
0, 2
2, 0
2, 0
1, 0
3, 1
0, 0
0, 3
0, 2
2, 0
0, 1
1, 1
0, 1
0, 2
1, 1
2, 1
0, 1
0, 1
0, 0
1, 1
0, 0
0, 0
0, 1
1, 2
0, 0
1, 1
2, 1
0, 0
0, 0
1, 0
0, 0
0, 1
0, 0
0, 0
0, 0
0, 1
1, 0
0, 1
0, 0
0, 1
0, 0
1, 3
0, 0
0, 0
0, 0
1, 0
0, 1
0, 1
0, 0
1, 0
0, 0
0, 0
0, 0
0, 0
1, 0
0, 0
0, 0
0, 0
0, 0
0, 0
0, 0
1, 0
0, 0
0, 0
0, 0
0, 0
0, 0
0, 0
0, 0
0, 0
0, 0
0, 0
0, 0
0, 0
0, 0
0, 0
0, 0
0, 0
0, 0
0, 0
0, 0
0, 0
0, 0
0, 0
0, 0
0, 0
1, 0
0, 0
0, 0
0, 0
0, 0
0, 0
0, 0
0, 0
0, 0
0, 1
0, 0
0, 0
0, 0
0, 0
0, 0
0, 0
0, 0
0, 0
0, 0
0, 0
0, 0
0, 0
0, 0
0, 0
0, 0
0, 0
0, 0
0, 0
0, 0
0, 0
0, 0
0, 0
0, 0
0, 0
0, 0
0, 0
0, 0
0, 0
0, 0
0, 0
0, 0
0, 0
0, 0
0, 0
0, 0
0, 0
0, 0
0, 0
0, 0
0, 0
0, 0
0, 0
0, 0
0, 0
0, 0
0, 0
0, 0
0, 0
0, 0
0, 0
0, 0
0, 0
0, 0
0, 0
0, 0
0, 0
0, 0
0, 0
0, 0
0, 0
0, 0
0, 0
0, 0
0, 0
0, 0
0, 0
0, 0
0, 0
0, 0
0, 0
0, 0
0, 0
0, 0
0, 0
0, 0
0, 0
#ENDOFDATA     end of spectrum data