File: host_upload/02-11-2024/rqc/uplink1/ps__0567_0717304816_000rfs_shot_415.msa
#FORMAT      : EMSA/MAS spectral data file
#VERSION     : TC202v2.0 PIXL
#TITLE       : Novarupta (sol567) subset1
#DATE        : 02-11-2024      Date in the format DD-MMM-YYYY, for example 07-JUL-2010
#TIME        :             The time of day at which the spectrum was recorded, in 24-hour format
#OWNER       : PIXL Flight Model       (PIXL will use this to indicate which instrument took the data.)
#NPOINTS     : 4096     Number of data points in the spectrum (This can be zero for configuration only files)
#NCOLUMNS    : 2     Number of data columns in the spectrum (This can be zero for configuration only files)
#XUNITS      : eV
#YUNITS      : COUNTS
#DATATYPE    : YY
#XPERCHAN    : 7.862, 7.881   eV per channel (separate by commas if more than one detector)
#OFFSET      : 18.5, -22.4         eV of first channel  (separate by commas if more than one detector
#SIGNALTYPE  : XRF
#YP_TEMP     : 1.658
#LIVETIME    : 8.83589, 8.81602   seconds (separate by commas if more than one detector)
#REALTIME    : 10, 10.0   seconds (separate by commas if more than one detector)
#SPECTRUM    : start of spectrum data
0, 0
0, 0
0, 0
0, 0
0, 0
0, 0
0, 0
0, 0
2, 4
1, 4
2, 3
13, 11
12, 9
15, 18
51, 45
107, 134
536, 556
108, 112
32, 31
34, 22
47, 52
285, 332
122, 111
69, 85
205, 249
114, 117
58, 71
27, 29
9, 10
12, 15
33, 26
22, 20
12, 27
203, 233
322, 351
60, 51
39, 44
53, 45
8, 13
6, 12
16, 24
69, 101
35, 48
9, 15
11, 23
14, 26
12, 14
10, 5
11, 7
24, 24
16, 28
7, 13
8, 13
27, 43
51, 55
25, 15
33, 33
343, 446
1572, 1764
1023, 1000
136, 120
15, 9
20, 19
86, 90
272, 288
149, 146
18, 21
7, 12
6, 12
7, 8
8, 6
4, 3
8, 7
8, 5
4, 8
10, 11
2, 6
4, 8
8, 9
10, 11
8, 15
6, 8
8, 7
6, 5
3, 3
3, 5
5, 3
5, 1
4, 8
2, 8
2, 5
4, 5
4, 4
3, 8
3, 5
4, 5
2, 3
1, 0
2, 7
4, 5
0, 3
3, 3
2, 8
2, 5
2, 1
0, 5
1, 0
2, 1
4, 2
2, 6
0, 1
1, 1
0, 2
3, 2
4, 5
1, 0
3, 1
0, 2
0, 4
1, 4
3, 3
2, 0
1, 0
0, 1
1, 0
4, 0
1, 5
2, 3
1, 0
1, 0
1, 0
1, 0
0, 1
1, 0
2, 1
0, 1
1, 1
2, 1
1, 1
0, 0
0, 1
1, 0
1, 0
1, 0
1, 0
0, 0
1, 2
0, 0
0, 0
1, 0
2, 0
0, 0
0, 0
0, 0
0, 0
1, 0
0, 0
1, 2
0, 0
0, 0
0, 0
0, 0
0, 0
0, 1
1, 0
0, 1
0, 0
0, 1
0, 0
0, 0
0, 0
1, 3
0, 0
0, 0
0, 0
0, 0
0, 0
0, 0
0, 0
1, 0
0, 1
0, 0
0, 0
0, 0
1, 0
1, 0
0, 0
0, 0
0, 0
0, 0
0, 0
0, 0
0, 0
0, 0
0, 0
0, 0
0, 0
0, 0
0, 0
0, 0
0, 0
0, 0
0, 0
0, 0
0, 0
0, 0
0, 0
0, 0
0, 0
0, 0
0, 0
0, 0
0, 0
0, 0
0, 0
0, 0
0, 0
0, 0
0, 0
0, 0
0, 0
0, 0
0, 0
0, 0
0, 0
0, 0
0, 0
0, 0
0, 0
0, 0
0, 0
0, 0
0, 0
0, 0
0, 0
0, 0
0, 0
0, 0
0, 0
0, 0
0, 0
0, 0
0, 0
0, 0
0, 0
0, 0
0, 0
0, 0
0, 0
0, 0
0, 0
0, 0
0, 0
0, 0
0, 0
0, 0
0, 0
0, 0
0, 0
0, 0
0, 0
0, 0
0, 0
0, 0
0, 0
0, 0
0, 0
0, 0
0, 0
0, 0
0, 0
0, 0
0, 0
0, 0
0, 0
0, 0
0, 0
0, 0
0, 0
0, 0
0, 0
0, 0
0, 0
0, 0
0, 0
0, 0
0, 0
0, 0
0, 0
0, 0
0, 0
0, 0
0, 0
0, 0
#ENDOFDATA     end of spectrum data