File: host_upload/02-11-2024/rqc/uplink1/ps__0567_0717304816_000rfs_shot_137.msa
#FORMAT      : EMSA/MAS spectral data file
#VERSION     : TC202v2.0 PIXL
#TITLE       : Novarupta (sol567) subset1
#DATE        : 02-11-2024      Date in the format DD-MMM-YYYY, for example 07-JUL-2010
#TIME        :             The time of day at which the spectrum was recorded, in 24-hour format
#OWNER       : PIXL Flight Model       (PIXL will use this to indicate which instrument took the data.)
#NPOINTS     : 4096     Number of data points in the spectrum (This can be zero for configuration only files)
#NCOLUMNS    : 2     Number of data columns in the spectrum (This can be zero for configuration only files)
#XUNITS      : eV
#YUNITS      : COUNTS
#DATATYPE    : YY
#XPERCHAN    : 7.862, 7.881   eV per channel (separate by commas if more than one detector)
#OFFSET      : 18.5, -22.4         eV of first channel  (separate by commas if more than one detector
#SIGNALTYPE  : XRF
#YP_TEMP     : -0.266
#LIVETIME    : 8.83878, 8.82197   seconds (separate by commas if more than one detector)
#REALTIME    : 10, 10.0   seconds (separate by commas if more than one detector)
#SPECTRUM    : start of spectrum data
0, 0
0, 0
0, 0
0, 0
0, 0
0, 0
0, 0
2, 0
2, 2
4, 5
1, 6
12, 11
14, 16
19, 22
47, 46
95, 127
481, 534
111, 118
29, 37
20, 32
61, 55
279, 324
94, 124
78, 76
224, 234
105, 110
60, 83
32, 24
11, 10
9, 9
19, 34
14, 11
15, 31
205, 245
297, 328
53, 57
38, 44
46, 46
9, 10
12, 12
20, 32
80, 78
39, 33
18, 16
17, 18
19, 23
15, 11
16, 8
20, 16
28, 28
20, 31
12, 8
14, 16
28, 35
47, 55
22, 17
30, 40
383, 566
1612, 1856
1017, 919
105, 88
13, 14
16, 23
82, 98
249, 274
125, 145
22, 17
10, 9
9, 18
8, 8
5, 7
9, 7
4, 10
8, 10
10, 7
6, 7
7, 7
14, 6
13, 8
14, 12
8, 9
9, 2
4, 8
5, 8
6, 5
9, 5
4, 6
7, 3
8, 4
4, 3
3, 4
4, 5
3, 5
3, 4
3, 5
3, 5
4, 1
1, 5
7, 2
1, 5
2, 6
1, 1
4, 1
2, 2
1, 2
4, 2
4, 4
4, 3
2, 3
4, 4
2, 3
2, 7
5, 2
3, 5
2, 3
1, 6
2, 5
3, 2
1, 3
2, 3
1, 1
1, 2
2, 3
3, 3
1, 3
2, 0
0, 1
0, 2
2, 0
0, 1
1, 1
2, 2
1, 1
1, 1
0, 1
0, 1
1, 1
0, 1
1, 0
0, 0
0, 1
1, 2
1, 1
0, 1
0, 1
1, 1
0, 1
0, 0
0, 0
0, 3
1, 1
0, 0
0, 0
0, 0
0, 0
0, 0
0, 0
1, 1
1, 0
0, 0
0, 0
1, 1
0, 0
0, 0
0, 0
0, 0
0, 1
0, 0
0, 0
0, 0
0, 0
0, 0
0, 0
0, 0
1, 0
0, 0
0, 0
0, 0
0, 0
0, 0
0, 0
0, 0
0, 0
0, 1
0, 0
0, 0
0, 0
0, 0
0, 0
0, 0
0, 0
0, 0
1, 0
1, 0
0, 0
0, 0
0, 0
0, 0
0, 0
0, 0
0, 0
0, 0
0, 0
0, 0
0, 0
0, 0
0, 0
0, 0
1, 0
0, 0
0, 0
0, 0
0, 0
0, 0
1, 0
0, 0
0, 0
0, 0
0, 0
0, 0
0, 0
0, 0
0, 0
0, 0
0, 0
0, 0
0, 0
0, 0
0, 0
0, 0
0, 0
0, 0
0, 0
0, 0
0, 0
0, 0
0, 0
0, 0
0, 0
0, 0
0, 0
0, 0
0, 0
0, 0
0, 0
0, 0
0, 0
0, 0
0, 0
0, 0
0, 0
0, 0
0, 0
0, 0
0, 0
0, 0
0, 0
0, 0
0, 0
0, 0
0, 0
0, 0
0, 0
0, 0
0, 0
0, 0
0, 0
0, 0
0, 0
0, 0
0, 0
0, 0
0, 0
0, 0
0, 0
0, 0
0, 0
0, 0
0, 0
0, 0
0, 0
0, 0
0, 0
0, 0
0, 0
0, 0
0, 0
0, 0
0, 0
0, 0
0, 0
0, 0
0, 0
0, 0
#ENDOFDATA     end of spectrum data