File: host_upload/02-11-2024/rqc/uplink1/ps__0567_0717304816_000rfs_shot_101.msa
#FORMAT      : EMSA/MAS spectral data file
#VERSION     : TC202v2.0 PIXL
#TITLE       : Novarupta (sol567) subset1
#DATE        : 02-11-2024      Date in the format DD-MMM-YYYY, for example 07-JUL-2010
#TIME        :             The time of day at which the spectrum was recorded, in 24-hour format
#OWNER       : PIXL Flight Model       (PIXL will use this to indicate which instrument took the data.)
#NPOINTS     : 4096     Number of data points in the spectrum (This can be zero for configuration only files)
#NCOLUMNS    : 2     Number of data columns in the spectrum (This can be zero for configuration only files)
#XUNITS      : eV
#YUNITS      : COUNTS
#DATATYPE    : YY
#XPERCHAN    : 7.862, 7.881   eV per channel (separate by commas if more than one detector)
#OFFSET      : 18.5, -22.4         eV of first channel  (separate by commas if more than one detector
#SIGNALTYPE  : XRF
#YP_TEMP     : -1.1
#LIVETIME    : 8.84074, 8.81444   seconds (separate by commas if more than one detector)
#REALTIME    : 10, 10.0   seconds (separate by commas if more than one detector)
#SPECTRUM    : start of spectrum data
0, 0
0, 0
0, 0
0, 0
0, 0
0, 0
0, 0
0, 0
2, 3
2, 0
2, 2
10, 12
14, 10
22, 24
37, 33
102, 132
463, 579
117, 112
35, 31
16, 20
55, 55
272, 299
92, 118
72, 78
204, 241
106, 102
73, 69
22, 27
9, 11
9, 13
32, 36
17, 19
13, 24
197, 249
278, 319
46, 54
47, 41
41, 53
15, 6
12, 10
27, 23
57, 65
31, 43
9, 15
13, 8
20, 21
14, 15
9, 8
11, 16
26, 31
20, 20
12, 16
13, 17
35, 33
41, 41
13, 22
27, 50
377, 555
1624, 1810
923, 958
107, 90
19, 21
25, 26
73, 110
251, 258
135, 147
20, 21
4, 14
11, 10
5, 7
2, 6
10, 6
7, 6
5, 17
3, 10
9, 5
4, 7
3, 7
8, 14
9, 13
8, 6
6, 5
3, 10
2, 7
5, 5
4, 5
3, 8
6, 3
3, 12
4, 7
3, 5
4, 6
1, 5
6, 6
4, 5
2, 4
2, 5
0, 3
0, 1
2, 3
2, 6
3, 1
2, 2
1, 2
3, 2
1, 3
4, 2
2, 2
2, 0
4, 0
1, 1
0, 1
1, 2
3, 2
4, 0
2, 7
5, 3
1, 0
5, 1
2, 2
0, 2
2, 1
0, 3
2, 1
2, 0
1, 0
2, 2
0, 0
0, 5
1, 2
1, 4
0, 1
3, 2
1, 0
2, 0
2, 0
0, 2
1, 3
0, 1
3, 0
0, 1
0, 1
1, 1
1, 0
1, 0
1, 0
1, 1
2, 1
0, 0
0, 1
0, 1
0, 0
1, 0
0, 0
0, 0
0, 2
0, 1
0, 1
1, 0
0, 0
0, 0
0, 0
0, 0
0, 0
0, 0
0, 0
1, 0
0, 0
0, 1
0, 0
0, 0
0, 1
0, 0
0, 1
0, 0
0, 0
0, 0
0, 0
0, 0
0, 1
0, 0
0, 0
0, 1
1, 0
0, 0
0, 0
0, 0
0, 0
0, 0
0, 0
0, 0
1, 0
0, 0
0, 0
0, 0
0, 0
0, 0
0, 0
2, 0
0, 0
0, 0
0, 0
0, 0
0, 0
0, 0
0, 0
0, 0
0, 0
0, 0
0, 0
0, 0
0, 0
0, 0
0, 0
0, 0
0, 0
0, 0
0, 0
0, 0
0, 0
0, 0
0, 0
0, 0
0, 0
0, 0
0, 0
0, 0
0, 0
0, 0
0, 0
0, 0
0, 0
0, 0
0, 0
0, 0
0, 0
0, 0
0, 0
0, 0
0, 0
0, 0
0, 0
0, 0
0, 0
0, 0
0, 0
0, 0
0, 0
0, 0
0, 0
0, 0
0, 0
0, 0
1, 0
0, 0
0, 0
0, 0
0, 0
0, 0
0, 0
0, 0
0, 0
0, 0
0, 0
0, 0
0, 0
0, 0
0, 0
0, 0
0, 0
0, 0
0, 0
0, 0
0, 0
0, 0
0, 0
0, 0
0, 0
0, 0
0, 0
0, 0
0, 0
0, 0
0, 0
0, 0
0, 0
0, 0
0, 0
0, 0
0, 0
0, 0
0, 0
0, 0
0, 0
#ENDOFDATA     end of spectrum data