File: host_upload/02-11-2024/rqc/uplink1/ps__0567_0717304816_000rfs_shot_263.msa
#FORMAT      : EMSA/MAS spectral data file
#VERSION     : TC202v2.0 PIXL
#TITLE       : Novarupta (sol567) subset1
#DATE        : 02-11-2024      Date in the format DD-MMM-YYYY, for example 07-JUL-2010
#TIME        :             The time of day at which the spectrum was recorded, in 24-hour format
#OWNER       : PIXL Flight Model       (PIXL will use this to indicate which instrument took the data.)
#NPOINTS     : 4096     Number of data points in the spectrum (This can be zero for configuration only files)
#NCOLUMNS    : 2     Number of data columns in the spectrum (This can be zero for configuration only files)
#XUNITS      : eV
#YUNITS      : COUNTS
#DATATYPE    : YY
#XPERCHAN    : 7.862, 7.881   eV per channel (separate by commas if more than one detector)
#OFFSET      : 18.5, -22.4         eV of first channel  (separate by commas if more than one detector
#SIGNALTYPE  : XRF
#YP_TEMP     : 1.209
#LIVETIME    : 8.85198, 8.80913   seconds (separate by commas if more than one detector)
#REALTIME    : 10, 10.0   seconds (separate by commas if more than one detector)
#SPECTRUM    : start of spectrum data
0, 0
0, 0
0, 0
0, 0
0, 0
0, 0
0, 0
1, 1
1, 8
1, 4
2, 8
10, 13
11, 21
18, 23
46, 40
109, 138
480, 570
116, 111
28, 34
29, 24
47, 67
251, 322
104, 117
81, 59
205, 239
97, 109
69, 74
30, 35
9, 5
1, 7
11, 25
7, 18
20, 19
226, 255
273, 348
61, 69
39, 49
45, 53
4, 12
7, 7
27, 28
53, 70
34, 22
11, 18
9, 19
21, 20
17, 15
7, 12
13, 20
26, 29
32, 15
0, 15
13, 8
37, 33
45, 48
26, 20
30, 48
354, 492
1483, 1942
1066, 1078
114, 107
13, 16
18, 23
73, 94
255, 293
135, 164
22, 30
9, 12
19, 10
9, 11
6, 9
7, 7
5, 11
9, 4
2, 15
9, 7
5, 6
5, 4
9, 13
10, 11
7, 9
6, 5
3, 8
1, 5
11, 7
1, 5
4, 6
6, 4
3, 2
2, 10
6, 1
5, 5
4, 4
1, 2
4, 3
3, 3
7, 3
2, 3
3, 4
2, 3
3, 2
1, 5
2, 1
1, 2
5, 2
2, 4
0, 2
1, 2
2, 3
1, 4
2, 0
1, 1
2, 4
3, 3
0, 5
3, 2
7, 4
3, 5
2, 1
1, 1
3, 2
1, 2
1, 1
1, 2
0, 5
0, 1
0, 2
2, 1
0, 1
2, 1
2, 1
0, 1
1, 0
1, 3
0, 1
2, 2
0, 0
0, 0
1, 1
0, 0
0, 2
2, 0
0, 0
1, 0
2, 1
0, 1
0, 0
1, 1
0, 0
1, 1
0, 0
0, 0
0, 2
0, 0
0, 1
0, 0
0, 1
0, 0
1, 0
0, 0
0, 0
0, 0
0, 0
0, 0
0, 0
0, 1
0, 1
0, 1
0, 0
0, 0
0, 0
1, 0
0, 0
0, 1
0, 0
1, 0
0, 0
0, 0
1, 1
0, 1
0, 0
0, 0
0, 0
0, 1
0, 0
0, 0
0, 0
0, 0
0, 0
0, 0
0, 0
0, 0
1, 0
0, 0
0, 0
0, 0
0, 0
0, 0
0, 0
0, 0
1, 1
0, 0
0, 0
0, 0
0, 0
0, 0
0, 0
0, 0
0, 0
0, 0
0, 0
0, 0
0, 0
0, 1
0, 0
0, 0
0, 0
0, 0
0, 0
0, 0
0, 0
0, 0
0, 0
0, 0
0, 0
0, 0
0, 0
0, 0
0, 0
0, 0
0, 0
0, 0
0, 0
0, 0
0, 0
0, 0
0, 0
0, 0
0, 0
0, 0
0, 0
0, 0
0, 0
0, 0
0, 0
0, 0
0, 0
0, 0
0, 0
0, 0
0, 0
0, 0
0, 0
0, 0
0, 0
0, 0
0, 0
0, 0
0, 0
0, 0
0, 0
0, 0
0, 0
0, 0
0, 0
0, 0
0, 0
0, 0
0, 0
0, 0
0, 0
0, 0
0, 0
0, 0
0, 0
0, 0
0, 0
0, 0
0, 0
0, 0
0, 0
0, 0
0, 0
0, 0
0, 0
0, 0
0, 0
0, 0
0, 0
0, 0
0, 0
0, 0
0, 0
0, 0
#ENDOFDATA     end of spectrum data