File: host_upload/02-11-2024/rqc/uplink1/ps__0567_0717304816_000rfs_shot_358.msa
#FORMAT      : EMSA/MAS spectral data file
#VERSION     : TC202v2.0 PIXL
#TITLE       : Novarupta (sol567) subset1
#DATE        : 02-11-2024      Date in the format DD-MMM-YYYY, for example 07-JUL-2010
#TIME        :             The time of day at which the spectrum was recorded, in 24-hour format
#OWNER       : PIXL Flight Model       (PIXL will use this to indicate which instrument took the data.)
#NPOINTS     : 4096     Number of data points in the spectrum (This can be zero for configuration only files)
#NCOLUMNS    : 2     Number of data columns in the spectrum (This can be zero for configuration only files)
#XUNITS      : eV
#YUNITS      : COUNTS
#DATATYPE    : YY
#XPERCHAN    : 7.862, 7.881   eV per channel (separate by commas if more than one detector)
#OFFSET      : 18.5, -22.4         eV of first channel  (separate by commas if more than one detector
#SIGNALTYPE  : XRF
#YP_TEMP     : 1.626
#LIVETIME    : 8.83441, 8.81359   seconds (separate by commas if more than one detector)
#REALTIME    : 10, 10.0   seconds (separate by commas if more than one detector)
#SPECTRUM    : start of spectrum data
0, 0
0, 0
0, 0
0, 0
0, 0
0, 0
0, 0
0, 0
1, 3
2, 4
4, 4
15, 9
8, 17
26, 37
64, 51
107, 129
475, 501
113, 131
29, 41
26, 28
69, 57
294, 339
133, 128
58, 81
217, 234
104, 122
65, 67
25, 37
7, 13
10, 12
26, 33
14, 16
20, 17
190, 244
335, 357
58, 56
45, 59
39, 44
11, 13
9, 11
23, 32
57, 72
34, 35
12, 14
13, 13
21, 17
17, 15
16, 10
14, 13
31, 22
28, 22
17, 16
15, 17
27, 46
48, 44
24, 37
20, 26
342, 475
1614, 1826
1039, 1080
121, 107
13, 21
14, 18
79, 110
244, 293
188, 130
20, 26
11, 9
11, 12
10, 14
2, 5
6, 8
7, 6
5, 5
3, 9
8, 9
4, 8
15, 8
12, 13
9, 4
5, 4
3, 3
7, 6
2, 3
7, 10
5, 6
5, 5
8, 5
7, 6
7, 6
9, 3
4, 3
4, 9
4, 3
2, 4
2, 2
7, 3
5, 2
4, 3
6, 6
2, 3
5, 6
2, 3
3, 2
4, 2
2, 3
0, 2
1, 2
2, 4
2, 3
4, 5
1, 3
4, 1
1, 1
1, 7
0, 5
4, 4
2, 3
3, 4
0, 2
1, 1
0, 2
0, 1
1, 0
4, 0
2, 0
1, 3
0, 4
1, 2
2, 0
3, 1
0, 0
2, 0
1, 1
2, 2
0, 1
0, 1
0, 2
2, 1
0, 2
0, 1
0, 1
1, 1
1, 0
3, 0
1, 0
0, 2
0, 2
2, 0
2, 0
0, 0
0, 1
0, 0
0, 2
0, 1
0, 0
1, 0
0, 0
0, 0
0, 1
1, 0
0, 1
0, 0
1, 1
0, 0
0, 1
0, 0
2, 0
0, 0
0, 0
0, 0
0, 0
0, 0
1, 0
0, 0
1, 0
0, 0
1, 0
0, 1
0, 0
0, 0
0, 0
0, 0
0, 0
0, 0
0, 0
0, 0
0, 0
0, 0
0, 0
0, 0
0, 0
0, 1
0, 0
0, 0
0, 0
0, 0
0, 0
0, 0
0, 0
0, 0
0, 0
0, 0
0, 0
0, 0
0, 0
0, 1
0, 0
0, 0
0, 0
0, 0
0, 0
0, 0
0, 0
0, 0
0, 0
0, 0
0, 0
0, 0
0, 0
0, 0
0, 0
0, 0
0, 0
0, 0
0, 0
0, 0
0, 0
0, 0
0, 0
0, 0
0, 0
0, 0
0, 0
0, 0
0, 0
0, 0
0, 0
0, 0
0, 0
0, 0
0, 0
0, 0
0, 0
0, 0
1, 0
0, 0
0, 0
0, 0
0, 0
0, 0
0, 0
0, 0
0, 0
0, 0
0, 0
0, 0
0, 0
0, 0
0, 0
0, 0
0, 0
0, 0
0, 0
0, 0
0, 0
0, 0
0, 0
0, 0
0, 0
0, 0
0, 0
0, 0
0, 0
0, 0
0, 0
0, 0
0, 0
0, 0
0, 0
0, 0
0, 0
0, 0
0, 0
0, 0
0, 0
0, 0
0, 0
0, 0
0, 0
0, 0
0, 0
0, 0
0, 0
#ENDOFDATA     end of spectrum data