File: host_upload/02-11-2024/rqc/uplink1/ps__0567_0717304816_000rfs_shot_285.msa
#FORMAT      : EMSA/MAS spectral data file
#VERSION     : TC202v2.0 PIXL
#TITLE       : Novarupta (sol567) subset1
#DATE        : 02-11-2024      Date in the format DD-MMM-YYYY, for example 07-JUL-2010
#TIME        :             The time of day at which the spectrum was recorded, in 24-hour format
#OWNER       : PIXL Flight Model       (PIXL will use this to indicate which instrument took the data.)
#NPOINTS     : 4096     Number of data points in the spectrum (This can be zero for configuration only files)
#NCOLUMNS    : 2     Number of data columns in the spectrum (This can be zero for configuration only files)
#XUNITS      : eV
#YUNITS      : COUNTS
#DATATYPE    : YY
#XPERCHAN    : 7.862, 7.881   eV per channel (separate by commas if more than one detector)
#OFFSET      : 18.5, -22.4         eV of first channel  (separate by commas if more than one detector
#SIGNALTYPE  : XRF
#YP_TEMP     : 1.305
#LIVETIME    : 8.81589, 8.8084   seconds (separate by commas if more than one detector)
#REALTIME    : 10, 10.0   seconds (separate by commas if more than one detector)
#SPECTRUM    : start of spectrum data
0, 0
0, 0
0, 0
0, 0
0, 0
0, 0
0, 0
0, 2
2, 4
2, 2
3, 4
12, 5
13, 15
23, 24
44, 47
108, 128
510, 582
104, 113
34, 30
26, 37
56, 56
309, 359
107, 133
78, 95
250, 260
108, 106
80, 73
37, 24
10, 7
10, 10
26, 32
18, 22
21, 21
206, 267
371, 381
51, 57
44, 58
40, 54
11, 10
6, 12
21, 26
61, 60
39, 32
14, 16
9, 20
20, 24
12, 16
14, 13
15, 14
30, 29
31, 26
15, 16
18, 19
37, 40
44, 57
23, 17
27, 31
400, 490
1675, 1881
1084, 1045
115, 120
17, 17
20, 24
101, 90
280, 301
172, 160
33, 19
11, 16
16, 8
10, 9
8, 5
5, 6
8, 2
4, 11
8, 10
10, 14
3, 7
7, 5
4, 15
7, 12
6, 5
4, 8
5, 7
2, 5
9, 2
4, 9
9, 5
8, 3
2, 7
4, 3
8, 4
2, 4
5, 3
4, 5
3, 5
5, 3
0, 4
5, 3
2, 4
6, 2
4, 2
4, 2
2, 3
2, 2
1, 2
4, 3
1, 6
2, 3
1, 3
1, 4
4, 1
2, 0
1, 4
1, 4
3, 2
3, 5
3, 2
1, 1
1, 0
3, 1
2, 2
1, 2
1, 3
2, 1
2, 0
1, 2
1, 1
1, 3
0, 2
0, 1
2, 2
1, 2
1, 0
2, 1
1, 1
0, 2
1, 1
0, 1
0, 1
1, 0
0, 1
1, 2
0, 0
0, 0
0, 0
0, 1
1, 0
0, 0
0, 0
1, 1
0, 1
2, 1
0, 2
0, 0
0, 2
0, 1
0, 0
0, 0
0, 0
0, 0
0, 1
0, 1
0, 0
0, 0
1, 0
0, 2
0, 0
0, 0
0, 0
0, 0
1, 1
0, 0
0, 1
0, 0
0, 0
1, 0
0, 0
0, 0
0, 0
0, 0
0, 0
0, 0
0, 0
0, 1
0, 0
0, 0
0, 0
0, 0
0, 0
0, 0
0, 0
0, 0
0, 0
0, 0
0, 0
0, 0
0, 0
0, 0
0, 0
0, 0
0, 0
0, 0
0, 0
0, 0
0, 0
0, 0
0, 0
0, 1
0, 0
0, 0
0, 0
0, 0
0, 1
0, 0
0, 0
0, 0
0, 0
0, 0
0, 0
0, 0
0, 0
0, 0
0, 0
0, 0
0, 0
0, 0
0, 0
0, 0
0, 0
0, 0
0, 0
0, 0
0, 0
0, 0
0, 0
0, 0
0, 0
0, 0
0, 0
0, 0
0, 0
0, 0
0, 0
0, 0
0, 0
0, 0
0, 0
0, 0
0, 0
0, 0
0, 0
0, 0
0, 0
0, 0
0, 0
0, 0
0, 0
0, 0
0, 0
0, 0
0, 0
0, 0
0, 0
0, 0
0, 0
0, 0
0, 0
0, 0
0, 0
0, 0
0, 0
0, 0
0, 0
0, 0
0, 0
0, 0
0, 0
0, 0
0, 0
0, 0
0, 0
0, 0
0, 0
0, 0
0, 0
0, 0
0, 0
0, 0
0, 0
0, 0
0, 0
0, 0
0, 0
0, 0
#ENDOFDATA     end of spectrum data