File: host_upload/02-11-2024/rqc/uplink1/ps__0567_0717304816_000rfs_shot_288.msa
#FORMAT      : EMSA/MAS spectral data file
#VERSION     : TC202v2.0 PIXL
#TITLE       : Novarupta (sol567) subset1
#DATE        : 02-11-2024      Date in the format DD-MMM-YYYY, for example 07-JUL-2010
#TIME        :             The time of day at which the spectrum was recorded, in 24-hour format
#OWNER       : PIXL Flight Model       (PIXL will use this to indicate which instrument took the data.)
#NPOINTS     : 4096     Number of data points in the spectrum (This can be zero for configuration only files)
#NCOLUMNS    : 2     Number of data columns in the spectrum (This can be zero for configuration only files)
#XUNITS      : eV
#YUNITS      : COUNTS
#DATATYPE    : YY
#XPERCHAN    : 7.862, 7.881   eV per channel (separate by commas if more than one detector)
#OFFSET      : 18.5, -22.4         eV of first channel  (separate by commas if more than one detector
#SIGNALTYPE  : XRF
#YP_TEMP     : 1.466
#LIVETIME    : 8.8254, 8.82349   seconds (separate by commas if more than one detector)
#REALTIME    : 10, 10.0   seconds (separate by commas if more than one detector)
#SPECTRUM    : start of spectrum data
0, 0
0, 0
0, 0
0, 0
0, 0
0, 0
0, 0
1, 0
5, 5
3, 4
3, 4
9, 7
13, 9
13, 24
47, 36
115, 143
531, 515
128, 121
30, 30
24, 30
51, 52
283, 337
124, 120
84, 91
222, 229
134, 135
84, 63
32, 27
14, 12
6, 10
28, 37
12, 16
11, 18
220, 242
343, 323
62, 51
45, 47
54, 51
26, 10
8, 11
16, 16
56, 65
35, 33
12, 18
17, 18
25, 18
11, 22
7, 7
16, 20
26, 39
23, 24
10, 14
12, 12
35, 36
59, 44
18, 24
36, 33
397, 467
1740, 1792
1154, 989
158, 98
12, 20
22, 23
79, 113
276, 265
162, 143
19, 24
10, 11
15, 8
7, 7
2, 5
6, 5
8, 10
5, 5
5, 9
6, 4
8, 9
3, 9
12, 13
9, 8
6, 3
2, 9
6, 4
5, 4
3, 2
5, 7
3, 1
7, 4
6, 7
6, 6
2, 3
5, 2
4, 3
7, 3
8, 4
1, 4
6, 5
2, 3
4, 2
1, 0
4, 2
3, 4
0, 2
3, 2
0, 2
1, 2
2, 4
4, 2
3, 3
1, 3
2, 5
3, 1
1, 4
1, 0
0, 4
2, 3
0, 3
1, 6
2, 2
2, 5
0, 0
2, 2
2, 2
2, 3
0, 2
2, 2
1, 1
1, 3
2, 3
0, 0
1, 2
0, 1
1, 1
3, 3
1, 2
0, 1
1, 2
2, 0
1, 1
0, 0
0, 1
0, 1
1, 0
0, 1
0, 0
2, 1
0, 1
1, 0
1, 0
1, 1
1, 0
0, 0
1, 0
0, 1
1, 0
0, 2
1, 1
0, 0
0, 0
0, 0
0, 0
0, 0
0, 0
0, 0
1, 0
0, 0
0, 1
0, 0
0, 0
0, 0
1, 0
1, 0
0, 0
2, 0
0, 0
0, 0
0, 0
0, 0
0, 0
0, 0
0, 0
0, 0
0, 2
0, 0
0, 1
0, 0
0, 0
0, 0
0, 0
0, 0
0, 0
0, 0
0, 0
0, 0
0, 0
0, 0
0, 0
0, 0
0, 0
0, 0
0, 0
0, 0
0, 0
0, 0
0, 0
0, 0
0, 0
0, 0
0, 0
0, 0
0, 0
0, 0
0, 0
0, 0
0, 0
0, 0
0, 0
0, 0
0, 0
0, 0
0, 0
0, 0
0, 0
0, 0
0, 0
0, 0
0, 0
0, 0
0, 0
0, 0
0, 0
0, 0
0, 0
0, 0
0, 0
0, 0
0, 0
0, 0
0, 0
0, 0
0, 0
0, 0
0, 0
0, 0
0, 0
0, 0
0, 0
0, 0
0, 0
0, 0
0, 0
0, 0
0, 0
0, 0
0, 0
0, 0
0, 0
0, 0
0, 0
0, 0
0, 0
0, 0
0, 0
0, 0
0, 0
0, 0
0, 0
0, 0
0, 0
0, 0
0, 0
0, 0
0, 0
0, 0
0, 0
0, 0
0, 0
0, 0
0, 0
0, 0
0, 0
0, 0
0, 0
0, 0
0, 0
0, 0
0, 0
0, 0
0, 0
0, 0
0, 0
0, 0
0, 0
0, 0
#ENDOFDATA     end of spectrum data