File: host_upload/02-11-2024/rqc/uplink1/ps__0567_0717304816_000rfs_shot_142.msa
#FORMAT      : EMSA/MAS spectral data file
#VERSION     : TC202v2.0 PIXL
#TITLE       : Novarupta (sol567) subset1
#DATE        : 02-11-2024      Date in the format DD-MMM-YYYY, for example 07-JUL-2010
#TIME        :             The time of day at which the spectrum was recorded, in 24-hour format
#OWNER       : PIXL Flight Model       (PIXL will use this to indicate which instrument took the data.)
#NPOINTS     : 4096     Number of data points in the spectrum (This can be zero for configuration only files)
#NCOLUMNS    : 2     Number of data columns in the spectrum (This can be zero for configuration only files)
#XUNITS      : eV
#YUNITS      : COUNTS
#DATATYPE    : YY
#XPERCHAN    : 7.862, 7.881   eV per channel (separate by commas if more than one detector)
#OFFSET      : 18.5, -22.4         eV of first channel  (separate by commas if more than one detector
#SIGNALTYPE  : XRF
#YP_TEMP     : -0.202
#LIVETIME    : 8.83669, 8.81103   seconds (separate by commas if more than one detector)
#REALTIME    : 10, 10.0   seconds (separate by commas if more than one detector)
#SPECTRUM    : start of spectrum data
0, 0
0, 0
0, 0
0, 0
0, 0
0, 0
0, 0
0, 0
5, 1
3, 2
2, 4
15, 8
9, 11
26, 15
32, 52
120, 128
489, 492
118, 134
34, 37
21, 23
57, 78
292, 306
112, 103
81, 87
216, 264
118, 122
65, 77
31, 29
9, 11
9, 11
19, 32
17, 25
19, 22
207, 279
286, 328
38, 49
43, 36
51, 52
9, 8
6, 8
16, 30
50, 54
31, 31
15, 30
10, 17
17, 18
14, 17
18, 13
13, 20
30, 34
17, 15
13, 8
15, 20
32, 37
51, 50
19, 25
29, 49
392, 537
1618, 1894
1002, 1016
116, 83
18, 12
15, 25
78, 97
257, 282
155, 135
18, 21
11, 6
13, 12
1, 10
5, 5
7, 5
3, 5
5, 8
7, 9
8, 6
10, 5
7, 8
11, 10
10, 8
4, 4
2, 8
4, 9
10, 3
6, 6
9, 4
5, 7
4, 6
3, 4
4, 12
7, 3
5, 3
5, 7
5, 7
4, 2
4, 6
5, 5
2, 1
5, 3
4, 9
6, 1
5, 2
3, 4
4, 2
4, 2
2, 3
3, 2
1, 4
2, 2
4, 4
3, 1
2, 1
4, 1
4, 2
2, 1
2, 5
1, 5
2, 1
4, 1
0, 0
1, 0
4, 3
3, 3
1, 3
2, 1
1, 2
1, 3
1, 2
1, 0
0, 1
0, 1
2, 1
0, 2
1, 0
0, 1
0, 2
0, 0
0, 1
1, 3
0, 0
1, 0
2, 1
2, 0
0, 1
0, 1
0, 0
0, 0
1, 0
0, 1
0, 0
0, 0
0, 2
0, 0
1, 0
2, 1
0, 0
0, 0
0, 0
0, 0
0, 1
0, 1
0, 0
1, 0
0, 0
0, 0
0, 1
0, 0
1, 0
0, 1
0, 0
0, 0
0, 0
0, 0
0, 0
0, 0
0, 0
0, 0
0, 0
0, 0
0, 0
0, 0
0, 0
0, 1
0, 0
0, 0
0, 0
1, 0
0, 0
0, 0
0, 0
0, 0
0, 0
0, 0
0, 0
0, 0
0, 0
0, 0
0, 0
0, 0
0, 0
0, 0
0, 0
0, 0
0, 0
0, 0
0, 0
0, 0
0, 0
1, 0
0, 0
0, 0
0, 0
0, 0
0, 0
0, 0
0, 0
0, 0
0, 0
0, 0
0, 0
0, 0
0, 0
0, 0
0, 0
0, 0
0, 0
0, 0
0, 0
0, 0
0, 0
0, 0
0, 0
0, 0
0, 0
0, 0
0, 0
0, 0
0, 0
0, 0
0, 0
0, 0
0, 0
0, 0
0, 0
0, 0
0, 0
0, 0
0, 0
0, 0
0, 0
0, 0
0, 0
0, 0
0, 0
0, 0
0, 0
0, 0
0, 0
0, 0
0, 0
0, 0
0, 0
0, 0
0, 0
0, 0
0, 0
0, 0
0, 0
0, 0
0, 0
0, 0
0, 0
0, 0
0, 0
0, 0
0, 0
0, 0
0, 0
0, 0
0, 0
0, 0
0, 0
0, 0
0, 0
0, 0
0, 0
0, 0
0, 0
0, 0
0, 0
0, 0
0, 0
0, 0
0, 0
#ENDOFDATA     end of spectrum data