File: host_upload/02-11-2024/rqc/uplink1/ps__0567_0717304816_000rfs_shot_367.msa
#FORMAT      : EMSA/MAS spectral data file
#VERSION     : TC202v2.0 PIXL
#TITLE       : Novarupta (sol567) subset1
#DATE        : 02-11-2024      Date in the format DD-MMM-YYYY, for example 07-JUL-2010
#TIME        :             The time of day at which the spectrum was recorded, in 24-hour format
#OWNER       : PIXL Flight Model       (PIXL will use this to indicate which instrument took the data.)
#NPOINTS     : 4096     Number of data points in the spectrum (This can be zero for configuration only files)
#NCOLUMNS    : 2     Number of data columns in the spectrum (This can be zero for configuration only files)
#XUNITS      : eV
#YUNITS      : COUNTS
#DATATYPE    : YY
#XPERCHAN    : 7.862, 7.881   eV per channel (separate by commas if more than one detector)
#OFFSET      : 18.5, -22.4         eV of first channel  (separate by commas if more than one detector
#SIGNALTYPE  : XRF
#YP_TEMP     : 1.722
#LIVETIME    : 8.82556, 8.82158   seconds (separate by commas if more than one detector)
#REALTIME    : 10, 10.0   seconds (separate by commas if more than one detector)
#SPECTRUM    : start of spectrum data
0, 0
0, 0
0, 0
0, 0
0, 0
0, 0
0, 0
1, 1
2, 2
7, 3
2, 4
10, 10
8, 16
24, 28
40, 38
97, 124
501, 522
116, 120
24, 29
18, 28
61, 42
282, 303
123, 102
73, 82
210, 254
130, 119
91, 67
29, 18
7, 10
11, 4
30, 37
23, 17
16, 19
207, 220
313, 298
52, 45
43, 41
48, 55
12, 12
5, 8
22, 22
77, 68
35, 44
17, 16
16, 19
18, 20
9, 5
10, 12
13, 12
35, 31
28, 19
11, 17
21, 14
23, 48
44, 43
25, 27
25, 29
390, 460
1723, 1889
1112, 1012
121, 96
16, 15
18, 29
96, 112
272, 283
178, 158
22, 28
9, 11
10, 10
8, 8
5, 9
4, 5
6, 6
8, 7
4, 4
3, 9
9, 7
4, 8
9, 10
10, 10
4, 8
4, 4
6, 6
3, 3
6, 6
4, 2
6, 4
3, 1
4, 7
1, 5
4, 2
2, 3
7, 2
5, 3
6, 5
6, 4
2, 4
2, 4
1, 3
1, 2
3, 1
2, 2
1, 3
1, 3
3, 3
6, 3
1, 1
4, 0
2, 3
3, 2
3, 1
2, 2
0, 0
5, 2
2, 0
2, 4
6, 3
1, 4
3, 0
0, 2
1, 5
2, 3
0, 3
1, 2
0, 0
0, 1
0, 2
3, 2
0, 1
1, 0
2, 0
0, 0
2, 3
2, 1
0, 3
1, 1
1, 0
2, 0
0, 1
0, 0
0, 0
0, 0
0, 0
1, 0
1, 4
0, 1
2, 0
1, 1
0, 0
0, 0
2, 1
0, 0
1, 0
0, 1
1, 0
0, 0
0, 0
0, 0
0, 0
0, 1
1, 0
0, 1
0, 0
0, 0
0, 0
0, 0
0, 0
0, 0
0, 0
1, 0
0, 0
0, 2
0, 0
0, 0
0, 1
1, 1
0, 0
0, 0
0, 0
0, 0
0, 0
0, 0
0, 0
0, 0
0, 1
0, 0
0, 0
0, 0
0, 0
0, 0
0, 0
0, 0
0, 0
0, 0
0, 0
0, 0
1, 0
0, 0
0, 0
0, 0
0, 0
0, 0
0, 0
0, 0
0, 0
0, 0
0, 0
0, 0
0, 0
0, 0
0, 0
0, 0
0, 0
0, 0
0, 0
0, 0
0, 0
0, 0
0, 0
0, 0
0, 0
0, 0
0, 0
0, 0
0, 0
0, 0
0, 0
0, 0
0, 0
0, 0
0, 0
0, 0
0, 0
0, 0
0, 0
0, 0
0, 0
0, 0
0, 0
0, 0
0, 0
0, 0
0, 0
0, 0
0, 0
0, 0
0, 0
0, 0
0, 0
0, 0
0, 0
0, 0
0, 0
0, 0
0, 0
0, 0
0, 0
0, 0
0, 0
0, 0
0, 0
0, 0
0, 0
0, 0
0, 0
0, 0
0, 0
0, 0
0, 0
0, 0
0, 0
0, 0
0, 0
0, 0
0, 0
0, 0
0, 0
0, 0
0, 0
0, 0
0, 0
0, 0
0, 0
0, 0
0, 0
0, 0
0, 0
0, 0
0, 0
0, 0
0, 0
0, 0
0, 0
0, 0
#ENDOFDATA     end of spectrum data