File: host_upload/02-11-2024/rqc/uplink1/ps__0567_0717304816_000rfs_shot_486.msa
#FORMAT      : EMSA/MAS spectral data file
#VERSION     : TC202v2.0 PIXL
#TITLE       : Novarupta (sol567) subset1
#DATE        : 02-11-2024      Date in the format DD-MMM-YYYY, for example 07-JUL-2010
#TIME        :             The time of day at which the spectrum was recorded, in 24-hour format
#OWNER       : PIXL Flight Model       (PIXL will use this to indicate which instrument took the data.)
#NPOINTS     : 4096     Number of data points in the spectrum (This can be zero for configuration only files)
#NCOLUMNS    : 2     Number of data columns in the spectrum (This can be zero for configuration only files)
#XUNITS      : eV
#YUNITS      : COUNTS
#DATATYPE    : YY
#XPERCHAN    : 7.862, 7.881   eV per channel (separate by commas if more than one detector)
#OFFSET      : 18.5, -22.4         eV of first channel  (separate by commas if more than one detector
#SIGNALTYPE  : XRF
#YP_TEMP     : 1.786
#LIVETIME    : 8.82652, 8.80953   seconds (separate by commas if more than one detector)
#REALTIME    : 10, 10.0   seconds (separate by commas if more than one detector)
#SPECTRUM    : start of spectrum data
0, 0
0, 0
0, 0
0, 0
0, 0
0, 0
0, 0
0, 1
2, 5
0, 5
4, 5
13, 14
10, 17
24, 22
36, 46
89, 125
478, 503
115, 139
30, 36
26, 35
60, 71
280, 353
113, 128
64, 98
199, 249
107, 119
62, 68
26, 30
7, 7
12, 9
23, 27
8, 13
10, 29
203, 272
310, 403
56, 66
32, 57
44, 64
10, 10
8, 10
20, 35
70, 77
36, 34
11, 13
15, 10
19, 23
12, 17
11, 6
10, 10
32, 31
20, 34
16, 16
11, 15
24, 30
38, 52
19, 16
22, 50
321, 480
1535, 1878
1049, 1049
103, 105
14, 18
14, 32
62, 113
248, 303
159, 163
20, 13
8, 15
10, 7
6, 11
5, 6
2, 4
4, 13
8, 9
14, 10
9, 12
0, 14
9, 8
5, 11
7, 12
11, 5
8, 9
10, 7
6, 8
2, 8
2, 9
3, 4
4, 7
5, 1
6, 4
1, 7
6, 6
5, 4
5, 8
4, 3
7, 7
4, 3
4, 2
7, 2
2, 2
2, 5
6, 2
5, 4
2, 4
0, 1
1, 3
3, 2
3, 5
4, 3
1, 0
3, 2
1, 0
1, 1
1, 3
2, 2
4, 2
2, 3
1, 2
1, 3
3, 6
1, 3
1, 4
1, 1
0, 3
1, 2
0, 1
0, 1
0, 1
1, 0
1, 3
3, 3
1, 1
1, 2
1, 0
0, 1
3, 0
0, 3
1, 0
0, 0
1, 0
0, 0
0, 0
0, 0
0, 2
0, 1
0, 0
2, 0
0, 0
1, 0
0, 1
1, 1
0, 0
0, 0
0, 0
0, 1
0, 0
1, 1
0, 0
1, 0
0, 0
0, 0
1, 0
0, 0
0, 0
1, 0
0, 0
0, 0
0, 0
0, 0
0, 0
0, 1
0, 0
0, 0
0, 0
0, 0
0, 1
0, 0
0, 1
0, 0
0, 0
0, 0
1, 0
1, 0
0, 0
0, 0
0, 0
0, 0
0, 0
1, 0
0, 0
0, 1
0, 1
0, 0
0, 0
0, 0
0, 0
0, 0
0, 0
0, 0
0, 0
0, 0
0, 0
0, 0
0, 0
0, 0
0, 0
0, 0
0, 0
0, 0
0, 0
0, 0
0, 0
0, 0
0, 0
0, 0
0, 0
0, 0
1, 0
0, 0
0, 0
0, 0
0, 0
0, 0
0, 0
0, 0
0, 0
0, 0
0, 0
0, 0
0, 0
0, 0
0, 0
0, 0
0, 0
0, 0
0, 0
0, 0
0, 0
0, 0
0, 0
0, 0
0, 0
0, 0
0, 0
0, 0
0, 0
0, 0
0, 0
0, 0
0, 0
0, 0
0, 0
0, 0
0, 0
0, 0
0, 0
0, 0
0, 0
0, 0
0, 0
0, 0
0, 0
0, 0
0, 0
0, 0
0, 0
0, 0
0, 0
0, 0
0, 0
0, 0
0, 0
0, 0
0, 0
0, 0
0, 0
0, 0
0, 0
0, 0
0, 0
0, 0
0, 0
0, 0
0, 0
0, 0
0, 0
0, 0
0, 0
0, 0
0, 0
0, 0
0, 0
0, 0
0, 0
#ENDOFDATA     end of spectrum data