File: host_upload/02-11-2024/rqc/uplink1/ps__0567_0717304816_000rfs_shot_162.msa
#FORMAT      : EMSA/MAS spectral data file
#VERSION     : TC202v2.0 PIXL
#TITLE       : Novarupta (sol567) subset1
#DATE        : 02-11-2024      Date in the format DD-MMM-YYYY, for example 07-JUL-2010
#TIME        :             The time of day at which the spectrum was recorded, in 24-hour format
#OWNER       : PIXL Flight Model       (PIXL will use this to indicate which instrument took the data.)
#NPOINTS     : 4096     Number of data points in the spectrum (This can be zero for configuration only files)
#NCOLUMNS    : 2     Number of data columns in the spectrum (This can be zero for configuration only files)
#XUNITS      : eV
#YUNITS      : COUNTS
#DATATYPE    : YY
#XPERCHAN    : 7.862, 7.881   eV per channel (separate by commas if more than one detector)
#OFFSET      : 18.5, -22.4         eV of first channel  (separate by commas if more than one detector
#SIGNALTYPE  : XRF
#YP_TEMP     : 0.087
#LIVETIME    : 8.83303, 8.82278   seconds (separate by commas if more than one detector)
#REALTIME    : 10, 10.0   seconds (separate by commas if more than one detector)
#SPECTRUM    : start of spectrum data
0, 0
0, 0
0, 0
0, 0
0, 0
0, 0
0, 0
0, 0
2, 5
4, 2
3, 6
8, 14
17, 15
26, 33
43, 37
127, 139
479, 518
119, 107
31, 45
20, 21
56, 56
321, 316
130, 102
87, 74
237, 235
134, 119
69, 65
33, 25
7, 12
12, 17
20, 27
19, 23
27, 20
218, 239
341, 292
47, 46
41, 58
45, 57
13, 15
7, 8
25, 19
67, 83
36, 34
8, 16
13, 13
17, 29
13, 12
10, 8
17, 21
28, 31
24, 12
7, 11
14, 9
40, 40
53, 41
25, 22
35, 42
415, 455
1684, 1713
1131, 980
103, 102
15, 19
25, 19
105, 101
270, 290
151, 123
18, 20
9, 9
13, 18
6, 7
7, 9
9, 11
10, 7
5, 7
11, 6
7, 10
5, 7
3, 7
8, 11
13, 15
2, 2
6, 6
5, 3
5, 11
9, 11
7, 3
10, 4
6, 7
2, 7
5, 4
4, 4
3, 3
4, 7
5, 2
4, 8
1, 1
5, 3
5, 1
2, 4
1, 5
2, 2
6, 2
2, 3
0, 6
2, 2
2, 1
4, 2
3, 2
3, 1
3, 1
3, 2
2, 0
1, 1
3, 0
2, 4
4, 1
1, 3
2, 2
4, 2
2, 3
2, 0
1, 0
2, 2
3, 3
1, 0
4, 0
1, 0
0, 2
2, 2
1, 1
2, 0
1, 2
2, 1
1, 0
2, 0
0, 0
0, 0
1, 2
1, 2
0, 1
0, 0
1, 0
0, 2
0, 0
0, 0
3, 1
0, 0
2, 1
1, 1
1, 0
0, 0
0, 1
0, 1
0, 0
0, 0
0, 0
1, 0
1, 0
0, 1
0, 1
0, 0
1, 1
0, 0
1, 0
0, 0
0, 0
0, 1
0, 0
0, 1
0, 0
0, 1
0, 0
1, 0
0, 1
0, 0
0, 0
0, 0
0, 0
1, 0
0, 0
0, 1
0, 0
0, 0
0, 0
0, 0
0, 0
0, 0
0, 0
0, 0
0, 1
0, 0
0, 0
1, 0
0, 0
0, 0
0, 0
0, 0
0, 0
0, 0
0, 0
0, 0
0, 0
0, 0
0, 1
0, 0
0, 0
0, 0
0, 0
0, 0
0, 0
0, 0
0, 0
0, 0
0, 0
0, 0
0, 1
0, 0
0, 0
0, 0
0, 0
0, 0
0, 0
0, 0
0, 0
0, 0
0, 0
0, 0
0, 0
0, 0
0, 0
0, 0
0, 0
0, 0
0, 0
0, 0
0, 0
0, 0
0, 0
0, 0
0, 0
0, 0
0, 0
0, 0
0, 0
0, 0
0, 0
0, 0
0, 0
0, 0
0, 0
0, 0
0, 0
0, 0
0, 0
0, 0
0, 0
0, 0
0, 0
0, 0
0, 0
0, 0
0, 0
0, 0
0, 0
0, 0
0, 0
0, 0
0, 0
0, 0
0, 0
0, 0
0, 0
0, 0
0, 0
0, 0
0, 0
0, 0
0, 0
0, 0
0, 0
0, 0
0, 0
0, 0
0, 0
0, 0
0, 0
0, 0
0, 0
0, 0
0, 0
0, 0
0, 0
0, 0
0, 0
#ENDOFDATA     end of spectrum data