File: host_upload/02-11-2024/rqc/uplink1/ps__0567_0717304816_000rfs_shot_149.msa
#FORMAT      : EMSA/MAS spectral data file
#VERSION     : TC202v2.0 PIXL
#TITLE       : Novarupta (sol567) subset1
#DATE        : 02-11-2024      Date in the format DD-MMM-YYYY, for example 07-JUL-2010
#TIME        :             The time of day at which the spectrum was recorded, in 24-hour format
#OWNER       : PIXL Flight Model       (PIXL will use this to indicate which instrument took the data.)
#NPOINTS     : 4096     Number of data points in the spectrum (This can be zero for configuration only files)
#NCOLUMNS    : 2     Number of data columns in the spectrum (This can be zero for configuration only files)
#XUNITS      : eV
#YUNITS      : COUNTS
#DATATYPE    : YY
#XPERCHAN    : 7.862, 7.881   eV per channel (separate by commas if more than one detector)
#OFFSET      : 18.5, -22.4         eV of first channel  (separate by commas if more than one detector
#SIGNALTYPE  : XRF
#YP_TEMP     : 0.022
#LIVETIME    : 8.83809, 8.80545   seconds (separate by commas if more than one detector)
#REALTIME    : 10, 10.0   seconds (separate by commas if more than one detector)
#SPECTRUM    : start of spectrum data
0, 0
0, 0
0, 0
0, 0
0, 0
0, 0
0, 0
1, 1
2, 6
3, 5
0, 7
6, 10
16, 18
19, 22
51, 50
95, 124
429, 573
95, 144
25, 46
19, 36
45, 77
293, 371
138, 113
72, 89
209, 279
118, 112
67, 86
31, 27
6, 9
6, 9
29, 35
16, 22
16, 22
200, 291
300, 384
54, 56
51, 46
39, 49
13, 16
7, 7
12, 31
67, 87
34, 43
10, 22
11, 19
11, 25
6, 8
7, 14
18, 15
31, 31
21, 19
12, 13
14, 10
33, 49
52, 42
20, 23
35, 51
389, 569
1459, 1988
930, 1055
99, 101
11, 17
14, 30
69, 110
234, 291
150, 143
17, 21
13, 7
11, 13
9, 5
4, 9
4, 4
4, 8
2, 5
6, 4
5, 4
6, 6
6, 13
9, 14
7, 12
4, 10
3, 7
6, 6
4, 11
5, 4
6, 3
2, 5
3, 6
5, 9
3, 8
3, 5
3, 3
6, 1
7, 5
7, 7
6, 2
1, 1
3, 2
4, 5
5, 1
4, 5
1, 2
5, 3
4, 4
3, 2
0, 0
1, 1
1, 4
4, 2
3, 3
4, 3
0, 1
1, 3
4, 1
0, 2
1, 2
1, 7
2, 9
4, 4
2, 3
2, 2
1, 2
2, 3
2, 3
1, 1
3, 2
1, 0
3, 0
1, 0
3, 3
0, 1
2, 0
0, 0
0, 0
0, 1
0, 0
2, 1
3, 1
0, 1
0, 0
1, 2
0, 1
0, 0
0, 0
1, 0
1, 0
1, 0
0, 1
0, 0
0, 1
0, 0
0, 1
0, 0
0, 0
0, 1
1, 0
0, 1
2, 1
0, 0
0, 0
0, 0
1, 0
0, 0
1, 0
0, 0
0, 0
0, 1
0, 0
0, 0
0, 0
0, 1
0, 0
0, 1
0, 1
1, 0
0, 0
0, 0
1, 0
0, 0
0, 0
0, 0
0, 0
0, 0
0, 0
0, 0
0, 0
0, 1
0, 0
1, 0
0, 0
0, 1
0, 1
0, 0
0, 0
0, 0
0, 0
0, 0
0, 0
0, 0
0, 0
0, 0
0, 0
0, 0
0, 0
0, 0
0, 0
0, 0
0, 0
0, 0
0, 0
0, 0
0, 0
0, 0
0, 0
0, 0
0, 0
0, 0
0, 0
0, 0
0, 0
0, 0
0, 0
0, 0
0, 0
0, 0
0, 0
0, 0
0, 0
0, 0
0, 0
0, 0
0, 0
0, 0
0, 0
0, 0
0, 0
0, 0
0, 0
0, 0
0, 0
0, 0
0, 0
0, 0
0, 0
0, 0
0, 0
0, 0
0, 0
0, 0
0, 0
0, 0
0, 0
0, 0
0, 0
0, 0
0, 0
0, 0
0, 0
0, 0
0, 0
0, 0
0, 0
0, 0
0, 0
0, 0
0, 0
0, 0
0, 0
0, 0
0, 0
0, 0
0, 0
0, 0
0, 0
0, 0
0, 0
0, 0
0, 0
0, 0
0, 0
0, 0
0, 0
0, 0
0, 0
0, 0
0, 0
0, 0
0, 0
0, 0
0, 0
0, 0
0, 0
0, 0
0, 0
#ENDOFDATA     end of spectrum data