File: host_upload/02-11-2024/rqc/uplink1/ps__0567_0717304816_000rfs_shot_297.msa
#FORMAT      : EMSA/MAS spectral data file
#VERSION     : TC202v2.0 PIXL
#TITLE       : Novarupta (sol567) subset1
#DATE        : 02-11-2024      Date in the format DD-MMM-YYYY, for example 07-JUL-2010
#TIME        :             The time of day at which the spectrum was recorded, in 24-hour format
#OWNER       : PIXL Flight Model       (PIXL will use this to indicate which instrument took the data.)
#NPOINTS     : 4096     Number of data points in the spectrum (This can be zero for configuration only files)
#NCOLUMNS    : 2     Number of data columns in the spectrum (This can be zero for configuration only files)
#XUNITS      : eV
#YUNITS      : COUNTS
#DATATYPE    : YY
#XPERCHAN    : 7.862, 7.881   eV per channel (separate by commas if more than one detector)
#OFFSET      : 18.5, -22.4         eV of first channel  (separate by commas if more than one detector
#SIGNALTYPE  : XRF
#YP_TEMP     : 1.081
#LIVETIME    : 8.84425, 8.81852   seconds (separate by commas if more than one detector)
#REALTIME    : 10, 10.0   seconds (separate by commas if more than one detector)
#SPECTRUM    : start of spectrum data
0, 0
0, 0
0, 0
0, 0
0, 0
0, 0
0, 0
1, 0
1, 5
4, 3
3, 6
13, 15
6, 21
14, 31
53, 42
123, 146
484, 523
111, 138
27, 33
14, 27
49, 83
321, 341
113, 136
60, 84
213, 212
115, 111
65, 72
29, 29
9, 10
0, 10
23, 37
23, 21
17, 19
218, 249
356, 364
55, 51
33, 59
45, 65
10, 9
14, 8
19, 22
60, 69
28, 34
18, 14
22, 13
22, 25
13, 17
11, 14
16, 14
34, 40
28, 25
11, 18
14, 14
42, 40
65, 55
23, 22
23, 45
355, 516
1616, 1852
1008, 1055
118, 104
16, 15
21, 23
90, 105
240, 272
154, 148
24, 18
4, 10
19, 14
8, 6
4, 8
5, 7
5, 5
9, 6
8, 9
7, 7
3, 8
4, 9
10, 14
8, 9
5, 10
3, 7
4, 5
6, 7
4, 8
6, 9
5, 3
4, 10
8, 6
5, 2
5, 5
3, 5
7, 6
4, 3
6, 5
2, 4
3, 3
3, 4
5, 4
4, 4
4, 1
3, 4
0, 4
4, 3
2, 1
4, 2
2, 1
3, 3
2, 5
3, 2
1, 3
2, 2
3, 4
1, 2
2, 3
2, 5
3, 1
5, 2
4, 3
3, 1
0, 1
1, 1
0, 1
2, 3
3, 1
2, 2
0, 4
0, 0
0, 2
1, 1
1, 1
2, 2
0, 1
0, 1
0, 2
0, 0
1, 1
0, 0
1, 0
1, 1
1, 0
1, 1
0, 0
0, 0
1, 1
0, 0
0, 1
0, 0
0, 0
0, 0
0, 1
0, 1
0, 0
1, 0
0, 0
0, 0
0, 0
1, 0
0, 0
2, 0
0, 0
0, 0
0, 0
0, 0
0, 0
0, 0
0, 1
0, 0
0, 1
0, 0
0, 0
0, 1
1, 0
0, 0
0, 0
0, 0
0, 0
0, 1
0, 0
0, 0
0, 0
0, 0
0, 1
1, 0
0, 0
0, 0
0, 0
0, 0
0, 0
0, 0
0, 0
1, 0
1, 0
0, 0
0, 0
0, 0
0, 0
0, 0
0, 0
0, 0
0, 0
0, 0
0, 0
1, 0
0, 0
0, 0
0, 0
0, 0
0, 0
0, 0
0, 0
0, 0
0, 0
0, 0
0, 0
0, 0
0, 0
0, 0
0, 0
0, 0
0, 0
0, 0
0, 0
0, 0
0, 0
0, 1
0, 0
0, 0
0, 0
0, 0
0, 0
0, 0
0, 0
0, 0
0, 0
0, 0
0, 0
0, 0
0, 0
0, 0
0, 0
0, 0
0, 0
0, 0
0, 0
0, 0
0, 0
0, 0
0, 0
0, 0
0, 0
0, 0
0, 0
0, 0
0, 0
0, 0
0, 0
0, 0
0, 0
0, 0
0, 0
0, 0
0, 0
0, 0
0, 0
0, 0
0, 0
0, 0
0, 0
0, 0
0, 0
0, 0
0, 0
0, 0
0, 0
0, 0
0, 0
0, 0
0, 0
0, 0
0, 0
0, 0
0, 0
0, 0
0, 0
0, 0
0, 0
0, 0
0, 0
0, 0
0, 0
0, 0
0, 0
0, 0
#ENDOFDATA     end of spectrum data