File: host_upload/02-11-2024/rqc/uplink1/ps__0567_0717304816_000rfs_shot_437.msa
#FORMAT      : EMSA/MAS spectral data file
#VERSION     : TC202v2.0 PIXL
#TITLE       : Novarupta (sol567) subset1
#DATE        : 02-11-2024      Date in the format DD-MMM-YYYY, for example 07-JUL-2010
#TIME        :             The time of day at which the spectrum was recorded, in 24-hour format
#OWNER       : PIXL Flight Model       (PIXL will use this to indicate which instrument took the data.)
#NPOINTS     : 4096     Number of data points in the spectrum (This can be zero for configuration only files)
#NCOLUMNS    : 2     Number of data columns in the spectrum (This can be zero for configuration only files)
#XUNITS      : eV
#YUNITS      : COUNTS
#DATATYPE    : YY
#XPERCHAN    : 7.862, 7.881   eV per channel (separate by commas if more than one detector)
#OFFSET      : 18.5, -22.4         eV of first channel  (separate by commas if more than one detector
#SIGNALTYPE  : XRF
#YP_TEMP     : 1.69
#LIVETIME    : 8.83499, 8.82197   seconds (separate by commas if more than one detector)
#REALTIME    : 10, 10.0   seconds (separate by commas if more than one detector)
#SPECTRUM    : start of spectrum data
0, 0
0, 0
0, 0
0, 0
0, 0
0, 0
0, 0
0, 0
3, 3
3, 2
3, 2
11, 7
29, 6
23, 27
47, 40
103, 115
460, 489
135, 121
26, 32
35, 19
59, 59
318, 356
132, 125
70, 82
172, 231
114, 129
79, 63
27, 29
14, 8
7, 5
36, 26
14, 9
14, 18
200, 190
301, 313
36, 44
38, 46
51, 41
16, 16
13, 7
19, 29
64, 53
37, 31
18, 14
14, 23
19, 15
16, 16
7, 15
12, 14
25, 20
22, 27
15, 10
9, 15
33, 39
50, 46
15, 16
22, 31
378, 401
1672, 1752
1039, 997
128, 106
8, 16
23, 26
62, 101
267, 267
177, 164
23, 23
13, 10
10, 16
13, 12
8, 6
3, 3
5, 7
8, 6
3, 5
10, 3
1, 7
9, 9
10, 8
11, 13
3, 9
10, 6
5, 5
7, 6
5, 9
4, 4
6, 7
10, 4
4, 5
3, 4
6, 5
8, 9
0, 2
5, 2
4, 5
4, 5
2, 6
4, 4
5, 2
1, 1
1, 2
6, 5
4, 5
3, 1
1, 1
0, 2
3, 2
0, 4
4, 2
0, 1
3, 1
3, 2
3, 1
2, 2
0, 0
3, 3
4, 5
1, 3
1, 1
3, 3
1, 2
2, 0
4, 0
4, 3
1, 1
2, 3
3, 2
2, 3
1, 1
1, 0
0, 1
1, 0
1, 1
0, 0
1, 0
1, 0
0, 2
1, 1
2, 1
1, 0
0, 0
1, 0
0, 1
0, 3
1, 0
1, 1
1, 0
1, 0
1, 1
0, 0
1, 0
0, 0
0, 0
1, 1
0, 0
0, 0
0, 1
0, 1
0, 0
0, 0
0, 0
1, 0
1, 1
1, 1
0, 0
0, 0
0, 0
0, 0
0, 0
1, 0
3, 1
0, 1
1, 0
0, 0
0, 0
0, 0
0, 0
0, 0
1, 0
1, 0
0, 0
1, 1
0, 0
1, 2
0, 0
0, 0
0, 0
0, 0
0, 0
0, 0
0, 0
0, 0
0, 0
0, 0
0, 0
0, 0
0, 0
0, 0
0, 0
0, 0
0, 0
0, 0
0, 0
0, 0
0, 0
0, 0
0, 0
0, 0
0, 0
0, 0
0, 0
0, 0
0, 0
1, 0
0, 0
0, 0
0, 0
0, 0
0, 0
0, 0
0, 0
0, 0
0, 0
0, 0
0, 0
0, 0
0, 0
0, 0
0, 0
0, 0
0, 0
0, 0
0, 0
0, 0
0, 0
0, 0
0, 0
0, 0
0, 0
0, 0
0, 0
0, 0
0, 0
0, 0
0, 0
0, 0
0, 0
0, 0
0, 0
0, 0
0, 0
0, 0
0, 0
0, 0
0, 0
0, 0
0, 0
0, 0
0, 0
0, 0
0, 0
0, 0
0, 0
0, 0
0, 0
0, 0
0, 0
0, 0
0, 0
0, 0
0, 0
0, 0
0, 0
0, 0
0, 0
0, 0
0, 0
0, 0
0, 0
0, 0
0, 0
0, 0
0, 0
0, 0
0, 0
0, 0
0, 0
0, 0
0, 0
0, 0
0, 0
0, 0
0, 0
0, 0
#ENDOFDATA     end of spectrum data