File: host_upload/02-11-2024/rqc/uplink1/ps__0567_0717304816_000rfs_shot_78.msa
#FORMAT      : EMSA/MAS spectral data file
#VERSION     : TC202v2.0 PIXL
#TITLE       : Novarupta (sol567) subset1
#DATE        : 02-11-2024      Date in the format DD-MMM-YYYY, for example 07-JUL-2010
#TIME        :             The time of day at which the spectrum was recorded, in 24-hour format
#OWNER       : PIXL Flight Model       (PIXL will use this to indicate which instrument took the data.)
#NPOINTS     : 4096     Number of data points in the spectrum (This can be zero for configuration only files)
#NCOLUMNS    : 2     Number of data columns in the spectrum (This can be zero for configuration only files)
#XUNITS      : eV
#YUNITS      : COUNTS
#DATATYPE    : YY
#XPERCHAN    : 7.862, 7.881   eV per channel (separate by commas if more than one detector)
#OFFSET      : 18.5, -22.4         eV of first channel  (separate by commas if more than one detector
#SIGNALTYPE  : XRF
#YP_TEMP     : -1.645
#LIVETIME    : 8.8599, 8.81891   seconds (separate by commas if more than one detector)
#REALTIME    : 10, 10.0   seconds (separate by commas if more than one detector)
#SPECTRUM    : start of spectrum data
0, 0
0, 0
0, 0
0, 0
0, 0
0, 0
0, 0
0, 0
3, 5
1, 0
2, 4
10, 4
13, 13
23, 21
30, 38
118, 149
402, 530
112, 116
27, 32
33, 20
48, 87
286, 352
117, 134
66, 104
198, 265
99, 96
69, 73
25, 32
14, 6
12, 8
25, 32
20, 11
12, 34
171, 268
283, 362
44, 51
37, 48
39, 47
10, 12
5, 10
18, 29
49, 60
39, 28
12, 15
8, 19
15, 29
5, 10
17, 12
9, 14
28, 47
19, 33
8, 10
14, 16
42, 41
40, 44
17, 20
31, 47
409, 625
1475, 1791
878, 876
76, 93
16, 14
19, 22
117, 122
246, 293
115, 140
16, 20
9, 8
15, 16
7, 12
4, 10
5, 7
7, 5
5, 7
7, 8
7, 9
2, 3
6, 6
11, 11
4, 6
10, 2
2, 4
7, 2
4, 3
5, 4
8, 5
4, 6
2, 7
1, 8
2, 2
4, 2
7, 5
5, 2
1, 2
2, 5
1, 5
4, 6
2, 4
2, 3
4, 3
3, 3
2, 7
1, 6
1, 3
0, 8
1, 5
1, 4
4, 2
1, 2
2, 3
5, 3
0, 3
1, 4
2, 2
1, 5
2, 5
2, 2
2, 2
0, 3
0, 1
1, 2
0, 2
0, 1
1, 2
1, 2
0, 4
1, 5
2, 0
1, 1
1, 1
0, 0
1, 1
1, 0
1, 1
0, 2
1, 0
1, 1
1, 0
0, 2
0, 0
1, 1
1, 0
0, 2
0, 1
0, 2
2, 0
0, 1
1, 0
0, 0
0, 0
3, 0
0, 0
1, 0
1, 1
0, 0
1, 0
1, 0
0, 0
0, 0
0, 0
0, 0
0, 0
0, 0
0, 0
0, 0
0, 1
0, 0
1, 0
0, 0
0, 0
1, 1
0, 0
0, 0
0, 0
0, 0
0, 0
0, 0
0, 0
0, 0
0, 2
0, 0
0, 2
0, 0
2, 0
1, 0
0, 0
1, 0
0, 0
0, 0
0, 0
0, 0
1, 0
0, 0
0, 0
0, 0
0, 0
0, 0
0, 0
0, 0
0, 0
0, 0
0, 0
0, 0
0, 0
0, 0
0, 0
0, 0
0, 0
0, 0
0, 0
0, 0
0, 0
0, 0
0, 0
0, 0
0, 0
0, 0
0, 0
0, 0
0, 0
0, 0
0, 0
0, 0
0, 0
0, 0
0, 0
0, 0
0, 0
0, 0
0, 0
0, 0
0, 0
0, 0
0, 0
0, 0
0, 0
0, 0
0, 0
0, 0
0, 0
0, 0
0, 0
0, 0
0, 0
0, 0
0, 0
0, 0
0, 0
0, 0
0, 0
0, 0
0, 0
0, 0
0, 0
0, 0
0, 0
0, 0
0, 0
0, 0
0, 0
0, 0
0, 0
0, 0
0, 0
0, 0
0, 0
0, 0
0, 0
0, 0
0, 0
0, 0
0, 0
0, 0
0, 0
0, 0
0, 0
0, 0
0, 0
0, 0
0, 0
0, 0
0, 0
0, 0
0, 0
0, 0
0, 0
0, 0
0, 0
0, 0
0, 0
0, 0
0, 0
0, 0
0, 0
#ENDOFDATA     end of spectrum data