File: host_upload/02-11-2024/rqc/uplink1/ps__0567_0717304816_000rfs_shot_445.msa
#FORMAT      : EMSA/MAS spectral data file
#VERSION     : TC202v2.0 PIXL
#TITLE       : Novarupta (sol567) subset1
#DATE        : 02-11-2024      Date in the format DD-MMM-YYYY, for example 07-JUL-2010
#TIME        :             The time of day at which the spectrum was recorded, in 24-hour format
#OWNER       : PIXL Flight Model       (PIXL will use this to indicate which instrument took the data.)
#NPOINTS     : 4096     Number of data points in the spectrum (This can be zero for configuration only files)
#NCOLUMNS    : 2     Number of data columns in the spectrum (This can be zero for configuration only files)
#XUNITS      : eV
#YUNITS      : COUNTS
#DATATYPE    : YY
#XPERCHAN    : 7.862, 7.881   eV per channel (separate by commas if more than one detector)
#OFFSET      : 18.5, -22.4         eV of first channel  (separate by commas if more than one detector
#SIGNALTYPE  : XRF
#YP_TEMP     : 1.69
#LIVETIME    : 8.83848, 8.81256   seconds (separate by commas if more than one detector)
#REALTIME    : 10, 10.0   seconds (separate by commas if more than one detector)
#SPECTRUM    : start of spectrum data
0, 0
0, 0
0, 0
0, 0
0, 0
0, 0
0, 0
0, 1
2, 3
6, 5
4, 2
13, 10
20, 13
23, 28
47, 50
94, 104
471, 499
125, 126
24, 32
22, 34
43, 69
317, 339
107, 128
73, 58
212, 215
92, 110
62, 70
25, 23
19, 16
10, 10
18, 26
23, 17
11, 21
179, 230
328, 355
37, 51
42, 33
53, 49
12, 11
9, 8
19, 23
57, 62
35, 27
18, 13
14, 21
13, 19
11, 13
18, 15
13, 12
28, 43
33, 26
13, 11
16, 19
40, 37
44, 45
17, 25
18, 31
327, 450
1548, 1819
1081, 1109
123, 104
15, 22
18, 21
80, 94
260, 268
159, 145
22, 23
10, 10
14, 9
3, 6
5, 4
6, 1
2, 8
6, 9
9, 6
6, 3
5, 6
3, 6
12, 13
10, 15
10, 8
3, 5
9, 11
7, 8
8, 7
5, 3
10, 5
2, 5
4, 7
4, 7
1, 5
2, 0
3, 7
3, 5
2, 6
1, 1
2, 4
5, 2
1, 6
1, 3
2, 1
1, 6
5, 1
3, 5
1, 1
2, 3
2, 1
3, 1
1, 2
3, 4
2, 3
0, 1
1, 2
0, 4
3, 3
5, 2
1, 0
3, 4
3, 0
0, 1
1, 1
3, 2
1, 2
1, 2
2, 1
6, 0
1, 2
0, 1
0, 1
3, 0
0, 2
0, 1
1, 1
1, 1
0, 0
0, 0
0, 0
0, 3
1, 1
1, 0
2, 0
2, 0
1, 0
0, 1
1, 0
2, 0
0, 2
1, 0
1, 0
1, 0
0, 0
0, 1
0, 0
1, 0
0, 0
2, 0
0, 0
1, 0
0, 1
0, 0
0, 0
0, 1
1, 0
0, 0
0, 0
1, 1
0, 0
0, 0
0, 0
0, 0
0, 0
1, 0
0, 0
1, 0
0, 0
0, 0
0, 1
0, 0
0, 0
0, 0
2, 0
0, 0
0, 0
0, 0
0, 0
0, 0
0, 0
0, 0
0, 0
0, 0
0, 0
0, 0
0, 0
0, 1
0, 0
0, 0
0, 0
0, 0
0, 0
0, 0
0, 0
0, 0
0, 0
0, 1
0, 0
0, 0
0, 0
0, 0
1, 0
0, 0
0, 1
0, 0
0, 0
0, 0
0, 0
0, 0
0, 0
0, 0
0, 0
0, 0
0, 0
0, 0
0, 0
0, 0
0, 0
0, 0
0, 0
0, 0
0, 0
1, 0
0, 0
0, 0
0, 0
0, 0
0, 0
0, 0
0, 0
0, 0
0, 0
0, 0
0, 0
0, 0
0, 0
0, 0
0, 0
0, 0
0, 0
0, 0
0, 0
0, 0
0, 0
0, 0
0, 0
0, 0
0, 0
0, 0
0, 0
0, 0
0, 0
0, 0
0, 0
0, 0
0, 0
0, 0
0, 0
0, 0
0, 0
0, 0
0, 0
0, 0
0, 0
0, 0
0, 0
0, 0
0, 0
0, 0
0, 0
0, 0
0, 0
0, 0
0, 0
0, 0
0, 0
0, 0
0, 0
0, 0
0, 0
0, 0
0, 0
0, 0
0, 0
0, 0
0, 0
0, 0
#ENDOFDATA     end of spectrum data