File: host_upload/02-11-2024/rqc/uplink1/ps__0567_0717304816_000rfs_shot_247.msa
#FORMAT      : EMSA/MAS spectral data file
#VERSION     : TC202v2.0 PIXL
#TITLE       : Novarupta (sol567) subset1
#DATE        : 02-11-2024      Date in the format DD-MMM-YYYY, for example 07-JUL-2010
#TIME        :             The time of day at which the spectrum was recorded, in 24-hour format
#OWNER       : PIXL Flight Model       (PIXL will use this to indicate which instrument took the data.)
#NPOINTS     : 4096     Number of data points in the spectrum (This can be zero for configuration only files)
#NCOLUMNS    : 2     Number of data columns in the spectrum (This can be zero for configuration only files)
#XUNITS      : eV
#YUNITS      : COUNTS
#DATATYPE    : YY
#XPERCHAN    : 7.862, 7.881   eV per channel (separate by commas if more than one detector)
#OFFSET      : 18.5, -22.4         eV of first channel  (separate by commas if more than one detector
#SIGNALTYPE  : XRF
#YP_TEMP     : 1.081
#LIVETIME    : 8.82581, 8.63057   seconds (separate by commas if more than one detector)
#REALTIME    : 10, 10.0   seconds (separate by commas if more than one detector)
#SPECTRUM    : start of spectrum data
0, 0
0, 0
0, 0
0, 0
0, 0
0, 0
0, 0
0, 1
3, 2
1, 2
3, 5
17, 14
8, 21
20, 19
45, 36
83, 115
475, 487
138, 101
35, 43
28, 14
80, 83
442, 424
145, 177
74, 85
221, 243
113, 121
62, 67
27, 21
15, 4
3, 9
31, 42
21, 20
27, 25
248, 246
367, 349
49, 62
38, 44
45, 50
16, 20
9, 8
28, 26
57, 72
35, 33
14, 18
5, 21
13, 24
14, 10
7, 8
22, 18
26, 31
30, 22
13, 11
10, 9
29, 30
36, 54
14, 26
25, 28
380, 478
1656, 1749
1060, 908
129, 97
20, 10
25, 16
83, 119
252, 287
157, 117
18, 14
9, 12
12, 8
11, 8
4, 5
9, 3
6, 7
9, 3
8, 4
7, 8
7, 7
5, 11
7, 10
11, 9
5, 4
5, 8
3, 8
4, 5
8, 3
4, 5
3, 11
6, 6
1, 2
4, 2
6, 3
6, 4
3, 2
1, 8
6, 2
3, 3
6, 5
4, 3
1, 1
6, 2
0, 3
4, 7
5, 4
2, 2
2, 3
1, 1
3, 1
1, 0
5, 2
1, 2
1, 3
1, 2
3, 1
4, 6
2, 0
4, 2
4, 3
2, 2
1, 4
1, 0
2, 2
1, 2
5, 2
3, 0
1, 0
2, 0
0, 2
1, 1
3, 0
1, 1
1, 1
1, 0
1, 0
1, 1
2, 0
1, 1
1, 0
1, 0
0, 0
0, 1
0, 1
1, 0
1, 0
1, 2
0, 1
0, 1
1, 0
0, 0
0, 0
0, 0
0, 0
0, 0
1, 1
0, 0
0, 1
0, 0
0, 0
1, 1
0, 0
0, 1
0, 0
0, 0
1, 0
0, 0
0, 0
0, 0
0, 0
2, 0
0, 0
0, 0
0, 0
0, 0
1, 0
0, 0
0, 0
0, 0
1, 0
0, 1
0, 0
0, 0
0, 1
0, 0
0, 0
0, 0
0, 1
0, 0
0, 0
0, 0
0, 0
0, 0
0, 0
0, 0
0, 0
1, 0
0, 0
0, 0
1, 0
0, 0
0, 0
0, 0
0, 0
0, 0
0, 0
0, 0
0, 0
0, 0
0, 0
0, 0
0, 0
0, 0
0, 0
0, 0
0, 0
0, 0
0, 0
0, 0
0, 0
0, 0
0, 0
0, 0
0, 0
0, 0
0, 0
0, 0
0, 0
0, 0
0, 0
0, 0
0, 0
0, 0
0, 0
0, 0
0, 0
0, 0
0, 0
0, 0
0, 0
0, 0
0, 0
0, 0
0, 0
0, 0
0, 0
0, 0
0, 0
0, 0
0, 0
0, 0
0, 0
0, 0
0, 0
0, 0
0, 0
0, 0
0, 0
0, 0
0, 0
0, 0
0, 0
0, 0
0, 0
0, 0
0, 0
0, 0
0, 0
0, 0
0, 0
0, 0
0, 0
0, 0
0, 0
0, 0
0, 0
0, 0
0, 0
0, 0
0, 0
0, 0
0, 0
0, 0
0, 0
0, 0
0, 0
0, 0
0, 0
0, 0
0, 0
0, 0
0, 0
0, 0
0, 0
0, 0
0, 0
0, 0
#ENDOFDATA     end of spectrum data