File: host_upload/02-11-2024/rqc/uplink1/ps__0567_0717304816_000rfs_shot_408.msa
#FORMAT      : EMSA/MAS spectral data file
#VERSION     : TC202v2.0 PIXL
#TITLE       : Novarupta (sol567) subset1
#DATE        : 02-11-2024      Date in the format DD-MMM-YYYY, for example 07-JUL-2010
#TIME        :             The time of day at which the spectrum was recorded, in 24-hour format
#OWNER       : PIXL Flight Model       (PIXL will use this to indicate which instrument took the data.)
#NPOINTS     : 4096     Number of data points in the spectrum (This can be zero for configuration only files)
#NCOLUMNS    : 2     Number of data columns in the spectrum (This can be zero for configuration only files)
#XUNITS      : eV
#YUNITS      : COUNTS
#DATATYPE    : YY
#XPERCHAN    : 7.862, 7.881   eV per channel (separate by commas if more than one detector)
#OFFSET      : 18.5, -22.4         eV of first channel  (separate by commas if more than one detector
#SIGNALTYPE  : XRF
#YP_TEMP     : 1.69
#LIVETIME    : 8.83909, 8.80406   seconds (separate by commas if more than one detector)
#REALTIME    : 10, 10.0   seconds (separate by commas if more than one detector)
#SPECTRUM    : start of spectrum data
0, 0
0, 0
0, 0
0, 0
0, 0
0, 0
0, 0
0, 1
4, 4
4, 1
3, 6
9, 8
15, 13
11, 21
35, 41
112, 126
469, 527
105, 120
36, 39
19, 26
43, 54
288, 359
114, 134
75, 79
221, 237
133, 120
60, 78
37, 28
9, 11
1, 15
20, 24
16, 20
16, 21
199, 255
318, 363
56, 55
32, 55
46, 69
10, 17
6, 10
15, 28
47, 54
41, 37
12, 13
9, 10
16, 21
8, 16
6, 10
12, 26
37, 41
30, 24
16, 11
12, 21
31, 35
38, 42
18, 32
24, 24
355, 466
1565, 1905
982, 1099
116, 104
15, 19
20, 31
69, 95
239, 301
169, 166
24, 17
7, 6
16, 14
7, 13
4, 1
6, 9
5, 2
7, 7
5, 6
13, 6
6, 7
2, 5
10, 10
7, 9
6, 5
7, 6
5, 3
2, 8
3, 5
10, 7
3, 10
4, 5
6, 3
5, 3
2, 4
8, 2
3, 4
5, 2
2, 9
2, 5
5, 2
0, 6
1, 2
2, 2
4, 3
2, 3
4, 2
3, 3
2, 5
0, 5
2, 1
4, 5
1, 6
0, 3
3, 2
2, 2
0, 4
1, 0
3, 2
2, 1
2, 3
0, 3
1, 3
3, 3
1, 4
1, 4
2, 1
1, 1
2, 1
0, 3
1, 2
0, 2
1, 0
2, 1
1, 0
1, 1
0, 0
0, 1
0, 0
1, 2
2, 0
1, 0
0, 3
1, 0
1, 1
0, 1
1, 1
1, 2
1, 1
0, 2
1, 0
1, 0
0, 0
0, 0
1, 0
0, 0
0, 0
0, 0
0, 0
1, 0
0, 2
1, 0
1, 0
0, 0
0, 1
0, 1
0, 0
1, 0
0, 0
1, 0
1, 0
0, 0
0, 0
0, 0
0, 0
0, 0
0, 0
0, 0
0, 0
0, 0
0, 0
0, 0
0, 0
0, 1
0, 0
0, 0
0, 0
0, 0
0, 0
0, 0
0, 0
0, 0
0, 0
1, 0
0, 0
0, 1
0, 0
0, 0
0, 0
0, 0
0, 0
0, 0
0, 0
1, 0
0, 0
0, 0
0, 0
0, 0
0, 0
0, 0
0, 0
0, 0
0, 0
0, 0
0, 0
0, 0
0, 0
0, 0
0, 0
0, 0
0, 0
0, 0
0, 0
0, 0
0, 0
0, 0
0, 0
0, 0
0, 0
0, 0
0, 0
0, 0
0, 0
0, 0
0, 0
0, 0
0, 0
0, 0
0, 0
0, 0
0, 0
0, 0
0, 0
0, 0
0, 0
0, 0
0, 0
0, 0
0, 0
0, 0
0, 0
0, 0
0, 0
0, 0
0, 0
0, 0
0, 0
0, 0
0, 0
0, 0
0, 0
0, 0
0, 0
0, 0
0, 0
0, 0
0, 0
0, 0
0, 0
0, 0
0, 0
0, 0
0, 0
0, 0
0, 0
0, 0
0, 0
0, 0
0, 0
0, 0
0, 0
0, 0
0, 0
0, 0
0, 0
0, 0
0, 0
0, 0
0, 0
0, 0
0, 0
0, 0
0, 0
0, 0
0, 0
0, 0
0, 0
0, 0
#ENDOFDATA     end of spectrum data