File: host_upload/02-11-2024/rqc/uplink1/ps__0567_0717304816_000rfs_shot_80.msa
#FORMAT      : EMSA/MAS spectral data file
#VERSION     : TC202v2.0 PIXL
#TITLE       : Novarupta (sol567) subset1
#DATE        : 02-11-2024      Date in the format DD-MMM-YYYY, for example 07-JUL-2010
#TIME        :             The time of day at which the spectrum was recorded, in 24-hour format
#OWNER       : PIXL Flight Model       (PIXL will use this to indicate which instrument took the data.)
#NPOINTS     : 4096     Number of data points in the spectrum (This can be zero for configuration only files)
#NCOLUMNS    : 2     Number of data columns in the spectrum (This can be zero for configuration only files)
#XUNITS      : eV
#YUNITS      : COUNTS
#DATATYPE    : YY
#XPERCHAN    : 7.862, 7.881   eV per channel (separate by commas if more than one detector)
#OFFSET      : 18.5, -22.4         eV of first channel  (separate by commas if more than one detector
#SIGNALTYPE  : XRF
#YP_TEMP     : -1.357
#LIVETIME    : 8.84297, 8.82622   seconds (separate by commas if more than one detector)
#REALTIME    : 10, 10.0   seconds (separate by commas if more than one detector)
#SPECTRUM    : start of spectrum data
0, 0
0, 0
0, 0
0, 0
0, 0
0, 0
0, 0
0, 0
1, 8
2, 6
3, 1
8, 10
14, 6
29, 29
37, 35
82, 136
478, 535
87, 102
30, 39
20, 27
54, 70
274, 311
91, 83
82, 86
204, 234
106, 135
71, 68
32, 25
7, 14
4, 9
23, 30
12, 22
16, 33
214, 274
299, 358
53, 39
50, 53
51, 52
7, 16
9, 11
19, 29
64, 59
33, 38
14, 20
8, 15
15, 21
9, 10
10, 7
15, 16
26, 25
20, 27
15, 8
11, 12
29, 41
38, 46
14, 19
35, 41
429, 603
1559, 1847
914, 880
87, 98
19, 20
19, 27
83, 110
242, 282
153, 123
20, 19
12, 9
9, 15
4, 5
8, 3
10, 3
11, 6
7, 6
13, 10
6, 8
10, 5
7, 9
11, 14
7, 10
5, 4
8, 13
6, 10
5, 5
2, 3
3, 7
2, 6
3, 7
4, 9
1, 3
5, 6
4, 3
3, 6
5, 6
3, 4
2, 3
3, 3
4, 4
1, 4
2, 5
6, 4
2, 6
5, 2
1, 3
1, 2
2, 1
5, 1
1, 4
2, 1
2, 0
1, 0
1, 2
2, 3
2, 4
1, 0
1, 1
1, 3
1, 3
1, 1
1, 2
0, 3
0, 2
1, 1
3, 3
0, 1
0, 3
0, 3
0, 0
0, 2
1, 3
1, 0
1, 0
1, 0
0, 0
0, 0
3, 1
0, 0
0, 2
2, 1
1, 1
0, 1
1, 0
0, 1
0, 1
0, 0
0, 0
0, 0
0, 1
2, 1
0, 0
1, 0
0, 0
0, 0
0, 0
0, 0
0, 0
0, 0
0, 1
0, 2
0, 0
1, 1
0, 0
0, 1
0, 1
0, 0
0, 0
0, 0
0, 2
0, 0
1, 1
1, 1
0, 2
0, 0
0, 0
1, 0
0, 0
0, 0
0, 0
0, 0
0, 0
0, 0
0, 0
0, 0
1, 0
3, 0
1, 0
0, 0
0, 0
0, 0
0, 0
0, 0
0, 0
0, 0
0, 0
0, 0
0, 0
0, 0
0, 0
0, 0
0, 0
0, 0
0, 0
0, 0
0, 0
0, 0
0, 0
0, 0
0, 0
0, 0
0, 0
0, 0
0, 0
0, 0
0, 0
0, 0
0, 0
0, 0
0, 0
0, 0
0, 0
0, 0
0, 0
0, 0
0, 0
0, 0
0, 0
0, 0
0, 0
0, 0
0, 0
0, 0
0, 0
0, 0
0, 0
0, 0
0, 0
0, 0
0, 0
0, 0
0, 0
0, 0
0, 0
0, 0
0, 0
0, 0
0, 0
0, 0
0, 0
0, 0
0, 0
0, 0
0, 0
0, 0
0, 0
0, 0
0, 0
0, 0
0, 0
0, 0
0, 0
0, 0
0, 0
0, 0
0, 0
0, 0
0, 0
0, 0
0, 0
0, 0
0, 0
0, 0
0, 0
0, 0
0, 0
0, 0
0, 0
0, 0
0, 0
0, 0
0, 0
0, 0
0, 0
0, 0
0, 0
0, 0
0, 0
0, 0
0, 0
0, 0
0, 0
0, 0
0, 0
0, 0
0, 0
#ENDOFDATA     end of spectrum data