File: host_upload/02-11-2024/rqc/uplink1/ps__0567_0717304816_000rfs_shot_68.msa
#FORMAT      : EMSA/MAS spectral data file
#VERSION     : TC202v2.0 PIXL
#TITLE       : Novarupta (sol567) subset1
#DATE        : 02-11-2024      Date in the format DD-MMM-YYYY, for example 07-JUL-2010
#TIME        :             The time of day at which the spectrum was recorded, in 24-hour format
#OWNER       : PIXL Flight Model       (PIXL will use this to indicate which instrument took the data.)
#NPOINTS     : 4096     Number of data points in the spectrum (This can be zero for configuration only files)
#NCOLUMNS    : 2     Number of data columns in the spectrum (This can be zero for configuration only files)
#XUNITS      : eV
#YUNITS      : COUNTS
#DATATYPE    : YY
#XPERCHAN    : 7.862, 7.881   eV per channel (separate by commas if more than one detector)
#OFFSET      : 18.5, -22.4         eV of first channel  (separate by commas if more than one detector
#SIGNALTYPE  : XRF
#YP_TEMP     : -1.774
#LIVETIME    : 8.82274, 8.81828   seconds (separate by commas if more than one detector)
#REALTIME    : 10, 10.0   seconds (separate by commas if more than one detector)
#SPECTRUM    : start of spectrum data
0, 0
0, 0
0, 0
0, 0
0, 0
0, 0
0, 0
0, 1
3, 2
2, 3
1, 4
13, 15
18, 10
36, 19
31, 49
129, 144
491, 538
118, 140
38, 34
15, 29
61, 61
338, 333
112, 131
82, 84
215, 264
119, 124
69, 74
28, 37
14, 3
8, 12
28, 38
20, 13
19, 34
236, 289
333, 295
58, 52
32, 52
56, 48
16, 9
8, 7
19, 30
68, 77
32, 37
10, 14
19, 10
22, 21
12, 16
12, 9
24, 13
28, 22
25, 28
12, 12
14, 18
39, 43
47, 43
16, 20
38, 39
497, 579
1665, 1803
987, 825
112, 84
12, 18
18, 39
94, 119
244, 275
147, 124
21, 15
11, 7
10, 10
10, 4
9, 4
6, 6
2, 7
5, 10
4, 9
4, 7
5, 5
2, 10
8, 12
13, 10
3, 6
6, 6
6, 4
6, 6
11, 8
4, 7
2, 10
7, 3
2, 9
4, 6
3, 3
3, 5
1, 4
3, 3
3, 6
1, 4
4, 5
2, 3
3, 1
4, 3
4, 1
2, 2
1, 1
7, 2
2, 2
2, 1
3, 3
5, 1
2, 1
2, 1
4, 4
4, 1
2, 4
1, 3
2, 3
1, 1
2, 3
3, 2
4, 0
3, 0
3, 0
2, 0
2, 1
1, 2
1, 1
1, 1
0, 3
1, 1
1, 2
2, 1
1, 0
1, 1
2, 0
0, 1
2, 0
1, 0
0, 0
1, 1
1, 1
1, 0
1, 0
0, 0
1, 0
2, 0
0, 0
1, 0
2, 0
0, 0
0, 1
0, 1
0, 0
0, 0
0, 0
1, 0
0, 0
2, 1
1, 0
0, 0
0, 0
0, 0
0, 0
0, 0
0, 0
0, 0
1, 0
0, 0
0, 0
1, 0
1, 1
2, 0
0, 1
0, 1
0, 0
0, 0
0, 0
0, 0
0, 0
0, 0
0, 0
1, 1
0, 1
0, 0
1, 1
0, 0
0, 0
1, 0
0, 0
0, 0
0, 0
0, 0
0, 0
0, 0
0, 0
0, 0
0, 0
0, 0
0, 0
0, 0
1, 0
0, 0
0, 0
0, 0
0, 0
0, 0
0, 0
0, 0
0, 0
0, 0
0, 0
0, 0
0, 0
0, 0
0, 0
0, 0
0, 0
0, 0
0, 0
0, 0
0, 0
0, 0
0, 0
0, 0
0, 0
0, 0
0, 0
0, 0
0, 0
0, 0
0, 0
0, 0
0, 0
0, 0
0, 0
0, 0
0, 0
0, 0
0, 0
0, 0
0, 0
0, 0
0, 0
0, 0
0, 0
0, 0
0, 0
0, 0
0, 0
0, 0
0, 0
0, 0
0, 0
0, 0
0, 0
0, 0
0, 0
0, 0
0, 0
0, 0
0, 0
0, 0
0, 0
0, 0
0, 0
0, 0
0, 0
0, 0
0, 0
0, 0
0, 0
0, 0
0, 0
0, 0
0, 0
0, 0
0, 0
0, 0
0, 0
0, 0
0, 0
0, 0
0, 0
0, 0
0, 0
0, 0
0, 0
0, 0
0, 0
0, 0
0, 0
0, 0
0, 0
0, 0
0, 0
0, 0
#ENDOFDATA     end of spectrum data