File: host_upload/02-11-2024/rqc/uplink1/ps__0567_0717304816_000rfs_shot_491.msa
#FORMAT      : EMSA/MAS spectral data file
#VERSION     : TC202v2.0 PIXL
#TITLE       : Novarupta (sol567) subset1
#DATE        : 02-11-2024      Date in the format DD-MMM-YYYY, for example 07-JUL-2010
#TIME        :             The time of day at which the spectrum was recorded, in 24-hour format
#OWNER       : PIXL Flight Model       (PIXL will use this to indicate which instrument took the data.)
#NPOINTS     : 4096     Number of data points in the spectrum (This can be zero for configuration only files)
#NCOLUMNS    : 2     Number of data columns in the spectrum (This can be zero for configuration only files)
#XUNITS      : eV
#YUNITS      : COUNTS
#DATATYPE    : YY
#XPERCHAN    : 7.862, 7.881   eV per channel (separate by commas if more than one detector)
#OFFSET      : 18.5, -22.4         eV of first channel  (separate by commas if more than one detector
#SIGNALTYPE  : XRF
#YP_TEMP     : 2.011
#LIVETIME    : 8.82128, 8.80832   seconds (separate by commas if more than one detector)
#REALTIME    : 10, 10.0   seconds (separate by commas if more than one detector)
#SPECTRUM    : start of spectrum data
0, 0
0, 0
0, 0
0, 0
0, 0
0, 0
0, 0
1, 1
4, 1
4, 3
2, 7
12, 11
14, 24
15, 32
48, 55
96, 116
473, 580
132, 121
31, 35
25, 26
49, 48
288, 320
114, 132
74, 90
203, 198
100, 106
70, 72
23, 26
9, 11
11, 12
35, 37
19, 11
21, 27
199, 238
324, 327
52, 71
37, 38
54, 64
12, 9
4, 15
12, 27
72, 72
31, 38
20, 21
19, 18
21, 12
12, 16
5, 11
10, 13
33, 30
24, 30
8, 6
18, 11
44, 36
45, 57
20, 19
32, 43
324, 494
1664, 1982
1133, 1088
133, 121
11, 24
15, 25
77, 114
273, 273
185, 162
30, 19
7, 9
17, 12
16, 15
8, 4
9, 6
6, 9
2, 5
3, 3
8, 5
5, 11
8, 4
6, 7
6, 10
7, 10
7, 4
4, 5
10, 7
8, 6
6, 3
3, 5
12, 9
3, 7
6, 4
4, 3
2, 4
3, 3
3, 5
3, 2
6, 3
6, 4
5, 1
1, 2
5, 2
7, 5
4, 3
1, 2
1, 2
1, 0
1, 2
3, 3
5, 1
2, 1
3, 2
2, 3
1, 2
1, 3
1, 2
1, 1
1, 0
2, 4
1, 2
2, 1
3, 1
1, 3
1, 3
2, 4
4, 1
3, 0
0, 1
2, 0
2, 1
0, 1
1, 1
1, 0
2, 1
1, 2
0, 1
0, 3
0, 1
0, 1
1, 2
0, 1
0, 0
0, 0
2, 1
1, 0
1, 1
1, 1
0, 1
1, 1
0, 0
1, 0
1, 1
0, 0
2, 1
1, 0
0, 1
1, 0
0, 0
0, 0
1, 0
0, 0
0, 0
0, 0
1, 0
0, 0
0, 0
0, 0
0, 0
0, 0
0, 0
0, 0
0, 1
0, 0
0, 0
0, 0
0, 1
0, 0
0, 0
0, 0
0, 0
0, 0
0, 0
0, 1
0, 0
0, 1
0, 0
0, 0
0, 0
0, 0
0, 0
1, 0
1, 0
0, 0
0, 0
1, 0
0, 0
0, 0
0, 0
0, 0
0, 0
0, 0
0, 0
0, 0
0, 0
0, 0
0, 0
0, 0
0, 0
0, 0
0, 0
0, 0
0, 0
0, 0
0, 0
1, 0
0, 0
0, 0
0, 0
0, 0
0, 0
0, 0
0, 0
1, 0
0, 0
0, 0
0, 0
0, 0
0, 0
0, 0
0, 0
0, 0
0, 0
0, 0
0, 0
0, 0
0, 0
0, 0
0, 0
0, 0
0, 0
0, 0
0, 0
0, 0
0, 0
0, 0
0, 0
0, 0
0, 0
0, 0
0, 0
0, 0
0, 0
0, 0
0, 0
0, 0
0, 0
0, 0
0, 0
0, 0
0, 0
0, 0
0, 0
0, 0
0, 0
0, 0
0, 0
0, 0
0, 0
0, 0
0, 0
0, 0
0, 0
0, 0
0, 0
0, 0
0, 0
0, 0
0, 0
0, 0
0, 0
0, 0
0, 0
0, 0
0, 0
0, 0
0, 0
0, 0
0, 0
0, 0
0, 0
0, 0
0, 0
0, 0
0, 0
0, 0
0, 0
#ENDOFDATA     end of spectrum data