File: host_upload/02-11-2024/rqc/uplink1/ps__0567_0717304816_000rfs_shot_53.msa
#FORMAT      : EMSA/MAS spectral data file
#VERSION     : TC202v2.0 PIXL
#TITLE       : Novarupta (sol567) subset1
#DATE        : 02-11-2024      Date in the format DD-MMM-YYYY, for example 07-JUL-2010
#TIME        :             The time of day at which the spectrum was recorded, in 24-hour format
#OWNER       : PIXL Flight Model       (PIXL will use this to indicate which instrument took the data.)
#NPOINTS     : 4096     Number of data points in the spectrum (This can be zero for configuration only files)
#NCOLUMNS    : 2     Number of data columns in the spectrum (This can be zero for configuration only files)
#XUNITS      : eV
#YUNITS      : COUNTS
#DATATYPE    : YY
#XPERCHAN    : 7.862, 7.881   eV per channel (separate by commas if more than one detector)
#OFFSET      : 18.5, -22.4         eV of first channel  (separate by commas if more than one detector
#SIGNALTYPE  : XRF
#YP_TEMP     : -2.543
#LIVETIME    : 8.82932, 8.82623   seconds (separate by commas if more than one detector)
#REALTIME    : 10, 10.0   seconds (separate by commas if more than one detector)
#SPECTRUM    : start of spectrum data
0, 0
0, 0
0, 0
0, 0
0, 0
0, 0
0, 0
0, 0
3, 5
4, 8
3, 5
13, 11
13, 16
31, 36
36, 44
132, 131
527, 498
122, 109
41, 35
20, 24
72, 55
336, 326
136, 123
99, 93
232, 214
112, 103
68, 71
27, 31
7, 9
7, 16
29, 28
16, 25
19, 25
236, 275
335, 323
58, 35
45, 62
40, 52
12, 10
9, 10
20, 33
59, 69
42, 29
17, 14
17, 10
17, 17
12, 14
12, 8
15, 17
34, 28
28, 10
10, 12
13, 14
28, 37
51, 52
20, 21
35, 53
463, 621
1580, 1790
901, 830
90, 93
16, 14
24, 30
108, 116
264, 242
121, 141
21, 23
16, 15
12, 9
7, 9
11, 7
9, 5
8, 10
6, 11
7, 7
8, 7
8, 4
6, 7
10, 13
7, 6
8, 5
5, 3
5, 8
4, 4
10, 8
3, 3
7, 10
3, 6
1, 8
6, 7
6, 8
3, 4
4, 3
5, 5
4, 1
2, 2
7, 4
6, 3
3, 4
3, 7
2, 4
0, 0
6, 3
3, 1
0, 1
3, 2
2, 2
1, 5
4, 0
4, 4
4, 2
0, 4
1, 3
1, 1
3, 1
5, 1
2, 2
0, 4
1, 4
3, 0
2, 1
2, 0
1, 2
0, 2
1, 2
0, 1
2, 2
0, 2
2, 1
1, 0
1, 0
2, 2
1, 3
1, 0
1, 3
1, 1
1, 0
0, 0
0, 0
1, 2
0, 0
0, 0
1, 0
0, 2
0, 0
1, 0
0, 0
0, 0
0, 0
0, 1
1, 0
0, 0
0, 0
1, 0
1, 0
0, 0
1, 0
0, 0
1, 0
0, 1
1, 0
0, 0
0, 0
0, 0
0, 0
1, 1
0, 1
0, 0
1, 0
0, 0
0, 0
0, 1
0, 1
1, 0
0, 0
0, 0
2, 0
0, 0
0, 0
0, 2
0, 0
0, 1
0, 0
0, 0
0, 0
0, 0
0, 0
0, 0
0, 0
0, 0
0, 0
0, 0
1, 0
1, 0
0, 0
0, 0
0, 0
0, 1
0, 0
0, 0
0, 0
0, 0
0, 0
0, 0
0, 0
0, 0
0, 0
0, 0
0, 0
0, 0
0, 0
0, 0
0, 0
0, 0
0, 0
0, 0
0, 0
0, 0
0, 0
0, 0
0, 0
0, 0
0, 0
0, 0
0, 0
0, 0
0, 0
0, 0
0, 0
0, 0
0, 0
0, 0
0, 0
0, 0
0, 0
0, 0
0, 0
0, 0
0, 0
0, 0
0, 0
0, 0
0, 0
0, 0
0, 0
0, 0
0, 0
0, 0
0, 0
0, 0
0, 0
0, 0
0, 0
0, 0
0, 0
0, 0
0, 0
0, 0
0, 0
0, 0
0, 0
0, 0
0, 0
0, 0
0, 0
0, 0
0, 0
0, 0
0, 0
0, 0
0, 0
0, 0
0, 0
0, 0
0, 0
0, 0
0, 0
0, 0
0, 0
0, 0
0, 0
0, 0
0, 0
0, 0
0, 0
0, 0
0, 0
0, 0
0, 0
0, 0
0, 0
0, 0
0, 0
0, 0
#ENDOFDATA     end of spectrum data