File: host_upload/02-11-2024/rqc/uplink1/ps__0567_0717304816_000rfs_shot_220.msa
#FORMAT      : EMSA/MAS spectral data file
#VERSION     : TC202v2.0 PIXL
#TITLE       : Novarupta (sol567) subset1
#DATE        : 02-11-2024      Date in the format DD-MMM-YYYY, for example 07-JUL-2010
#TIME        :             The time of day at which the spectrum was recorded, in 24-hour format
#OWNER       : PIXL Flight Model       (PIXL will use this to indicate which instrument took the data.)
#NPOINTS     : 4096     Number of data points in the spectrum (This can be zero for configuration only files)
#NCOLUMNS    : 2     Number of data columns in the spectrum (This can be zero for configuration only files)
#XUNITS      : eV
#YUNITS      : COUNTS
#DATATYPE    : YY
#XPERCHAN    : 7.862, 7.881   eV per channel (separate by commas if more than one detector)
#OFFSET      : 18.5, -22.4         eV of first channel  (separate by commas if more than one detector
#SIGNALTYPE  : XRF
#YP_TEMP     : 0.824
#LIVETIME    : 8.84667, 8.82329   seconds (separate by commas if more than one detector)
#REALTIME    : 10, 10.0   seconds (separate by commas if more than one detector)
#SPECTRUM    : start of spectrum data
0, 0
0, 0
0, 0
0, 0
0, 0
0, 0
0, 1
0, 0
0, 3
3, 4
3, 3
12, 12
16, 15
21, 24
38, 61
121, 133
462, 537
102, 108
32, 32
25, 29
57, 69
284, 291
95, 110
73, 84
226, 276
100, 123
70, 72
24, 31
7, 11
9, 7
21, 36
17, 23
15, 21
190, 262
284, 320
38, 54
40, 33
49, 36
13, 12
10, 5
20, 19
52, 58
30, 28
12, 20
14, 13
16, 11
8, 12
9, 8
10, 13
39, 33
26, 20
14, 9
14, 12
35, 35
56, 49
30, 16
31, 38
351, 511
1614, 1739
980, 1033
121, 95
17, 14
19, 27
84, 120
248, 258
140, 132
18, 18
7, 14
12, 11
8, 10
7, 4
5, 8
2, 1
2, 5
9, 11
4, 2
4, 7
8, 10
12, 15
7, 13
8, 4
5, 8
7, 6
6, 6
3, 1
5, 3
2, 8
3, 6
4, 3
3, 3
5, 6
2, 8
6, 3
4, 8
1, 3
3, 6
5, 5
1, 6
3, 0
5, 3
0, 6
2, 3
3, 1
2, 5
0, 4
1, 1
2, 2
1, 3
4, 4
1, 2
2, 2
4, 0
3, 3
2, 1
0, 1
2, 0
3, 5
3, 4
0, 0
1, 0
3, 1
4, 4
3, 3
2, 2
3, 1
2, 2
1, 0
0, 3
1, 2
1, 0
1, 1
0, 1
0, 0
3, 0
0, 2
0, 1
0, 0
0, 0
1, 0
1, 1
1, 0
0, 0
1, 3
1, 0
1, 1
1, 1
2, 0
1, 0
0, 0
1, 0
0, 1
0, 0
0, 0
0, 0
2, 0
0, 0
0, 1
0, 0
1, 0
1, 1
0, 1
1, 0
0, 0
0, 0
0, 0
0, 1
1, 0
0, 1
0, 0
1, 1
0, 0
0, 0
2, 1
0, 0
0, 0
1, 0
0, 0
0, 0
0, 0
0, 0
0, 0
0, 0
1, 0
0, 1
0, 0
0, 0
0, 0
0, 1
0, 0
0, 0
0, 0
0, 0
0, 0
0, 0
0, 0
0, 0
0, 0
0, 0
0, 0
0, 0
0, 0
0, 0
0, 0
0, 0
0, 0
0, 0
0, 0
0, 0
0, 0
0, 0
0, 0
0, 0
0, 0
0, 0
0, 0
0, 0
0, 0
0, 0
0, 0
0, 0
0, 0
0, 0
0, 0
0, 0
0, 0
0, 0
0, 0
1, 0
0, 0
0, 0
0, 0
0, 0
0, 0
0, 0
0, 0
0, 0
0, 0
0, 0
0, 0
0, 0
0, 0
0, 0
0, 0
0, 0
0, 0
0, 0
0, 0
0, 0
0, 0
0, 0
0, 0
0, 0
0, 0
0, 0
0, 0
0, 0
0, 0
0, 0
0, 0
0, 0
0, 0
0, 0
0, 0
0, 0
0, 0
0, 0
0, 0
0, 0
0, 0
0, 0
0, 0
0, 0
0, 0
0, 0
0, 0
0, 0
0, 0
0, 0
0, 0
0, 0
0, 0
0, 0
0, 0
0, 0
0, 0
0, 0
0, 0
0, 0
0, 0
0, 0
0, 0
0, 0
0, 0
0, 0
#ENDOFDATA     end of spectrum data