File: host_upload/02-11-2024/rqc/uplink1/ps__0567_0717304816_000rfs_shot_48.msa
#FORMAT      : EMSA/MAS spectral data file
#VERSION     : TC202v2.0 PIXL
#TITLE       : Novarupta (sol567) subset1
#DATE        : 02-11-2024      Date in the format DD-MMM-YYYY, for example 07-JUL-2010
#TIME        :             The time of day at which the spectrum was recorded, in 24-hour format
#OWNER       : PIXL Flight Model       (PIXL will use this to indicate which instrument took the data.)
#NPOINTS     : 4096     Number of data points in the spectrum (This can be zero for configuration only files)
#NCOLUMNS    : 2     Number of data columns in the spectrum (This can be zero for configuration only files)
#XUNITS      : eV
#YUNITS      : COUNTS
#DATATYPE    : YY
#XPERCHAN    : 7.862, 7.881   eV per channel (separate by commas if more than one detector)
#OFFSET      : 18.5, -22.4         eV of first channel  (separate by commas if more than one detector
#SIGNALTYPE  : XRF
#YP_TEMP     : -2.8
#LIVETIME    : 8.83166, 8.64771   seconds (separate by commas if more than one detector)
#REALTIME    : 10, 10.0   seconds (separate by commas if more than one detector)
#SPECTRUM    : start of spectrum data
0, 0
0, 0
0, 0
0, 0
0, 0
0, 0
0, 0
2, 2
4, 1
0, 2
4, 3
8, 11
12, 8
20, 30
35, 42
132, 129
466, 500
125, 115
33, 36
28, 24
71, 71
291, 325
107, 120
93, 85
215, 243
141, 113
80, 58
27, 26
8, 15
8, 17
26, 28
18, 17
17, 25
249, 244
325, 302
44, 42
56, 57
46, 56
13, 9
7, 10
27, 27
69, 70
27, 30
10, 14
11, 11
13, 7
13, 19
15, 10
19, 14
38, 42
16, 26
11, 15
19, 18
31, 36
37, 36
26, 27
46, 44
562, 600
1765, 1759
924, 791
81, 68
18, 18
15, 23
128, 130
256, 282
116, 131
21, 17
8, 9
13, 11
9, 7
6, 5
6, 3
4, 8
16, 2
5, 11
10, 10
5, 6
6, 7
8, 11
8, 10
6, 7
3, 11
5, 5
7, 6
4, 4
3, 3
6, 5
3, 7
4, 10
3, 2
3, 6
7, 6
3, 6
0, 6
4, 6
3, 7
4, 3
5, 5
4, 6
5, 2
2, 2
3, 4
4, 5
3, 1
4, 2
3, 5
0, 5
6, 5
5, 3
1, 6
2, 2
0, 0
1, 8
0, 1
1, 1
2, 2
3, 5
0, 1
1, 1
0, 3
1, 1
2, 1
3, 2
1, 2
1, 0
0, 4
0, 0
0, 2
4, 1
0, 0
0, 0
1, 0
0, 1
0, 0
0, 0
0, 0
1, 0
0, 1
2, 1
0, 0
1, 1
0, 0
1, 3
0, 1
0, 1
0, 0
1, 0
0, 1
1, 3
0, 0
0, 0
1, 0
0, 0
0, 2
1, 1
1, 0
1, 0
0, 0
1, 1
0, 1
0, 1
0, 0
0, 0
1, 1
1, 1
0, 2
0, 0
0, 1
0, 0
0, 0
0, 0
0, 0
0, 0
0, 0
0, 0
0, 0
1, 0
0, 0
0, 0
0, 0
0, 0
0, 1
0, 0
0, 0
0, 0
0, 0
0, 0
0, 0
0, 0
0, 0
0, 0
0, 0
0, 0
0, 0
0, 0
0, 0
0, 0
0, 0
0, 0
0, 0
0, 0
0, 0
0, 0
0, 0
0, 0
0, 0
0, 0
0, 0
0, 0
0, 0
0, 0
0, 0
0, 0
0, 0
0, 0
0, 0
0, 0
0, 0
0, 0
0, 0
0, 0
0, 0
0, 0
0, 0
0, 0
0, 0
0, 0
0, 0
0, 0
0, 0
0, 0
0, 0
0, 0
0, 0
0, 0
0, 0
0, 0
0, 0
0, 0
0, 0
0, 0
0, 0
0, 0
0, 0
0, 0
0, 0
0, 0
0, 0
0, 0
0, 0
0, 0
0, 0
0, 0
0, 0
0, 0
0, 0
0, 0
0, 0
0, 0
0, 0
0, 0
0, 0
0, 0
0, 0
0, 0
0, 0
0, 0
0, 0
0, 0
0, 0
0, 0
0, 0
0, 0
0, 0
0, 0
0, 0
0, 0
0, 0
0, 0
0, 0
0, 0
0, 0
0, 0
0, 0
0, 0
0, 0
0, 0
0, 0
0, 0
0, 0
0, 0
0, 0
0, 0
0, 0
#ENDOFDATA     end of spectrum data