File: host_upload/02-11-2024/rqc/uplink1/ps__0567_0717304816_000rfs_shot_81.msa
#FORMAT      : EMSA/MAS spectral data file
#VERSION     : TC202v2.0 PIXL
#TITLE       : Novarupta (sol567) subset1
#DATE        : 02-11-2024      Date in the format DD-MMM-YYYY, for example 07-JUL-2010
#TIME        :             The time of day at which the spectrum was recorded, in 24-hour format
#OWNER       : PIXL Flight Model       (PIXL will use this to indicate which instrument took the data.)
#NPOINTS     : 4096     Number of data points in the spectrum (This can be zero for configuration only files)
#NCOLUMNS    : 2     Number of data columns in the spectrum (This can be zero for configuration only files)
#XUNITS      : eV
#YUNITS      : COUNTS
#DATATYPE    : YY
#XPERCHAN    : 7.862, 7.881   eV per channel (separate by commas if more than one detector)
#OFFSET      : 18.5, -22.4         eV of first channel  (separate by commas if more than one detector
#SIGNALTYPE  : XRF
#YP_TEMP     : -1.453
#LIVETIME    : 8.84399, 8.82318   seconds (separate by commas if more than one detector)
#REALTIME    : 10, 10.0   seconds (separate by commas if more than one detector)
#SPECTRUM    : start of spectrum data
0, 0
0, 0
0, 0
0, 0
0, 0
0, 0
0, 0
0, 0
2, 5
5, 3
6, 5
5, 10
17, 14
28, 20
36, 43
101, 137
454, 516
110, 103
27, 26
17, 21
54, 64
285, 319
86, 103
82, 87
248, 245
115, 118
82, 68
29, 27
8, 10
12, 10
29, 31
14, 6
18, 31
224, 257
305, 337
41, 50
47, 51
55, 46
3, 12
10, 9
25, 28
59, 64
37, 29
14, 13
11, 9
20, 15
10, 17
11, 15
15, 18
22, 33
18, 23
13, 16
14, 18
42, 46
48, 40
18, 20
41, 47
447, 538
1537, 1706
883, 887
76, 92
16, 15
20, 22
90, 103
249, 255
152, 119
24, 18
16, 11
7, 13
9, 8
7, 10
3, 5
6, 10
7, 8
8, 6
9, 1
7, 3
5, 12
6, 10
9, 15
10, 3
6, 6
5, 9
5, 4
3, 3
5, 4
5, 7
3, 4
4, 7
3, 5
9, 7
6, 2
4, 2
4, 3
4, 4
1, 4
4, 4
5, 3
4, 5
1, 5
5, 5
4, 1
3, 0
6, 6
4, 3
6, 4
2, 2
3, 5
2, 4
1, 1
1, 3
2, 3
2, 1
1, 1
2, 5
5, 4
3, 2
2, 2
0, 1
0, 2
2, 1
2, 0
0, 2
2, 1
5, 3
1, 1
0, 2
2, 0
1, 2
0, 2
1, 0
0, 2
0, 1
1, 0
3, 0
2, 0
0, 0
2, 2
2, 1
1, 1
0, 2
0, 1
1, 1
1, 0
2, 1
0, 0
0, 1
0, 0
1, 3
0, 1
1, 0
1, 0
0, 0
1, 0
0, 0
1, 0
0, 0
0, 1
0, 0
0, 0
1, 1
0, 1
1, 0
1, 0
0, 0
1, 0
1, 1
0, 0
1, 1
0, 1
1, 0
0, 0
0, 1
0, 1
0, 0
0, 0
0, 0
0, 0
0, 0
0, 0
0, 0
0, 0
0, 0
0, 3
1, 0
0, 0
0, 0
0, 0
0, 0
0, 0
0, 0
0, 0
0, 0
0, 0
0, 0
0, 1
0, 0
0, 0
0, 1
0, 0
0, 0
0, 0
0, 0
0, 0
0, 0
0, 0
0, 0
0, 0
0, 0
0, 0
0, 0
0, 0
0, 0
0, 0
0, 0
0, 0
0, 0
0, 0
0, 0
0, 0
0, 0
0, 0
0, 0
0, 0
0, 0
0, 0
0, 0
0, 0
0, 0
0, 0
0, 0
0, 0
0, 0
0, 0
0, 0
0, 0
0, 0
0, 0
0, 0
0, 0
0, 0
0, 0
0, 0
0, 0
0, 0
0, 0
0, 0
0, 0
0, 0
0, 0
0, 0
0, 0
0, 0
0, 0
0, 0
0, 0
0, 0
0, 0
0, 0
0, 0
0, 0
0, 0
0, 0
0, 0
0, 0
0, 0
0, 0
0, 0
0, 0
0, 0
0, 0
0, 0
0, 0
0, 0
0, 0
0, 0
0, 0
0, 0
0, 0
0, 0
0, 0
0, 0
0, 0
0, 0
0, 0
0, 0
0, 0
0, 0
0, 0
0, 0
0, 0
0, 0
0, 0
0, 0
#ENDOFDATA     end of spectrum data