File: host_upload/02-11-2024/rqc/uplink1/ps__0567_0717304816_000rfs_shot_217.msa
#FORMAT      : EMSA/MAS spectral data file
#VERSION     : TC202v2.0 PIXL
#TITLE       : Novarupta (sol567) subset1
#DATE        : 02-11-2024      Date in the format DD-MMM-YYYY, for example 07-JUL-2010
#TIME        :             The time of day at which the spectrum was recorded, in 24-hour format
#OWNER       : PIXL Flight Model       (PIXL will use this to indicate which instrument took the data.)
#NPOINTS     : 4096     Number of data points in the spectrum (This can be zero for configuration only files)
#NCOLUMNS    : 2     Number of data columns in the spectrum (This can be zero for configuration only files)
#XUNITS      : eV
#YUNITS      : COUNTS
#DATATYPE    : YY
#XPERCHAN    : 7.862, 7.881   eV per channel (separate by commas if more than one detector)
#OFFSET      : 18.5, -22.4         eV of first channel  (separate by commas if more than one detector
#SIGNALTYPE  : XRF
#YP_TEMP     : 0.824
#LIVETIME    : 8.84721, 8.82641   seconds (separate by commas if more than one detector)
#REALTIME    : 10, 10.0   seconds (separate by commas if more than one detector)
#SPECTRUM    : start of spectrum data
0, 0
0, 0
0, 0
0, 0
0, 0
0, 0
0, 0
0, 0
2, 5
6, 3
1, 5
8, 13
13, 17
21, 21
34, 50
108, 112
432, 457
116, 115
25, 34
19, 19
53, 46
285, 312
100, 104
62, 86
229, 232
104, 110
61, 79
27, 23
8, 10
12, 10
23, 29
13, 16
18, 15
193, 255
300, 334
53, 57
39, 46
49, 52
16, 11
7, 15
26, 21
48, 75
41, 40
14, 15
10, 17
21, 21
10, 26
7, 10
13, 15
27, 26
15, 24
15, 11
11, 20
29, 45
42, 49
22, 25
33, 27
366, 480
1439, 1811
979, 970
120, 86
13, 19
20, 19
86, 94
238, 274
146, 161
18, 14
13, 9
11, 15
8, 12
6, 4
7, 1
6, 7
5, 8
9, 10
7, 12
6, 9
9, 9
12, 8
10, 7
11, 6
5, 7
7, 6
6, 5
2, 5
5, 8
4, 2
7, 7
4, 4
4, 3
5, 3
6, 6
2, 5
1, 3
3, 3
2, 5
4, 1
4, 5
3, 6
2, 5
3, 4
5, 6
4, 2
2, 2
0, 3
2, 3
2, 3
0, 1
2, 1
1, 3
2, 1
3, 1
3, 2
6, 2
1, 2
2, 2
1, 4
0, 3
1, 5
4, 4
0, 2
3, 1
1, 3
1, 1
1, 2
0, 0
1, 1
0, 0
1, 0
0, 4
1, 0
0, 1
0, 1
2, 1
0, 1
0, 0
1, 0
2, 0
0, 0
0, 2
0, 2
0, 1
0, 1
1, 1
0, 0
1, 0
0, 0
0, 0
0, 1
0, 0
0, 0
0, 0
1, 2
0, 0
1, 2
0, 0
0, 0
0, 0
0, 0
0, 1
0, 0
0, 0
0, 0
0, 1
0, 0
0, 0
0, 0
0, 1
0, 0
0, 0
0, 1
1, 0
0, 0
0, 0
0, 0
0, 0
0, 0
0, 0
0, 0
0, 0
0, 0
1, 0
2, 0
0, 0
0, 0
1, 0
0, 0
0, 0
0, 0
0, 0
0, 0
0, 0
0, 0
0, 0
0, 0
0, 0
0, 0
0, 0
0, 0
0, 0
0, 0
0, 0
0, 0
0, 0
0, 0
0, 0
0, 0
0, 0
0, 0
0, 0
0, 0
0, 0
0, 0
0, 0
0, 0
0, 0
0, 0
0, 0
0, 0
0, 0
0, 0
0, 0
0, 0
0, 0
0, 0
0, 0
0, 0
0, 0
0, 0
0, 0
0, 0
0, 0
0, 0
0, 0
0, 0
0, 0
0, 0
0, 0
0, 0
0, 0
0, 0
0, 0
0, 0
0, 0
0, 0
0, 0
0, 0
0, 0
0, 0
0, 0
0, 0
0, 0
0, 0
0, 0
0, 0
0, 0
0, 0
0, 0
0, 0
0, 0
0, 0
0, 0
0, 0
0, 0
0, 0
0, 0
0, 0
0, 0
0, 0
0, 0
0, 0
0, 0
0, 0
0, 0
0, 0
0, 0
0, 0
0, 0
0, 0
0, 0
0, 0
0, 0
0, 0
0, 0
0, 0
0, 0
0, 0
0, 0
0, 0
0, 0
0, 0
0, 0
0, 0
0, 0
#ENDOFDATA     end of spectrum data