File: host_upload/02-11-2024/rqc/uplink1/ps__0567_0717304816_000rfs_shot_426.msa
#FORMAT      : EMSA/MAS spectral data file
#VERSION     : TC202v2.0 PIXL
#TITLE       : Novarupta (sol567) subset1
#DATE        : 02-11-2024      Date in the format DD-MMM-YYYY, for example 07-JUL-2010
#TIME        :             The time of day at which the spectrum was recorded, in 24-hour format
#OWNER       : PIXL Flight Model       (PIXL will use this to indicate which instrument took the data.)
#NPOINTS     : 4096     Number of data points in the spectrum (This can be zero for configuration only files)
#NCOLUMNS    : 2     Number of data columns in the spectrum (This can be zero for configuration only files)
#XUNITS      : eV
#YUNITS      : COUNTS
#DATATYPE    : YY
#XPERCHAN    : 7.862, 7.881   eV per channel (separate by commas if more than one detector)
#OFFSET      : 18.5, -22.4         eV of first channel  (separate by commas if more than one detector
#SIGNALTYPE  : XRF
#YP_TEMP     : 1.851
#LIVETIME    : 8.84827, 8.81199   seconds (separate by commas if more than one detector)
#REALTIME    : 10, 10.0   seconds (separate by commas if more than one detector)
#SPECTRUM    : start of spectrum data
0, 0
0, 0
0, 0
0, 0
0, 0
0, 0
0, 0
0, 0
4, 7
2, 4
1, 3
8, 9
10, 20
18, 32
45, 48
108, 116
485, 570
108, 110
15, 33
19, 21
50, 76
291, 314
110, 146
73, 78
199, 241
110, 116
74, 83
31, 40
5, 13
9, 10
21, 35
16, 19
15, 21
183, 263
293, 367
41, 44
37, 52
40, 66
15, 10
4, 8
15, 27
60, 53
26, 38
10, 22
20, 17
23, 21
7, 19
9, 9
10, 12
30, 34
21, 24
12, 22
10, 11
28, 35
51, 41
23, 27
28, 36
305, 461
1466, 1829
1032, 1048
117, 100
10, 24
13, 19
77, 94
226, 287
169, 162
33, 26
6, 8
14, 17
6, 15
5, 5
5, 11
6, 5
1, 8
10, 6
7, 6
4, 3
7, 6
6, 10
11, 14
4, 7
3, 5
7, 6
9, 5
6, 3
11, 6
4, 11
4, 5
4, 4
2, 5
0, 5
6, 3
6, 7
4, 5
4, 8
3, 3
0, 5
2, 5
7, 2
3, 2
0, 6
1, 1
1, 2
0, 4
5, 1
3, 4
2, 2
5, 2
5, 2
0, 3
2, 4
1, 2
2, 2
2, 4
5, 0
3, 1
2, 8
2, 1
0, 5
1, 3
2, 3
2, 4
2, 0
1, 2
2, 1
1, 0
0, 1
1, 0
1, 1
2, 0
1, 2
0, 0
2, 2
1, 0
1, 1
0, 2
0, 0
1, 1
0, 1
1, 0
1, 1
0, 2
0, 1
0, 0
2, 0
0, 1
1, 0
1, 0
0, 0
1, 0
0, 3
1, 0
1, 1
0, 1
0, 0
0, 0
0, 0
0, 0
0, 0
1, 0
0, 1
0, 1
0, 0
0, 0
1, 0
0, 0
1, 0
0, 0
0, 2
0, 0
0, 0
1, 1
0, 0
0, 0
0, 0
0, 0
0, 1
0, 0
0, 1
0, 0
0, 0
0, 0
0, 0
0, 0
0, 0
0, 0
0, 0
0, 0
0, 0
0, 0
0, 0
0, 0
0, 0
0, 0
1, 0
0, 0
0, 0
0, 0
0, 0
0, 0
0, 0
0, 0
0, 0
0, 0
0, 0
0, 0
0, 0
0, 0
0, 0
0, 0
0, 0
0, 0
0, 0
0, 0
0, 0
0, 0
0, 0
0, 0
0, 0
0, 0
0, 0
0, 0
0, 0
0, 0
0, 0
0, 0
0, 0
0, 0
0, 0
0, 0
0, 0
0, 0
0, 0
0, 0
0, 0
0, 0
0, 0
0, 0
0, 0
0, 0
0, 0
0, 0
0, 0
0, 0
0, 0
0, 0
0, 0
0, 0
0, 0
0, 0
0, 0
0, 0
0, 0
0, 0
0, 0
0, 0
0, 0
0, 0
0, 0
0, 0
0, 0
0, 0
0, 0
0, 0
0, 0
0, 0
0, 0
0, 0
0, 0
0, 0
0, 0
0, 0
0, 0
0, 0
0, 0
0, 0
0, 0
0, 0
0, 0
0, 0
0, 0
0, 0
0, 0
0, 0
0, 0
0, 0
0, 0
0, 0
0, 0
0, 0
0, 0
0, 0
0, 0
0, 0
#ENDOFDATA     end of spectrum data