File: host_upload/02-11-2024/rqc/uplink1/ps__0567_0717304816_000rfs_shot_354.msa
#FORMAT      : EMSA/MAS spectral data file
#VERSION     : TC202v2.0 PIXL
#TITLE       : Novarupta (sol567) subset1
#DATE        : 02-11-2024      Date in the format DD-MMM-YYYY, for example 07-JUL-2010
#TIME        :             The time of day at which the spectrum was recorded, in 24-hour format
#OWNER       : PIXL Flight Model       (PIXL will use this to indicate which instrument took the data.)
#NPOINTS     : 4096     Number of data points in the spectrum (This can be zero for configuration only files)
#NCOLUMNS    : 2     Number of data columns in the spectrum (This can be zero for configuration only files)
#XUNITS      : eV
#YUNITS      : COUNTS
#DATATYPE    : YY
#XPERCHAN    : 7.862, 7.881   eV per channel (separate by commas if more than one detector)
#OFFSET      : 18.5, -22.4         eV of first channel  (separate by commas if more than one detector
#SIGNALTYPE  : XRF
#YP_TEMP     : 1.626
#LIVETIME    : 8.82377, 8.81737   seconds (separate by commas if more than one detector)
#REALTIME    : 10, 10.0   seconds (separate by commas if more than one detector)
#SPECTRUM    : start of spectrum data
0, 0
0, 0
0, 0
0, 0
0, 0
0, 0
0, 0
0, 2
3, 6
5, 3
2, 9
14, 12
13, 10
23, 24
37, 42
117, 116
501, 542
126, 105
29, 37
17, 19
58, 60
300, 343
127, 133
56, 89
191, 226
91, 121
65, 70
24, 26
12, 5
8, 12
25, 29
15, 19
14, 25
207, 264
313, 374
56, 68
48, 60
42, 47
8, 17
5, 8
15, 25
62, 85
35, 30
11, 16
7, 16
19, 25
14, 11
14, 7
14, 13
35, 26
20, 30
11, 9
13, 13
25, 41
53, 56
23, 18
31, 28
351, 523
1593, 1845
1088, 1018
116, 101
27, 24
22, 25
77, 126
253, 287
156, 151
27, 16
11, 10
11, 16
5, 6
7, 5
5, 3
7, 10
4, 4
2, 4
8, 11
7, 6
3, 12
10, 12
16, 9
6, 8
3, 13
5, 7
9, 13
5, 6
6, 3
4, 5
8, 5
4, 8
1, 10
5, 3
2, 2
5, 2
3, 6
3, 8
5, 5
2, 2
2, 6
3, 5
2, 2
1, 7
1, 3
2, 3
2, 2
1, 1
3, 3
3, 7
0, 2
4, 3
3, 4
4, 4
3, 3
0, 0
2, 5
3, 3
2, 1
4, 5
2, 3
2, 2
1, 1
3, 1
1, 2
1, 0
2, 1
0, 5
3, 0
2, 0
1, 1
2, 2
2, 2
2, 2
0, 1
2, 0
1, 2
1, 0
1, 1
0, 2
3, 0
1, 1
0, 0
1, 1
0, 0
0, 0
0, 0
1, 1
1, 2
0, 0
0, 0
1, 0
0, 0
0, 1
1, 2
1, 0
0, 0
0, 0
0, 0
0, 0
0, 2
0, 0
0, 0
0, 1
1, 1
0, 0
0, 1
0, 2
2, 0
0, 0
2, 0
1, 0
0, 0
0, 0
1, 0
0, 0
0, 0
0, 0
1, 0
2, 0
0, 0
1, 0
0, 0
0, 0
0, 0
0, 0
0, 0
0, 0
0, 0
0, 0
0, 0
0, 0
0, 0
0, 0
0, 0
0, 0
0, 0
1, 0
0, 0
0, 0
0, 0
0, 0
0, 0
0, 0
0, 0
0, 0
0, 0
0, 0
0, 0
0, 0
1, 0
0, 0
0, 0
0, 0
0, 0
1, 0
0, 0
0, 0
0, 0
0, 0
0, 0
0, 0
0, 0
0, 0
0, 0
0, 0
0, 0
0, 0
0, 0
0, 0
0, 0
0, 0
0, 0
0, 0
0, 0
0, 0
0, 0
0, 0
0, 0
0, 0
0, 0
0, 0
0, 0
0, 0
0, 0
0, 0
0, 0
0, 0
0, 0
0, 0
0, 0
0, 0
0, 0
0, 0
0, 0
0, 0
0, 0
0, 0
0, 0
0, 0
0, 0
0, 0
0, 0
0, 0
0, 0
0, 0
0, 0
0, 0
0, 0
0, 0
0, 0
0, 0
0, 0
0, 0
0, 0
0, 0
0, 0
0, 0
0, 0
0, 0
0, 0
0, 0
0, 0
0, 0
0, 0
0, 0
0, 0
0, 0
0, 0
0, 0
0, 0
0, 0
0, 0
0, 0
0, 0
0, 0
0, 0
#ENDOFDATA     end of spectrum data