File: host_upload/02-11-2024/rqc/uplink1/ps__0567_0717304816_000rfs_shot_138.msa
#FORMAT      : EMSA/MAS spectral data file
#VERSION     : TC202v2.0 PIXL
#TITLE       : Novarupta (sol567) subset1
#DATE        : 02-11-2024      Date in the format DD-MMM-YYYY, for example 07-JUL-2010
#TIME        :             The time of day at which the spectrum was recorded, in 24-hour format
#OWNER       : PIXL Flight Model       (PIXL will use this to indicate which instrument took the data.)
#NPOINTS     : 4096     Number of data points in the spectrum (This can be zero for configuration only files)
#NCOLUMNS    : 2     Number of data columns in the spectrum (This can be zero for configuration only files)
#XUNITS      : eV
#YUNITS      : COUNTS
#DATATYPE    : YY
#XPERCHAN    : 7.862, 7.881   eV per channel (separate by commas if more than one detector)
#OFFSET      : 18.5, -22.4         eV of first channel  (separate by commas if more than one detector
#SIGNALTYPE  : XRF
#YP_TEMP     : -0.17
#LIVETIME    : 8.83576, 8.63312   seconds (separate by commas if more than one detector)
#REALTIME    : 10, 10.0   seconds (separate by commas if more than one detector)
#SPECTRUM    : start of spectrum data
0, 0
0, 0
0, 0
0, 0
0, 0
0, 0
0, 0
0, 1
3, 3
3, 2
1, 6
10, 16
12, 15
30, 30
35, 48
123, 112
467, 514
111, 135
35, 34
28, 11
56, 74
282, 336
131, 121
86, 87
227, 248
133, 117
89, 62
29, 29
11, 13
10, 16
22, 30
17, 18
27, 29
211, 245
295, 333
53, 50
34, 39
53, 48
12, 5
7, 7
23, 27
54, 63
31, 35
8, 16
17, 11
22, 27
10, 15
6, 12
13, 19
32, 26
29, 22
9, 18
13, 15
39, 52
45, 41
27, 31
38, 40
367, 521
1606, 1864
996, 1014
98, 98
18, 15
26, 21
82, 125
254, 311
145, 146
21, 12
9, 11
9, 13
10, 6
7, 7
6, 9
4, 4
6, 5
3, 7
6, 12
2, 8
4, 8
9, 9
7, 13
9, 14
2, 5
9, 6
6, 8
7, 6
7, 7
4, 4
5, 5
6, 7
5, 3
3, 6
3, 5
5, 3
8, 2
3, 3
1, 5
7, 1
4, 2
8, 8
3, 1
1, 6
3, 4
3, 5
2, 1
2, 3
4, 4
2, 3
4, 2
2, 3
5, 2
0, 2
2, 1
1, 0
5, 2
1, 2
1, 2
3, 2
2, 2
3, 3
1, 1
2, 1
0, 1
1, 1
4, 2
1, 0
0, 1
0, 0
2, 2
0, 6
0, 1
1, 2
0, 1
2, 1
1, 1
2, 2
1, 0
0, 0
2, 1
2, 1
0, 0
0, 1
0, 0
1, 1
1, 1
0, 0
0, 1
1, 2
0, 0
0, 0
0, 0
0, 0
1, 0
0, 1
0, 1
0, 1
0, 0
0, 0
0, 1
1, 0
0, 0
0, 0
0, 0
0, 1
0, 0
0, 0
0, 2
1, 0
0, 0
0, 0
1, 0
0, 0
0, 0
2, 1
1, 3
0, 0
0, 0
1, 0
0, 0
0, 1
0, 0
0, 0
0, 1
0, 0
0, 0
0, 0
0, 0
0, 0
0, 0
0, 0
0, 1
0, 0
0, 0
0, 0
0, 0
0, 0
0, 0
0, 0
0, 0
0, 0
0, 0
0, 0
0, 0
0, 0
0, 1
0, 0
0, 0
0, 0
0, 0
0, 0
0, 0
0, 0
0, 0
0, 0
0, 0
0, 0
0, 0
0, 0
0, 0
0, 0
0, 0
0, 0
0, 0
0, 0
0, 0
0, 0
0, 0
0, 0
0, 0
0, 0
0, 0
0, 0
0, 0
0, 0
0, 0
0, 0
0, 0
0, 0
0, 0
0, 0
0, 0
0, 0
0, 0
0, 0
0, 0
0, 0
0, 0
0, 0
0, 0
0, 0
0, 0
0, 0
0, 0
0, 0
0, 0
0, 0
0, 0
0, 0
0, 0
0, 0
0, 0
0, 0
0, 0
0, 0
0, 0
0, 0
0, 0
0, 0
0, 0
0, 0
0, 0
0, 0
0, 0
0, 0
0, 0
0, 0
0, 0
0, 0
0, 0
0, 0
0, 0
0, 0
0, 0
0, 0
0, 0
0, 0
0, 0
0, 0
0, 0
0, 0
0, 0
0, 0
0, 0
0, 0
0, 0
#ENDOFDATA     end of spectrum data