File: host_upload/02-11-2024/rqc/uplink1/ps__0567_0717304816_000rfs_shot_397.msa
#FORMAT      : EMSA/MAS spectral data file
#VERSION     : TC202v2.0 PIXL
#TITLE       : Novarupta (sol567) subset1
#DATE        : 02-11-2024      Date in the format DD-MMM-YYYY, for example 07-JUL-2010
#TIME        :             The time of day at which the spectrum was recorded, in 24-hour format
#OWNER       : PIXL Flight Model       (PIXL will use this to indicate which instrument took the data.)
#NPOINTS     : 4096     Number of data points in the spectrum (This can be zero for configuration only files)
#NCOLUMNS    : 2     Number of data columns in the spectrum (This can be zero for configuration only files)
#XUNITS      : eV
#YUNITS      : COUNTS
#DATATYPE    : YY
#XPERCHAN    : 7.862, 7.881   eV per channel (separate by commas if more than one detector)
#OFFSET      : 18.5, -22.4         eV of first channel  (separate by commas if more than one detector
#SIGNALTYPE  : XRF
#YP_TEMP     : 1.883
#LIVETIME    : 8.82086, 8.79854   seconds (separate by commas if more than one detector)
#REALTIME    : 10, 10.0   seconds (separate by commas if more than one detector)
#SPECTRUM    : start of spectrum data
0, 0
0, 0
0, 0
0, 0
0, 0
0, 0
0, 0
1, 0
2, 3
3, 3
3, 5
16, 14
18, 21
20, 27
46, 56
108, 121
496, 575
138, 138
27, 34
33, 32
52, 57
316, 306
107, 134
78, 80
245, 243
108, 113
78, 97
36, 27
12, 14
11, 8
22, 31
22, 21
17, 23
199, 229
336, 368
52, 51
41, 50
50, 49
13, 15
8, 15
22, 25
57, 65
35, 29
12, 16
13, 12
18, 27
12, 8
7, 10
10, 9
22, 30
29, 22
12, 15
17, 11
31, 30
50, 65
24, 20
21, 42
337, 491
1607, 1940
1097, 1091
120, 102
14, 14
15, 21
86, 95
246, 303
153, 144
28, 15
9, 13
10, 16
7, 5
6, 8
2, 9
8, 6
8, 5
7, 6
5, 7
5, 3
12, 6
10, 12
12, 15
8, 7
7, 7
4, 7
7, 13
4, 2
4, 6
4, 8
7, 3
3, 7
8, 4
8, 2
4, 2
6, 3
1, 6
5, 2
7, 2
5, 4
3, 4
4, 5
4, 2
1, 1
2, 7
2, 3
2, 3
2, 3
4, 1
4, 2
3, 4
2, 4
3, 1
4, 0
2, 3
0, 3
4, 5
1, 3
4, 4
1, 1
6, 3
1, 1
2, 1
1, 2
1, 2
0, 0
2, 2
1, 0
2, 0
0, 2
0, 0
0, 1
0, 0
0, 1
1, 1
2, 2
2, 1
0, 0
1, 1
0, 1
1, 1
1, 0
0, 0
0, 0
3, 0
0, 0
0, 0
0, 0
0, 0
1, 0
0, 0
0, 0
1, 2
0, 0
0, 0
0, 0
1, 0
0, 0
0, 0
0, 0
1, 0
0, 1
1, 2
1, 0
0, 0
0, 0
0, 0
0, 0
0, 0
1, 0
1, 1
0, 1
0, 0
0, 0
0, 1
0, 0
0, 0
0, 0
1, 0
1, 0
0, 0
0, 0
0, 0
0, 0
0, 1
0, 0
0, 0
0, 1
0, 0
0, 0
0, 0
0, 0
0, 0
0, 0
0, 0
0, 0
0, 0
0, 0
0, 0
0, 0
0, 0
0, 0
0, 0
0, 0
0, 0
0, 0
0, 0
0, 0
0, 0
0, 0
0, 0
0, 0
0, 0
0, 1
0, 0
0, 0
0, 0
0, 0
0, 0
0, 1
0, 0
0, 0
0, 0
0, 0
0, 0
0, 0
0, 0
0, 0
0, 0
0, 0
0, 0
0, 0
0, 0
0, 0
0, 0
0, 0
0, 0
0, 0
0, 0
0, 0
0, 0
0, 0
0, 0
0, 0
0, 0
0, 0
0, 0
0, 0
0, 0
0, 0
0, 0
0, 0
0, 0
0, 0
0, 0
0, 0
0, 0
0, 0
0, 0
0, 0
0, 0
0, 0
0, 0
0, 0
0, 0
0, 0
0, 0
0, 0
0, 0
0, 0
0, 0
0, 0
0, 0
0, 0
0, 0
0, 0
0, 0
0, 0
0, 0
0, 0
0, 0
0, 0
0, 0
0, 0
0, 0
0, 0
0, 0
0, 0
0, 0
0, 0
0, 0
0, 0
0, 0
0, 0
0, 0
0, 0
0, 0
#ENDOFDATA     end of spectrum data