File: host_upload/02-11-2024/rqc/uplink1/ps__0567_0717304816_000rfs_shot_26.msa
#FORMAT      : EMSA/MAS spectral data file
#VERSION     : TC202v2.0 PIXL
#TITLE       : Novarupta (sol567) subset1
#DATE        : 02-11-2024      Date in the format DD-MMM-YYYY, for example 07-JUL-2010
#TIME        :             The time of day at which the spectrum was recorded, in 24-hour format
#OWNER       : PIXL Flight Model       (PIXL will use this to indicate which instrument took the data.)
#NPOINTS     : 4096     Number of data points in the spectrum (This can be zero for configuration only files)
#NCOLUMNS    : 2     Number of data columns in the spectrum (This can be zero for configuration only files)
#XUNITS      : eV
#YUNITS      : COUNTS
#DATATYPE    : YY
#XPERCHAN    : 7.862, 7.881   eV per channel (separate by commas if more than one detector)
#OFFSET      : 18.5, -22.4         eV of first channel  (separate by commas if more than one detector
#SIGNALTYPE  : XRF
#YP_TEMP     : -4.243
#LIVETIME    : 8.83516, 8.83037   seconds (separate by commas if more than one detector)
#REALTIME    : 10, 10.0   seconds (separate by commas if more than one detector)
#SPECTRUM    : start of spectrum data
0, 0
0, 0
0, 0
0, 0
0, 0
0, 0
0, 0
1, 0
5, 2
1, 6
0, 2
9, 11
14, 10
22, 25
39, 44
146, 133
511, 534
128, 115
35, 27
26, 20
83, 83
299, 306
110, 117
81, 97
226, 221
107, 124
65, 57
32, 37
14, 13
11, 9
26, 24
16, 15
16, 31
234, 308
311, 318
40, 38
47, 47
53, 44
14, 10
14, 10
19, 26
56, 58
27, 37
22, 13
11, 21
17, 22
15, 17
8, 8
18, 13
26, 30
28, 23
14, 17
15, 15
38, 41
42, 60
19, 25
52, 54
607, 740
1611, 1846
793, 716
55, 61
11, 15
36, 38
126, 148
268, 283
127, 114
18, 9
8, 5
14, 14
5, 10
5, 7
6, 5
4, 4
13, 9
4, 7
10, 7
4, 8
12, 8
8, 10
14, 9
8, 10
6, 10
2, 6
9, 8
7, 1
4, 9
4, 8
8, 6
5, 8
5, 4
4, 6
4, 3
5, 4
1, 3
4, 2
5, 5
3, 4
3, 1
1, 5
5, 5
1, 2
5, 2
4, 3
1, 3
2, 3
2, 2
3, 1
2, 2
3, 3
3, 1
2, 4
3, 1
2, 1
0, 1
3, 2
3, 1
1, 5
1, 3
2, 1
0, 3
1, 1
3, 2
1, 2
2, 2
1, 0
0, 2
0, 4
0, 1
1, 0
1, 1
1, 1
0, 1
2, 3
1, 0
1, 1
0, 0
1, 0
0, 0
2, 1
0, 0
1, 1
1, 1
0, 0
0, 1
3, 0
0, 0
1, 0
0, 1
0, 0
1, 1
2, 2
0, 1
0, 1
0, 0
1, 0
0, 0
3, 0
1, 0
0, 0
0, 0
1, 0
0, 1
0, 0
0, 1
0, 0
0, 0
0, 1
0, 1
0, 0
0, 1
0, 0
0, 0
0, 1
0, 1
1, 0
0, 0
1, 0
0, 1
0, 0
0, 0
0, 0
0, 0
1, 0
1, 0
0, 0
0, 0
0, 0
0, 0
0, 0
0, 0
0, 0
0, 0
1, 0
0, 0
0, 0
0, 0
1, 0
0, 0
0, 0
0, 0
0, 0
0, 0
0, 0
0, 0
0, 0
0, 0
0, 0
0, 0
0, 0
0, 1
0, 0
0, 0
0, 0
0, 0
0, 0
0, 0
0, 0
0, 0
0, 0
0, 0
0, 0
0, 0
0, 0
0, 0
0, 0
0, 0
0, 0
0, 0
0, 0
0, 0
0, 0
0, 0
0, 0
0, 0
0, 0
0, 0
0, 0
0, 0
0, 0
0, 0
0, 0
0, 0
0, 0
0, 0
0, 0
0, 0
0, 0
0, 0
0, 0
0, 0
0, 0
0, 0
0, 0
0, 0
0, 0
0, 0
0, 0
0, 0
0, 0
0, 0
0, 0
0, 0
0, 0
0, 0
0, 0
0, 0
0, 0
0, 0
0, 0
0, 0
0, 0
0, 0
0, 0
0, 0
0, 0
0, 0
0, 0
0, 0
0, 0
0, 0
0, 0
0, 0
0, 0
0, 0
0, 0
0, 0
0, 0
0, 0
0, 0
0, 0
0, 0
0, 0
0, 0
0, 0
#ENDOFDATA     end of spectrum data