File: host_upload/02-11-2024/rqc/uplink1/ps__0567_0717304816_000rfs_shot_305.msa
#FORMAT      : EMSA/MAS spectral data file
#VERSION     : TC202v2.0 PIXL
#TITLE       : Novarupta (sol567) subset1
#DATE        : 02-11-2024      Date in the format DD-MMM-YYYY, for example 07-JUL-2010
#TIME        :             The time of day at which the spectrum was recorded, in 24-hour format
#OWNER       : PIXL Flight Model       (PIXL will use this to indicate which instrument took the data.)
#NPOINTS     : 4096     Number of data points in the spectrum (This can be zero for configuration only files)
#NCOLUMNS    : 2     Number of data columns in the spectrum (This can be zero for configuration only files)
#XUNITS      : eV
#YUNITS      : COUNTS
#DATATYPE    : YY
#XPERCHAN    : 7.862, 7.881   eV per channel (separate by commas if more than one detector)
#OFFSET      : 18.5, -22.4         eV of first channel  (separate by commas if more than one detector
#SIGNALTYPE  : XRF
#YP_TEMP     : 1.145
#LIVETIME    : 8.83392, 8.80441   seconds (separate by commas if more than one detector)
#REALTIME    : 10, 10.0   seconds (separate by commas if more than one detector)
#SPECTRUM    : start of spectrum data
0, 0
0, 0
0, 0
0, 0
0, 0
0, 0
0, 0
0, 2
2, 2
3, 1
5, 6
4, 15
14, 18
16, 23
34, 35
84, 135
446, 526
80, 118
29, 37
16, 31
66, 58
269, 339
110, 131
75, 88
225, 273
106, 124
66, 78
31, 29
9, 8
2, 14
37, 29
20, 9
18, 25
189, 268
308, 394
53, 67
40, 69
38, 53
9, 17
7, 12
16, 13
55, 75
37, 39
8, 19
19, 17
10, 14
13, 10
6, 19
4, 23
20, 30
17, 30
10, 12
11, 13
34, 47
39, 57
22, 21
28, 31
327, 506
1504, 1877
995, 1081
96, 75
17, 12
18, 26
84, 105
233, 303
169, 159
14, 19
5, 11
7, 15
5, 13
3, 7
3, 5
5, 7
4, 9
6, 10
7, 7
3, 10
6, 9
5, 12
14, 12
4, 7
7, 6
5, 1
5, 5
10, 8
5, 6
3, 5
4, 1
3, 4
5, 3
2, 5
2, 2
5, 5
5, 6
1, 8
3, 0
8, 2
2, 4
6, 4
5, 1
2, 3
1, 2
1, 3
1, 2
0, 1
2, 3
2, 1
1, 2
3, 1
4, 3
2, 3
3, 2
1, 1
1, 4
4, 4
0, 1
3, 4
3, 4
3, 2
1, 2
0, 0
0, 3
2, 2
0, 1
0, 1
0, 1
2, 1
2, 3
3, 1
4, 3
1, 1
1, 1
0, 0
0, 2
1, 0
0, 0
0, 2
1, 2
0, 1
1, 4
0, 0
0, 0
1, 0
1, 0
1, 0
0, 0
2, 0
0, 1
0, 0
1, 0
0, 0
1, 1
0, 0
1, 0
0, 0
0, 2
0, 0
0, 1
1, 0
0, 0
0, 0
2, 0
0, 0
0, 1
0, 0
0, 1
0, 0
0, 0
0, 1
2, 0
0, 0
0, 0
0, 0
0, 0
0, 0
0, 0
0, 0
0, 0
0, 0
0, 0
0, 0
0, 0
0, 0
1, 0
1, 0
0, 0
0, 0
0, 0
0, 0
0, 0
1, 0
0, 0
0, 0
0, 0
0, 0
0, 0
1, 0
0, 0
0, 0
0, 0
0, 0
0, 0
0, 0
0, 0
0, 0
0, 0
0, 0
0, 0
0, 0
0, 0
0, 0
0, 0
0, 0
1, 0
0, 0
0, 0
0, 0
0, 0
0, 0
0, 0
0, 0
0, 0
0, 0
0, 0
0, 0
0, 0
0, 0
0, 0
0, 0
0, 0
0, 0
0, 0
0, 0
0, 0
0, 0
0, 0
0, 0
0, 0
0, 0
0, 0
0, 0
0, 0
0, 0
0, 0
0, 0
0, 0
0, 0
0, 0
0, 0
0, 0
0, 0
0, 0
0, 0
0, 0
0, 0
0, 0
0, 0
0, 0
0, 0
0, 0
0, 0
0, 0
0, 0
0, 0
0, 0
0, 0
0, 0
0, 0
0, 0
0, 0
0, 0
0, 0
0, 0
0, 0
0, 0
0, 0
0, 0
0, 0
0, 0
0, 0
0, 0
0, 0
0, 0
0, 0
0, 0
0, 0
0, 0
0, 0
0, 0
0, 0
0, 0
0, 0
0, 0
0, 0
#ENDOFDATA     end of spectrum data