File: host_upload/02-11-2024/rqc/uplink1/ps__0567_0717304816_000rfs_shot_420.msa
#FORMAT      : EMSA/MAS spectral data file
#VERSION     : TC202v2.0 PIXL
#TITLE       : Novarupta (sol567) subset1
#DATE        : 02-11-2024      Date in the format DD-MMM-YYYY, for example 07-JUL-2010
#TIME        :             The time of day at which the spectrum was recorded, in 24-hour format
#OWNER       : PIXL Flight Model       (PIXL will use this to indicate which instrument took the data.)
#NPOINTS     : 4096     Number of data points in the spectrum (This can be zero for configuration only files)
#NCOLUMNS    : 2     Number of data columns in the spectrum (This can be zero for configuration only files)
#XUNITS      : eV
#YUNITS      : COUNTS
#DATATYPE    : YY
#XPERCHAN    : 7.862, 7.881   eV per channel (separate by commas if more than one detector)
#OFFSET      : 18.5, -22.4         eV of first channel  (separate by commas if more than one detector
#SIGNALTYPE  : XRF
#YP_TEMP     : 1.947
#LIVETIME    : 8.82926, 8.80636   seconds (separate by commas if more than one detector)
#REALTIME    : 10, 10.0   seconds (separate by commas if more than one detector)
#SPECTRUM    : start of spectrum data
0, 0
0, 0
0, 0
0, 0
0, 0
0, 0
0, 0
1, 1
2, 4
3, 1
1, 1
6, 14
10, 16
21, 16
41, 44
106, 126
488, 538
119, 114
28, 39
17, 20
49, 61
317, 315
115, 117
54, 86
202, 211
105, 122
78, 93
26, 16
10, 16
8, 11
25, 33
18, 20
13, 19
201, 250
331, 329
56, 50
37, 45
46, 46
17, 14
6, 11
26, 29
56, 58
43, 31
18, 9
14, 20
14, 19
14, 21
8, 9
18, 15
25, 23
14, 16
12, 14
9, 11
29, 38
55, 51
22, 21
33, 39
370, 450
1554, 1888
1071, 1026
129, 108
14, 15
30, 28
90, 92
256, 279
143, 151
25, 18
10, 6
11, 11
9, 11
4, 5
4, 5
3, 5
4, 4
6, 5
7, 6
6, 7
5, 8
8, 12
12, 14
2, 10
1, 4
8, 3
3, 7
3, 3
4, 5
4, 3
8, 8
3, 0
6, 6
4, 2
2, 3
3, 4
8, 5
1, 1
7, 4
6, 2
4, 2
5, 7
7, 3
3, 4
1, 0
3, 4
4, 0
4, 5
3, 4
2, 3
2, 2
3, 2
4, 2
2, 1
2, 0
3, 4
0, 2
0, 1
3, 0
2, 4
3, 2
0, 5
5, 1
0, 0
1, 2
1, 1
0, 1
2, 0
1, 2
1, 1
1, 0
2, 0
0, 2
0, 0
1, 1
1, 1
0, 0
4, 0
0, 1
1, 1
0, 0
0, 0
0, 0
1, 2
4, 0
0, 1
0, 2
1, 0
2, 0
1, 1
1, 0
0, 1
1, 0
2, 1
1, 1
1, 0
1, 0
0, 0
0, 0
2, 0
0, 0
0, 1
0, 1
0, 0
0, 1
0, 0
0, 0
0, 0
0, 1
0, 0
1, 1
0, 1
0, 0
0, 0
0, 0
1, 0
1, 1
0, 1
0, 1
0, 0
0, 0
0, 0
0, 0
0, 0
0, 0
1, 0
0, 0
0, 0
0, 0
0, 0
0, 0
0, 0
0, 0
0, 0
0, 0
0, 0
0, 0
0, 0
0, 0
0, 0
0, 0
0, 0
0, 0
0, 0
0, 0
0, 0
0, 0
0, 0
0, 0
0, 0
0, 0
0, 1
0, 0
0, 0
0, 0
0, 0
0, 0
0, 0
0, 0
0, 0
0, 0
0, 0
0, 0
0, 1
0, 0
0, 0
0, 0
0, 0
0, 0
0, 0
0, 0
0, 0
0, 0
0, 0
0, 0
0, 0
0, 0
0, 0
0, 0
0, 0
0, 0
0, 0
0, 0
0, 0
0, 0
0, 0
0, 0
0, 0
0, 0
0, 0
0, 0
0, 0
0, 0
0, 0
0, 0
0, 0
0, 0
0, 0
0, 0
0, 0
0, 0
0, 0
0, 0
0, 0
0, 0
0, 0
0, 0
0, 0
0, 0
0, 0
0, 0
0, 0
0, 0
0, 0
0, 0
0, 0
0, 0
0, 0
0, 0
0, 0
0, 0
0, 0
0, 0
0, 0
0, 0
0, 0
0, 0
0, 0
0, 0
0, 0
0, 0
0, 0
0, 0
0, 0
0, 0
0, 0
0, 0
#ENDOFDATA     end of spectrum data