File: host_upload/02-11-2024/rqc/uplink1/ps__0567_0717304816_000rfs_shot_336.msa
#FORMAT      : EMSA/MAS spectral data file
#VERSION     : TC202v2.0 PIXL
#TITLE       : Novarupta (sol567) subset1
#DATE        : 02-11-2024      Date in the format DD-MMM-YYYY, for example 07-JUL-2010
#TIME        :             The time of day at which the spectrum was recorded, in 24-hour format
#OWNER       : PIXL Flight Model       (PIXL will use this to indicate which instrument took the data.)
#NPOINTS     : 4096     Number of data points in the spectrum (This can be zero for configuration only files)
#NCOLUMNS    : 2     Number of data columns in the spectrum (This can be zero for configuration only files)
#XUNITS      : eV
#YUNITS      : COUNTS
#DATATYPE    : YY
#XPERCHAN    : 7.862, 7.881   eV per channel (separate by commas if more than one detector)
#OFFSET      : 18.5, -22.4         eV of first channel  (separate by commas if more than one detector
#SIGNALTYPE  : XRF
#YP_TEMP     : 1.369
#LIVETIME    : 8.84783, 8.82289   seconds (separate by commas if more than one detector)
#REALTIME    : 10, 10.0   seconds (separate by commas if more than one detector)
#SPECTRUM    : start of spectrum data
0, 0
0, 0
0, 0
0, 0
0, 0
0, 0
0, 1
0, 1
2, 3
1, 6
3, 1
17, 5
15, 12
28, 24
42, 56
101, 129
448, 507
123, 108
26, 33
21, 21
41, 41
267, 337
112, 114
66, 78
223, 230
92, 113
75, 60
36, 27
12, 14
3, 12
24, 26
11, 12
14, 19
181, 225
289, 313
57, 43
35, 39
41, 53
13, 10
7, 8
28, 29
70, 69
34, 41
12, 13
13, 10
17, 21
14, 19
9, 15
8, 14
29, 29
18, 20
6, 15
11, 14
40, 33
62, 39
32, 21
27, 34
321, 472
1465, 1732
971, 1017
135, 79
14, 20
23, 15
77, 99
207, 269
143, 154
22, 20
6, 10
10, 10
4, 8
7, 8
4, 7
8, 8
6, 9
2, 3
6, 8
4, 10
9, 5
5, 10
14, 11
5, 7
6, 10
5, 3
3, 4
6, 3
0, 4
1, 5
2, 8
3, 8
2, 4
8, 3
5, 4
7, 6
1, 6
4, 3
2, 3
4, 3
1, 3
1, 2
3, 4
3, 2
3, 4
3, 5
1, 6
1, 3
1, 3
2, 2
5, 4
1, 2
1, 5
0, 3
4, 0
0, 2
5, 2
1, 3
2, 0
2, 4
1, 1
0, 0
0, 2
1, 0
3, 4
3, 4
3, 0
2, 1
1, 0
2, 0
0, 0
1, 0
0, 1
0, 0
0, 2
1, 1
0, 0
1, 0
1, 1
0, 2
0, 1
0, 1
0, 0
1, 1
0, 2
0, 1
0, 0
0, 0
1, 0
0, 0
0, 0
0, 0
2, 0
0, 1
0, 0
1, 1
2, 0
1, 1
1, 0
0, 0
0, 0
0, 0
0, 1
0, 1
0, 0
0, 0
0, 1
1, 0
0, 0
1, 0
0, 1
0, 0
0, 0
0, 0
0, 0
0, 0
0, 0
0, 2
0, 0
0, 0
0, 0
0, 0
0, 1
0, 0
0, 0
0, 0
0, 0
0, 0
0, 0
1, 0
0, 0
0, 0
0, 1
0, 0
0, 0
0, 0
0, 0
0, 0
0, 1
0, 0
0, 0
0, 0
0, 0
0, 0
0, 0
0, 0
0, 0
0, 0
0, 0
0, 0
0, 0
2, 0
0, 0
0, 0
0, 0
0, 0
0, 0
0, 0
0, 0
0, 0
0, 0
0, 0
0, 0
0, 0
0, 0
0, 0
0, 0
0, 0
0, 0
0, 0
0, 0
0, 0
0, 0
0, 0
0, 0
0, 0
0, 0
0, 0
0, 0
0, 0
1, 0
0, 1
0, 0
0, 0
0, 0
0, 0
0, 0
0, 0
0, 0
0, 0
0, 0
0, 0
0, 0
0, 0
0, 0
0, 0
0, 0
0, 0
0, 0
0, 0
0, 0
0, 0
0, 0
0, 0
0, 0
0, 0
0, 0
0, 0
0, 0
0, 0
0, 0
0, 0
0, 0
0, 0
0, 0
0, 0
0, 0
0, 0
0, 0
0, 0
0, 0
0, 0
0, 0
0, 0
0, 0
0, 0
0, 0
0, 0
0, 0
0, 0
0, 0
0, 0
0, 0
0, 0
0, 0
0, 0
0, 0
#ENDOFDATA     end of spectrum data