File: host_upload/02-11-2024/rqc/uplink1/ps__0567_0717304816_000rfs_shot_499.msa
#FORMAT      : EMSA/MAS spectral data file
#VERSION     : TC202v2.0 PIXL
#TITLE       : Novarupta (sol567) subset1
#DATE        : 02-11-2024      Date in the format DD-MMM-YYYY, for example 07-JUL-2010
#TIME        :             The time of day at which the spectrum was recorded, in 24-hour format
#OWNER       : PIXL Flight Model       (PIXL will use this to indicate which instrument took the data.)
#NPOINTS     : 4096     Number of data points in the spectrum (This can be zero for configuration only files)
#NCOLUMNS    : 2     Number of data columns in the spectrum (This can be zero for configuration only files)
#XUNITS      : eV
#YUNITS      : COUNTS
#DATATYPE    : YY
#XPERCHAN    : 7.862, 7.881   eV per channel (separate by commas if more than one detector)
#OFFSET      : 18.5, -22.4         eV of first channel  (separate by commas if more than one detector
#SIGNALTYPE  : XRF
#YP_TEMP     : 1.979
#LIVETIME    : 8.82132, 8.81225   seconds (separate by commas if more than one detector)
#REALTIME    : 10, 10.0   seconds (separate by commas if more than one detector)
#SPECTRUM    : start of spectrum data
0, 0
0, 0
0, 0
0, 0
0, 0
0, 0
0, 0
0, 2
5, 0
1, 3
2, 4
8, 19
13, 17
22, 24
39, 47
111, 129
506, 570
138, 119
27, 36
26, 29
49, 52
313, 297
140, 116
58, 72
221, 267
113, 113
73, 71
30, 30
9, 9
4, 14
22, 29
21, 18
16, 23
194, 268
331, 373
48, 50
46, 51
61, 63
15, 14
7, 15
17, 22
64, 65
26, 23
15, 17
15, 15
27, 22
15, 8
8, 19
13, 24
24, 28
21, 27
12, 17
8, 9
40, 36
53, 47
25, 21
34, 34
377, 444
1593, 2014
1138, 1044
133, 101
18, 24
30, 34
87, 103
277, 294
149, 168
24, 22
5, 8
14, 10
12, 5
8, 4
6, 3
7, 7
2, 9
11, 9
5, 3
12, 7
11, 9
11, 8
7, 14
5, 8
1, 6
3, 5
2, 7
5, 8
7, 10
4, 5
6, 9
7, 4
5, 2
6, 6
2, 5
3, 5
4, 3
2, 0
11, 3
4, 7
4, 5
4, 1
5, 1
3, 4
5, 0
2, 2
3, 3
2, 2
2, 5
1, 2
2, 3
3, 3
2, 2
6, 5
4, 2
1, 1
1, 2
2, 3
2, 2
2, 6
3, 3
6, 3
3, 2
2, 2
1, 4
1, 1
2, 3
1, 1
0, 0
1, 1
4, 2
0, 1
1, 0
2, 1
0, 1
0, 2
0, 0
2, 1
0, 0
0, 0
1, 0
0, 2
1, 0
0, 1
0, 1
0, 0
0, 0
3, 2
1, 1
1, 1
0, 0
3, 0
1, 0
2, 0
0, 0
0, 0
0, 0
1, 1
0, 0
0, 0
0, 0
0, 0
1, 0
0, 0
0, 0
0, 1
0, 1
0, 0
1, 0
0, 1
0, 0
0, 1
0, 0
0, 0
0, 0
0, 0
1, 1
1, 1
0, 0
0, 0
0, 0
0, 0
0, 0
0, 0
0, 0
1, 0
0, 1
0, 0
0, 0
0, 0
0, 0
0, 0
1, 0
0, 0
0, 0
1, 1
0, 1
0, 0
0, 1
0, 0
0, 0
0, 0
1, 0
0, 0
0, 0
0, 0
0, 0
0, 0
0, 0
0, 0
0, 0
0, 1
0, 0
0, 0
0, 1
0, 0
0, 0
0, 0
0, 0
0, 0
0, 0
0, 0
0, 0
0, 0
0, 0
0, 0
0, 0
0, 0
0, 0
0, 0
0, 0
0, 0
0, 0
0, 0
0, 0
0, 0
0, 0
0, 0
0, 0
0, 0
0, 0
0, 0
0, 0
0, 0
0, 0
0, 0
0, 0
0, 0
0, 0
0, 0
0, 0
0, 0
0, 0
0, 0
0, 0
0, 0
0, 0
0, 0
0, 0
0, 0
0, 0
0, 0
0, 0
0, 0
0, 0
0, 0
0, 0
0, 0
0, 0
0, 0
0, 0
0, 0
0, 0
0, 0
0, 0
0, 0
0, 0
0, 0
0, 0
0, 0
0, 0
0, 0
0, 0
0, 0
0, 0
0, 0
0, 0
0, 0
0, 0
0, 0
0, 0
0, 0
0, 0
0, 0
0, 0
0, 0
0, 0
#ENDOFDATA     end of spectrum data