File: host_upload/02-11-2024/rqc/uplink1/ps__0567_0717304816_000rfs_shot_100.msa
#FORMAT      : EMSA/MAS spectral data file
#VERSION     : TC202v2.0 PIXL
#TITLE       : Novarupta (sol567) subset1
#DATE        : 02-11-2024      Date in the format DD-MMM-YYYY, for example 07-JUL-2010
#TIME        :             The time of day at which the spectrum was recorded, in 24-hour format
#OWNER       : PIXL Flight Model       (PIXL will use this to indicate which instrument took the data.)
#NPOINTS     : 4096     Number of data points in the spectrum (This can be zero for configuration only files)
#NCOLUMNS    : 2     Number of data columns in the spectrum (This can be zero for configuration only files)
#XUNITS      : eV
#YUNITS      : COUNTS
#DATATYPE    : YY
#XPERCHAN    : 7.862, 7.881   eV per channel (separate by commas if more than one detector)
#OFFSET      : 18.5, -22.4         eV of first channel  (separate by commas if more than one detector
#SIGNALTYPE  : XRF
#YP_TEMP     : -0.908
#LIVETIME    : 8.84503, 8.82857   seconds (separate by commas if more than one detector)
#REALTIME    : 10, 10.0   seconds (separate by commas if more than one detector)
#SPECTRUM    : start of spectrum data
0, 0
0, 0
0, 0
0, 0
0, 0
0, 0
0, 0
1, 2
5, 5
2, 5
8, 1
9, 7
9, 13
22, 35
28, 55
103, 142
468, 528
109, 137
23, 21
23, 22
65, 58
270, 319
124, 118
76, 73
195, 232
95, 117
77, 61
27, 23
7, 6
7, 9
18, 34
19, 26
22, 27
224, 238
300, 327
39, 46
36, 39
43, 47
15, 11
17, 9
22, 28
64, 64
33, 30
10, 11
18, 14
16, 19
11, 15
10, 7
22, 15
15, 44
19, 27
15, 13
4, 18
27, 48
51, 50
25, 23
33, 43
424, 518
1487, 1901
925, 899
95, 102
18, 17
24, 21
88, 98
237, 265
140, 123
12, 14
8, 11
14, 15
8, 4
7, 7
6, 9
4, 9
8, 6
5, 7
9, 8
8, 3
6, 9
9, 7
13, 12
3, 8
3, 9
7, 6
10, 7
4, 9
6, 5
7, 4
9, 2
3, 3
5, 5
4, 5
4, 6
8, 2
4, 1
4, 6
3, 4
5, 2
5, 7
3, 3
4, 2
3, 4
1, 1
2, 1
2, 3
3, 4
5, 3
2, 5
2, 2
0, 0
3, 2
3, 2
0, 1
0, 2
5, 2
0, 1
1, 2
4, 1
5, 1
3, 3
0, 3
2, 1
0, 0
2, 0
3, 0
1, 1
1, 3
0, 1
2, 1
0, 1
1, 1
1, 1
0, 1
0, 1
0, 0
1, 2
0, 0
0, 1
1, 3
0, 0
0, 3
1, 2
2, 1
0, 0
0, 1
0, 0
1, 0
0, 1
0, 0
1, 0
0, 0
0, 0
0, 1
1, 2
0, 2
0, 1
0, 0
0, 0
0, 0
1, 0
0, 0
0, 1
0, 0
0, 0
1, 0
0, 0
0, 0
1, 0
1, 0
1, 0
0, 1
0, 0
0, 0
0, 0
1, 0
0, 0
0, 0
0, 0
0, 1
0, 0
0, 1
0, 0
0, 0
0, 0
0, 0
0, 1
0, 0
0, 0
0, 0
0, 0
0, 0
0, 0
0, 0
0, 0
0, 0
0, 0
0, 0
0, 0
0, 0
0, 0
0, 0
0, 0
0, 0
0, 0
0, 0
0, 0
0, 0
0, 0
0, 0
0, 0
0, 0
0, 0
0, 0
0, 0
0, 0
0, 0
0, 0
0, 0
0, 0
0, 0
0, 0
0, 0
0, 0
0, 0
0, 0
0, 0
0, 0
0, 0
0, 0
0, 0
0, 0
0, 0
0, 0
0, 0
0, 0
0, 0
0, 0
0, 0
0, 0
0, 0
0, 0
0, 0
0, 0
0, 0
0, 0
0, 0
0, 0
0, 0
0, 0
0, 0
0, 0
0, 0
0, 0
0, 0
0, 0
0, 0
0, 0
0, 0
0, 0
0, 0
0, 0
0, 0
0, 0
0, 0
0, 0
0, 0
0, 0
0, 0
0, 0
0, 0
0, 0
0, 0
0, 0
0, 0
0, 0
0, 0
0, 0
0, 0
0, 0
0, 0
0, 0
0, 0
0, 0
0, 0
0, 0
0, 0
0, 0
0, 0
0, 0
0, 0
0, 0
0, 0
0, 0
0, 0
0, 0
#ENDOFDATA     end of spectrum data