File: host_upload/02-11-2024/rqc/uplink1/ps__0567_0717304816_000rfs_shot_212.msa
#FORMAT      : EMSA/MAS spectral data file
#VERSION     : TC202v2.0 PIXL
#TITLE       : Novarupta (sol567) subset1
#DATE        : 02-11-2024      Date in the format DD-MMM-YYYY, for example 07-JUL-2010
#TIME        :             The time of day at which the spectrum was recorded, in 24-hour format
#OWNER       : PIXL Flight Model       (PIXL will use this to indicate which instrument took the data.)
#NPOINTS     : 4096     Number of data points in the spectrum (This can be zero for configuration only files)
#NCOLUMNS    : 2     Number of data columns in the spectrum (This can be zero for configuration only files)
#XUNITS      : eV
#YUNITS      : COUNTS
#DATATYPE    : YY
#XPERCHAN    : 7.862, 7.881   eV per channel (separate by commas if more than one detector)
#OFFSET      : 18.5, -22.4         eV of first channel  (separate by commas if more than one detector
#SIGNALTYPE  : XRF
#YP_TEMP     : 0.728
#LIVETIME    : 8.8407, 8.6361   seconds (separate by commas if more than one detector)
#REALTIME    : 10, 10.0   seconds (separate by commas if more than one detector)
#SPECTRUM    : start of spectrum data
0, 0
0, 0
0, 0
0, 0
0, 0
0, 0
0, 0
0, 1
2, 2
2, 2
2, 4
14, 12
12, 8
15, 29
31, 45
110, 133
453, 542
109, 93
26, 36
19, 23
42, 65
290, 326
117, 108
59, 68
179, 218
97, 112
62, 69
23, 31
14, 11
8, 12
20, 28
16, 22
22, 23
202, 293
307, 334
48, 50
40, 53
59, 62
13, 9
8, 10
25, 27
55, 72
29, 29
12, 16
15, 12
12, 18
12, 19
6, 11
14, 10
29, 25
27, 22
11, 8
8, 15
33, 44
48, 43
18, 25
21, 44
377, 477
1585, 1757
1007, 1020
125, 93
14, 18
18, 27
68, 97
235, 285
132, 156
17, 16
10, 12
12, 14
12, 8
3, 8
9, 7
7, 5
6, 6
4, 7
16, 5
9, 9
2, 3
7, 13
10, 8
8, 11
4, 5
4, 6
3, 6
7, 4
4, 2
5, 5
3, 3
5, 3
4, 4
4, 4
4, 3
2, 5
5, 6
7, 9
0, 4
5, 1
5, 3
1, 3
0, 2
0, 1
1, 1
5, 1
5, 3
1, 2
0, 6
3, 2
3, 3
1, 5
3, 1
2, 3
1, 1
1, 0
4, 1
1, 1
1, 2
2, 3
8, 2
1, 2
0, 1
1, 3
1, 1
3, 0
1, 3
0, 1
4, 0
3, 2
0, 3
2, 2
0, 3
0, 1
0, 0
1, 1
1, 1
0, 3
2, 1
0, 1
0, 2
0, 1
1, 1
1, 0
1, 1
0, 2
0, 2
0, 0
1, 0
0, 0
0, 3
1, 0
0, 1
2, 2
1, 0
0, 1
0, 0
1, 1
0, 0
0, 1
1, 0
0, 0
1, 0
0, 0
0, 1
0, 0
0, 0
1, 1
0, 0
0, 0
0, 0
0, 0
0, 1
0, 0
0, 0
0, 0
0, 0
1, 0
1, 0
0, 0
0, 0
1, 0
0, 0
0, 0
0, 0
0, 1
0, 1
0, 0
0, 0
0, 0
0, 1
0, 0
0, 0
0, 0
0, 0
0, 0
0, 0
0, 0
0, 0
0, 0
0, 0
0, 1
0, 0
0, 0
0, 0
0, 0
0, 0
0, 0
0, 0
0, 0
0, 0
0, 0
0, 0
0, 0
0, 0
0, 0
0, 0
0, 0
0, 0
0, 0
0, 0
0, 0
0, 0
0, 0
0, 0
0, 0
0, 0
0, 0
1, 0
0, 0
0, 0
0, 0
0, 0
0, 0
0, 0
0, 0
0, 0
0, 0
0, 0
0, 0
0, 0
0, 0
0, 0
0, 0
0, 0
0, 0
0, 0
0, 0
0, 0
0, 0
0, 0
0, 0
0, 0
0, 0
0, 0
0, 0
0, 0
0, 0
0, 0
0, 0
0, 0
0, 0
0, 0
0, 0
0, 0
0, 0
0, 0
0, 0
0, 0
0, 0
0, 0
0, 0
0, 0
0, 0
0, 0
0, 0
0, 0
0, 0
0, 0
0, 0
0, 0
0, 0
0, 0
0, 0
0, 0
0, 0
0, 0
0, 0
0, 0
0, 0
0, 0
0, 0
0, 0
0, 0
0, 0
0, 0
0, 0
#ENDOFDATA     end of spectrum data