File: host_upload/02-11-2024/rqc/uplink1/ps__0567_0717304816_000rfs_shot_37.msa
#FORMAT      : EMSA/MAS spectral data file
#VERSION     : TC202v2.0 PIXL
#TITLE       : Novarupta (sol567) subset1
#DATE        : 02-11-2024      Date in the format DD-MMM-YYYY, for example 07-JUL-2010
#TIME        :             The time of day at which the spectrum was recorded, in 24-hour format
#OWNER       : PIXL Flight Model       (PIXL will use this to indicate which instrument took the data.)
#NPOINTS     : 4096     Number of data points in the spectrum (This can be zero for configuration only files)
#NCOLUMNS    : 2     Number of data columns in the spectrum (This can be zero for configuration only files)
#XUNITS      : eV
#YUNITS      : COUNTS
#DATATYPE    : YY
#XPERCHAN    : 7.862, 7.881   eV per channel (separate by commas if more than one detector)
#OFFSET      : 18.5, -22.4         eV of first channel  (separate by commas if more than one detector
#SIGNALTYPE  : XRF
#YP_TEMP     : -3.698
#LIVETIME    : 8.84456, 8.81281   seconds (separate by commas if more than one detector)
#REALTIME    : 10, 10.0   seconds (separate by commas if more than one detector)
#SPECTRUM    : start of spectrum data
0, 0
0, 0
0, 0
0, 0
0, 0
0, 0
0, 0
0, 3
2, 6
4, 5
2, 4
5, 13
11, 13
19, 29
33, 52
100, 161
425, 544
104, 133
33, 30
20, 19
69, 86
271, 382
108, 135
60, 107
221, 277
129, 112
69, 75
17, 36
10, 7
11, 18
30, 35
18, 20
31, 31
204, 292
311, 374
52, 50
64, 54
46, 52
13, 12
11, 10
19, 30
46, 67
35, 34
7, 12
11, 16
15, 24
14, 8
9, 12
11, 18
29, 36
22, 21
14, 19
10, 20
31, 44
34, 38
22, 18
41, 69
475, 736
1515, 1911
759, 874
87, 79
20, 16
19, 35
96, 155
261, 275
121, 135
15, 19
9, 10
13, 11
12, 5
6, 5
5, 6
9, 12
5, 7
11, 6
6, 4
9, 9
8, 14
9, 15
9, 12
7, 6
5, 9
7, 4
6, 5
4, 1
3, 4
6, 10
3, 4
4, 4
7, 3
5, 2
4, 5
5, 5
4, 3
4, 3
5, 8
2, 8
5, 6
4, 7
1, 1
1, 4
2, 4
1, 3
3, 3
2, 1
4, 4
2, 1
2, 3
1, 4
2, 1
2, 4
4, 2
2, 6
0, 1
0, 2
0, 3
4, 4
1, 2
1, 1
3, 1
1, 0
0, 1
1, 3
3, 1
1, 1
3, 2
1, 4
1, 3
0, 4
1, 1
0, 2
0, 1
1, 1
0, 0
0, 1
1, 0
1, 0
0, 0
2, 0
0, 0
0, 2
0, 1
1, 1
1, 0
1, 1
1, 2
0, 2
2, 1
0, 1
0, 0
0, 3
0, 1
0, 1
1, 1
0, 0
1, 0
0, 0
0, 0
0, 0
0, 0
0, 0
1, 1
0, 0
0, 1
1, 0
0, 0
0, 0
0, 0
0, 0
0, 1
0, 0
0, 0
2, 0
1, 0
0, 2
0, 0
0, 0
0, 0
0, 0
0, 1
0, 0
0, 0
0, 0
0, 0
0, 0
0, 0
0, 0
0, 0
0, 1
0, 0
0, 0
0, 0
0, 1
0, 0
0, 0
1, 0
0, 0
0, 0
0, 0
1, 1
0, 0
0, 0
0, 0
0, 0
0, 0
0, 0
0, 0
0, 0
0, 0
0, 0
0, 0
0, 0
0, 0
0, 0
0, 0
0, 0
0, 0
0, 0
0, 0
1, 0
0, 0
0, 0
0, 0
0, 0
0, 0
0, 0
0, 0
0, 0
0, 0
0, 0
0, 0
0, 0
0, 0
0, 0
0, 0
0, 0
0, 0
0, 0
0, 0
0, 0
0, 0
0, 0
0, 0
0, 0
0, 0
0, 0
0, 0
0, 0
0, 0
0, 0
0, 0
0, 0
0, 0
0, 0
0, 0
0, 0
0, 0
0, 0
0, 0
0, 0
0, 0
0, 0
0, 0
0, 0
0, 0
0, 0
0, 0
0, 0
0, 0
0, 0
0, 0
0, 0
0, 0
0, 0
0, 0
0, 0
0, 0
0, 0
0, 0
0, 0
0, 0
0, 0
0, 0
0, 0
0, 0
0, 0
0, 0
0, 0
0, 0
0, 0
0, 0
0, 0
0, 0
0, 0
#ENDOFDATA     end of spectrum data