File: host_upload/02-11-2024/rqc/uplink1/ps__0567_0717304816_000rfs_shot_165.msa
#FORMAT      : EMSA/MAS spectral data file
#VERSION     : TC202v2.0 PIXL
#TITLE       : Novarupta (sol567) subset1
#DATE        : 02-11-2024      Date in the format DD-MMM-YYYY, for example 07-JUL-2010
#TIME        :             The time of day at which the spectrum was recorded, in 24-hour format
#OWNER       : PIXL Flight Model       (PIXL will use this to indicate which instrument took the data.)
#NPOINTS     : 4096     Number of data points in the spectrum (This can be zero for configuration only files)
#NCOLUMNS    : 2     Number of data columns in the spectrum (This can be zero for configuration only files)
#XUNITS      : eV
#YUNITS      : COUNTS
#DATATYPE    : YY
#XPERCHAN    : 7.862, 7.881   eV per channel (separate by commas if more than one detector)
#OFFSET      : 18.5, -22.4         eV of first channel  (separate by commas if more than one detector
#SIGNALTYPE  : XRF
#YP_TEMP     : 0.215
#LIVETIME    : 8.82729, 8.80689   seconds (separate by commas if more than one detector)
#REALTIME    : 10, 10.0   seconds (separate by commas if more than one detector)
#SPECTRUM    : start of spectrum data
0, 0
0, 0
0, 0
0, 0
0, 0
0, 0
0, 0
0, 2
0, 1
1, 6
0, 3
12, 9
20, 11
20, 25
43, 48
126, 126
512, 532
124, 118
33, 34
29, 23
67, 50
291, 337
115, 121
66, 86
235, 234
132, 121
74, 72
28, 37
9, 11
8, 13
27, 28
17, 20
26, 23
202, 237
325, 347
65, 50
48, 57
50, 40
8, 12
13, 9
24, 31
52, 54
29, 39
12, 14
12, 17
22, 16
8, 11
14, 15
11, 15
33, 41
25, 23
16, 9
21, 7
45, 39
50, 54
24, 28
33, 32
390, 503
1623, 1814
1084, 974
116, 104
12, 21
24, 21
90, 117
247, 284
138, 160
23, 20
9, 8
14, 13
11, 6
6, 6
4, 6
6, 6
8, 4
9, 6
6, 3
11, 9
10, 9
6, 9
6, 9
11, 11
5, 5
3, 0
7, 11
5, 6
6, 10
7, 7
6, 5
4, 3
4, 4
0, 4
5, 3
4, 3
5, 7
2, 2
3, 4
0, 7
5, 4
1, 4
4, 4
4, 4
4, 5
2, 3
3, 2
3, 4
3, 0
4, 5
2, 1
3, 1
3, 3
2, 3
2, 1
1, 1
0, 3
1, 1
1, 1
3, 6
3, 2
1, 2
0, 4
1, 1
0, 0
2, 1
1, 2
1, 3
1, 2
0, 1
1, 0
2, 1
0, 2
1, 1
1, 2
0, 0
0, 0
1, 1
2, 1
0, 3
0, 1
3, 1
0, 0
1, 1
1, 0
2, 0
0, 0
0, 0
1, 0
0, 0
0, 1
0, 0
1, 0
1, 0
1, 0
1, 0
0, 1
0, 1
0, 0
1, 0
1, 0
0, 1
1, 0
0, 0
1, 0
0, 0
0, 0
0, 1
0, 0
0, 0
1, 0
1, 1
0, 0
1, 0
1, 0
0, 0
1, 0
0, 0
0, 0
0, 0
0, 0
0, 0
0, 0
0, 0
0, 0
0, 1
0, 1
0, 0
0, 1
0, 0
0, 0
0, 0
0, 0
0, 0
0, 0
0, 0
0, 0
0, 0
0, 0
0, 0
0, 0
0, 0
0, 0
0, 0
0, 0
0, 0
0, 0
0, 0
0, 0
0, 0
0, 0
0, 0
0, 0
0, 0
0, 0
0, 0
0, 0
0, 0
0, 0
0, 0
0, 0
0, 0
0, 0
0, 0
0, 0
0, 0
1, 0
0, 0
0, 0
0, 0
0, 0
0, 0
0, 0
0, 0
0, 0
0, 0
0, 0
0, 0
0, 0
0, 0
0, 0
0, 0
0, 0
0, 0
0, 0
0, 0
0, 0
0, 0
0, 0
0, 0
0, 0
0, 0
0, 0
0, 0
0, 0
0, 0
0, 0
0, 0
0, 0
0, 0
0, 0
0, 0
0, 0
0, 0
0, 0
0, 0
0, 0
0, 0
0, 0
0, 0
0, 0
0, 0
0, 0
0, 0
0, 0
0, 0
0, 0
0, 0
0, 0
0, 0
0, 0
0, 0
0, 0
0, 0
0, 0
0, 0
0, 0
0, 0
0, 0
0, 0
0, 0
0, 0
0, 0
0, 0
0, 0
0, 0
0, 0
#ENDOFDATA     end of spectrum data