File: host_upload/02-11-2024/rqc/uplink1/ps__0567_0717304816_000rfs_shot_184.msa
#FORMAT      : EMSA/MAS spectral data file
#VERSION     : TC202v2.0 PIXL
#TITLE       : Novarupta (sol567) subset1
#DATE        : 02-11-2024      Date in the format DD-MMM-YYYY, for example 07-JUL-2010
#TIME        :             The time of day at which the spectrum was recorded, in 24-hour format
#OWNER       : PIXL Flight Model       (PIXL will use this to indicate which instrument took the data.)
#NPOINTS     : 4096     Number of data points in the spectrum (This can be zero for configuration only files)
#NCOLUMNS    : 2     Number of data columns in the spectrum (This can be zero for configuration only files)
#XUNITS      : eV
#YUNITS      : COUNTS
#DATATYPE    : YY
#XPERCHAN    : 7.862, 7.881   eV per channel (separate by commas if more than one detector)
#OFFSET      : 18.5, -22.4         eV of first channel  (separate by commas if more than one detector
#SIGNALTYPE  : XRF
#YP_TEMP     : 0.504
#LIVETIME    : 8.84049, 8.82557   seconds (separate by commas if more than one detector)
#REALTIME    : 10, 10.0   seconds (separate by commas if more than one detector)
#SPECTRUM    : start of spectrum data
0, 0
0, 0
0, 0
0, 0
0, 0
0, 0
0, 0
2, 1
2, 5
2, 3
2, 3
9, 12
8, 10
23, 25
31, 45
101, 141
475, 531
100, 113
31, 35
21, 30
53, 71
317, 361
130, 130
69, 83
267, 258
118, 128
57, 74
26, 28
5, 8
14, 7
16, 31
13, 23
24, 13
216, 254
310, 344
45, 62
33, 33
44, 52
12, 17
7, 9
16, 21
46, 69
33, 39
13, 15
13, 16
22, 20
14, 18
13, 17
15, 24
21, 24
24, 24
15, 12
9, 10
30, 37
59, 55
24, 21
38, 41
358, 442
1490, 1791
904, 998
122, 98
17, 24
17, 21
75, 117
253, 291
173, 139
18, 10
5, 5
7, 12
6, 8
3, 3
5, 6
6, 4
4, 4
9, 7
8, 9
8, 2
9, 6
7, 15
8, 8
6, 7
5, 10
4, 6
10, 8
3, 6
6, 8
1, 4
7, 2
5, 5
5, 4
8, 4
5, 8
5, 4
3, 3
5, 7
5, 2
3, 1
1, 1
1, 4
2, 4
1, 4
0, 1
1, 1
2, 3
3, 2
6, 5
0, 6
2, 2
2, 4
3, 3
1, 1
0, 2
1, 0
1, 1
1, 3
2, 2
0, 3
0, 5
1, 0
1, 1
2, 5
1, 1
3, 1
4, 4
1, 3
0, 5
2, 0
0, 1
0, 0
0, 1
0, 1
1, 1
0, 1
2, 1
2, 0
1, 0
0, 1
2, 0
2, 2
0, 0
1, 0
0, 1
0, 2
1, 1
0, 1
1, 0
1, 0
0, 0
2, 0
2, 1
0, 0
0, 1
1, 1
0, 0
0, 0
0, 0
0, 0
0, 2
0, 0
0, 0
0, 0
1, 1
0, 0
1, 0
1, 1
0, 1
0, 0
0, 0
1, 1
0, 0
0, 0
0, 0
2, 1
1, 1
0, 0
1, 0
0, 0
0, 0
0, 0
0, 0
0, 0
0, 0
0, 0
0, 1
0, 0
0, 0
0, 0
0, 0
0, 0
0, 0
0, 0
0, 0
0, 0
0, 0
0, 0
0, 0
0, 0
0, 0
0, 0
0, 0
0, 0
0, 0
0, 0
0, 0
0, 0
0, 0
0, 0
0, 0
0, 0
0, 0
0, 0
0, 0
0, 0
0, 0
0, 0
0, 0
0, 0
0, 0
0, 0
0, 0
0, 0
0, 0
0, 0
0, 1
0, 0
0, 0
0, 0
0, 0
0, 0
0, 0
0, 0
0, 0
0, 0
0, 0
0, 0
0, 0
0, 0
0, 0
0, 0
0, 0
0, 0
0, 0
0, 0
0, 0
0, 0
0, 0
0, 0
0, 0
0, 0
0, 0
0, 0
0, 0
0, 0
0, 0
0, 0
0, 0
0, 0
0, 0
0, 0
0, 0
0, 0
0, 0
0, 0
0, 0
0, 0
0, 0
0, 0
0, 0
0, 0
0, 0
0, 0
0, 0
0, 0
0, 0
0, 0
0, 0
0, 0
0, 0
0, 0
0, 0
0, 0
0, 0
0, 0
0, 0
0, 0
0, 0
0, 0
0, 0
0, 0
0, 0
0, 0
0, 0
0, 0
0, 0
#ENDOFDATA     end of spectrum data