File: host_upload/02-11-2024/rqc/uplink1/ps__0567_0717304816_000rfs_shot_480.msa
#FORMAT      : EMSA/MAS spectral data file
#VERSION     : TC202v2.0 PIXL
#TITLE       : Novarupta (sol567) subset1
#DATE        : 02-11-2024      Date in the format DD-MMM-YYYY, for example 07-JUL-2010
#TIME        :             The time of day at which the spectrum was recorded, in 24-hour format
#OWNER       : PIXL Flight Model       (PIXL will use this to indicate which instrument took the data.)
#NPOINTS     : 4096     Number of data points in the spectrum (This can be zero for configuration only files)
#NCOLUMNS    : 2     Number of data columns in the spectrum (This can be zero for configuration only files)
#XUNITS      : eV
#YUNITS      : COUNTS
#DATATYPE    : YY
#XPERCHAN    : 7.862, 7.881   eV per channel (separate by commas if more than one detector)
#OFFSET      : 18.5, -22.4         eV of first channel  (separate by commas if more than one detector
#SIGNALTYPE  : XRF
#YP_TEMP     : 1.786
#LIVETIME    : 8.83656, 8.81046   seconds (separate by commas if more than one detector)
#REALTIME    : 10, 10.0   seconds (separate by commas if more than one detector)
#SPECTRUM    : start of spectrum data
0, 0
0, 0
0, 0
0, 0
0, 0
0, 0
0, 0
0, 0
2, 7
2, 4
3, 1
8, 12
22, 17
26, 16
48, 54
103, 124
492, 534
131, 109
20, 33
20, 16
48, 55
275, 306
129, 103
62, 78
220, 246
104, 110
83, 91
20, 28
15, 9
1, 9
20, 38
14, 22
16, 20
198, 249
305, 339
41, 51
39, 39
41, 65
8, 9
8, 8
31, 22
70, 70
45, 37
17, 17
13, 19
15, 21
14, 18
4, 11
15, 13
24, 30
20, 25
17, 15
13, 12
33, 49
48, 56
23, 12
25, 39
338, 477
1712, 1860
1081, 1037
152, 108
23, 18
19, 29
61, 112
244, 303
167, 135
33, 17
10, 4
8, 15
11, 4
9, 4
8, 9
2, 5
6, 9
2, 5
5, 7
5, 5
4, 8
8, 14
6, 10
4, 6
7, 3
8, 5
2, 2
10, 7
3, 8
7, 3
3, 7
9, 8
3, 1
4, 5
8, 4
8, 5
5, 7
3, 4
5, 2
2, 4
6, 3
3, 7
4, 2
4, 4
4, 3
5, 4
6, 1
1, 2
0, 0
1, 3
2, 2
2, 3
4, 1
1, 1
2, 1
2, 1
4, 4
3, 2
3, 1
4, 4
5, 2
1, 4
0, 1
2, 1
0, 3
2, 3
1, 2
2, 0
0, 1
1, 0
1, 2
2, 1
2, 1
0, 0
0, 0
0, 1
0, 0
0, 1
0, 1
2, 1
1, 2
0, 0
0, 0
2, 0
0, 1
0, 2
2, 1
0, 1
0, 0
0, 0
1, 1
1, 0
1, 1
2, 0
1, 0
1, 1
0, 0
1, 0
0, 0
0, 0
1, 0
0, 0
0, 0
0, 1
0, 0
0, 0
0, 0
1, 1
0, 1
0, 0
0, 0
0, 0
0, 0
0, 1
0, 0
2, 0
1, 0
0, 0
1, 0
0, 0
0, 0
0, 0
0, 0
0, 0
0, 0
0, 0
0, 0
0, 0
0, 0
0, 0
0, 0
0, 0
0, 0
0, 0
0, 1
0, 0
0, 0
1, 0
0, 0
0, 0
0, 0
0, 0
0, 0
0, 0
0, 0
0, 0
0, 0
0, 0
0, 0
0, 0
0, 0
0, 0
0, 0
0, 0
0, 0
0, 0
0, 0
0, 0
0, 0
0, 0
0, 0
0, 0
0, 0
0, 0
0, 0
0, 0
0, 0
0, 0
0, 0
0, 0
0, 0
0, 0
0, 0
0, 0
0, 0
0, 0
0, 0
0, 0
0, 0
0, 0
0, 0
0, 0
0, 0
0, 0
0, 0
0, 0
0, 0
0, 0
0, 0
0, 0
0, 0
0, 0
0, 0
0, 0
0, 0
0, 0
0, 0
0, 0
0, 0
0, 0
0, 0
0, 0
0, 0
0, 0
0, 0
0, 0
0, 0
0, 0
0, 0
0, 0
0, 0
0, 0
0, 0
0, 0
0, 0
0, 0
0, 0
0, 0
0, 0
0, 0
0, 0
0, 0
0, 0
0, 0
0, 0
0, 0
0, 0
0, 0
0, 0
0, 0
0, 0
0, 0
0, 0
0, 0
0, 0
0, 0
0, 0
#ENDOFDATA     end of spectrum data