File: host_upload/02-11-2024/rqc/uplink1/ps__0567_0717304816_000rfs_shot_387.msa
#FORMAT      : EMSA/MAS spectral data file
#VERSION     : TC202v2.0 PIXL
#TITLE       : Novarupta (sol567) subset1
#DATE        : 02-11-2024      Date in the format DD-MMM-YYYY, for example 07-JUL-2010
#TIME        :             The time of day at which the spectrum was recorded, in 24-hour format
#OWNER       : PIXL Flight Model       (PIXL will use this to indicate which instrument took the data.)
#NPOINTS     : 4096     Number of data points in the spectrum (This can be zero for configuration only files)
#NCOLUMNS    : 2     Number of data columns in the spectrum (This can be zero for configuration only files)
#XUNITS      : eV
#YUNITS      : COUNTS
#DATATYPE    : YY
#XPERCHAN    : 7.862, 7.881   eV per channel (separate by commas if more than one detector)
#OFFSET      : 18.5, -22.4         eV of first channel  (separate by commas if more than one detector
#SIGNALTYPE  : XRF
#YP_TEMP     : 1.658
#LIVETIME    : 8.83259, 8.80926   seconds (separate by commas if more than one detector)
#REALTIME    : 10, 10.0   seconds (separate by commas if more than one detector)
#SPECTRUM    : start of spectrum data
0, 0
0, 0
0, 0
0, 0
0, 0
0, 0
1, 0
0, 1
5, 3
1, 3
5, 2
6, 7
15, 12
20, 32
41, 49
98, 125
478, 534
138, 124
28, 21
17, 31
56, 55
269, 344
138, 124
73, 67
227, 252
133, 117
73, 85
27, 22
7, 6
11, 9
29, 32
17, 19
28, 27
200, 246
321, 321
50, 52
40, 56
65, 66
13, 11
10, 6
20, 23
52, 59
41, 37
12, 9
13, 13
18, 16
9, 12
10, 13
16, 14
33, 25
24, 23
11, 15
12, 16
24, 39
44, 48
27, 25
22, 44
345, 453
1525, 1855
1087, 1013
131, 113
16, 16
13, 22
74, 102
229, 307
165, 143
19, 15
7, 16
13, 9
7, 15
4, 3
5, 8
7, 9
5, 8
10, 4
4, 1
8, 11
5, 3
12, 11
7, 16
6, 5
6, 6
4, 4
5, 4
3, 3
6, 3
8, 2
6, 5
5, 6
2, 4
8, 5
7, 8
7, 5
1, 5
5, 8
4, 3
3, 9
4, 3
4, 3
3, 0
2, 0
4, 8
3, 1
6, 3
1, 2
4, 2
1, 4
2, 2
4, 4
0, 6
2, 1
2, 0
2, 3
4, 4
1, 0
2, 2
5, 3
2, 3
1, 3
3, 3
0, 4
1, 1
1, 1
0, 0
0, 0
2, 0
2, 0
1, 1
1, 2
1, 2
1, 1
0, 0
0, 0
0, 2
1, 2
1, 1
1, 2
1, 0
1, 0
0, 0
2, 0
1, 0
0, 1
1, 0
0, 0
0, 0
0, 0
1, 0
1, 0
0, 0
0, 0
0, 1
1, 0
0, 0
0, 0
0, 0
0, 0
0, 0
0, 0
0, 0
1, 0
0, 1
0, 0
1, 0
1, 0
0, 0
1, 0
0, 0
0, 1
0, 0
1, 1
0, 0
0, 1
0, 0
1, 1
1, 0
0, 0
0, 1
0, 0
0, 0
0, 0
0, 0
0, 0
1, 0
0, 0
0, 0
0, 0
0, 0
0, 0
0, 0
0, 0
0, 0
0, 0
0, 0
0, 0
0, 0
0, 0
0, 0
0, 0
0, 0
0, 0
0, 0
0, 1
0, 0
1, 0
0, 0
0, 0
0, 0
0, 0
0, 0
0, 0
1, 0
0, 0
0, 1
0, 0
0, 0
0, 0
0, 0
0, 0
0, 0
0, 0
0, 0
0, 0
0, 0
0, 0
0, 0
0, 0
0, 0
0, 0
0, 0
0, 0
0, 0
0, 0
0, 0
0, 0
0, 0
0, 0
0, 0
0, 0
0, 0
0, 0
0, 0
0, 0
0, 0
0, 0
0, 0
0, 0
0, 0
0, 0
0, 0
0, 0
0, 0
0, 0
0, 0
0, 0
0, 0
0, 0
0, 0
0, 0
0, 0
0, 0
0, 0
0, 0
0, 0
0, 0
0, 0
0, 0
0, 0
0, 0
0, 0
0, 0
0, 0
0, 0
0, 0
0, 0
0, 0
0, 0
0, 0
0, 0
0, 0
0, 0
0, 0
0, 0
0, 0
0, 0
0, 0
0, 0
0, 0
0, 0
0, 0
0, 0
0, 0
0, 0
0, 0
#ENDOFDATA     end of spectrum data