File: host_upload/02-11-2024/rqc/uplink1/ps__0567_0717304816_000rfs_shot_267.msa
#FORMAT      : EMSA/MAS spectral data file
#VERSION     : TC202v2.0 PIXL
#TITLE       : Novarupta (sol567) subset1
#DATE        : 02-11-2024      Date in the format DD-MMM-YYYY, for example 07-JUL-2010
#TIME        :             The time of day at which the spectrum was recorded, in 24-hour format
#OWNER       : PIXL Flight Model       (PIXL will use this to indicate which instrument took the data.)
#NPOINTS     : 4096     Number of data points in the spectrum (This can be zero for configuration only files)
#NCOLUMNS    : 2     Number of data columns in the spectrum (This can be zero for configuration only files)
#XUNITS      : eV
#YUNITS      : COUNTS
#DATATYPE    : YY
#XPERCHAN    : 7.862, 7.881   eV per channel (separate by commas if more than one detector)
#OFFSET      : 18.5, -22.4         eV of first channel  (separate by commas if more than one detector
#SIGNALTYPE  : XRF
#YP_TEMP     : 1.369
#LIVETIME    : 8.82957, 8.81605   seconds (separate by commas if more than one detector)
#REALTIME    : 10, 10.0   seconds (separate by commas if more than one detector)
#SPECTRUM    : start of spectrum data
0, 0
0, 0
0, 0
0, 0
0, 0
0, 0
0, 0
0, 0
5, 5
2, 1
1, 4
8, 15
13, 5
24, 33
39, 47
85, 133
465, 580
131, 113
31, 42
22, 30
64, 61
309, 397
132, 130
72, 74
204, 269
117, 128
54, 65
32, 42
13, 7
7, 10
24, 34
10, 23
23, 23
200, 253
295, 373
48, 60
52, 61
66, 62
19, 19
9, 10
15, 25
55, 68
29, 40
17, 16
13, 7
15, 20
14, 14
11, 20
13, 16
30, 32
21, 26
15, 13
13, 19
31, 36
44, 36
20, 24
25, 40
331, 480
1489, 1878
1089, 1090
125, 94
12, 15
26, 26
78, 103
253, 301
151, 133
39, 23
11, 7
11, 8
6, 11
2, 5
6, 8
10, 8
4, 10
7, 8
8, 2
5, 10
7, 14
11, 14
6, 7
8, 15
5, 5
6, 2
3, 8
3, 6
3, 5
2, 7
2, 3
6, 3
7, 3
4, 2
5, 5
3, 11
2, 6
6, 2
2, 4
1, 4
3, 2
3, 15
1, 1
0, 0
4, 2
4, 7
3, 5
2, 2
3, 2
3, 4
0, 0
4, 4
1, 3
1, 5
3, 0
0, 4
7, 3
1, 2
3, 1
3, 4
1, 2
3, 1
0, 2
3, 3
1, 4
2, 5
1, 1
3, 0
0, 2
1, 0
1, 0
0, 3
0, 1
2, 1
1, 0
1, 0
0, 0
1, 0
1, 1
0, 1
0, 1
1, 0
0, 0
0, 0
0, 1
1, 0
0, 2
2, 0
1, 0
1, 1
0, 1
0, 0
0, 0
0, 0
0, 2
0, 0
0, 0
0, 0
0, 1
1, 0
0, 0
0, 1
1, 0
0, 0
0, 0
0, 0
0, 2
0, 1
0, 1
0, 0
0, 0
0, 1
1, 0
0, 0
0, 1
1, 0
1, 0
0, 0
0, 0
0, 0
0, 0
0, 0
0, 0
0, 0
0, 2
0, 1
0, 1
0, 0
0, 0
0, 0
0, 0
0, 0
0, 0
0, 0
0, 0
0, 0
0, 0
0, 0
0, 0
0, 0
0, 0
0, 0
0, 0
0, 0
0, 0
0, 0
0, 0
0, 0
0, 0
0, 0
0, 0
0, 0
0, 0
0, 0
0, 0
0, 0
0, 0
0, 0
0, 0
0, 0
0, 0
0, 0
0, 0
0, 0
0, 0
0, 0
0, 0
0, 0
0, 0
0, 0
0, 0
0, 0
0, 0
0, 0
0, 0
0, 0
0, 0
0, 0
0, 0
0, 0
0, 0
0, 0
0, 0
0, 0
0, 0
0, 0
0, 0
0, 0
0, 0
0, 0
0, 0
0, 0
0, 0
0, 0
0, 0
0, 0
0, 0
0, 0
0, 0
0, 0
0, 0
0, 0
0, 0
0, 0
0, 0
0, 0
0, 0
0, 0
0, 0
0, 0
0, 0
0, 0
0, 0
0, 0
0, 0
0, 0
0, 0
0, 0
0, 0
0, 0
0, 0
0, 0
0, 0
0, 0
0, 0
0, 0
0, 0
0, 0
0, 0
0, 0
0, 0
0, 0
0, 0
0, 0
0, 0
0, 0
0, 0
#ENDOFDATA     end of spectrum data