File: host_upload/02-11-2024/rqc/uplink1/ps__0567_0717304816_000rfs_shot_193.msa
#FORMAT      : EMSA/MAS spectral data file
#VERSION     : TC202v2.0 PIXL
#TITLE       : Novarupta (sol567) subset1
#DATE        : 02-11-2024      Date in the format DD-MMM-YYYY, for example 07-JUL-2010
#TIME        :             The time of day at which the spectrum was recorded, in 24-hour format
#OWNER       : PIXL Flight Model       (PIXL will use this to indicate which instrument took the data.)
#NPOINTS     : 4096     Number of data points in the spectrum (This can be zero for configuration only files)
#NCOLUMNS    : 2     Number of data columns in the spectrum (This can be zero for configuration only files)
#XUNITS      : eV
#YUNITS      : COUNTS
#DATATYPE    : YY
#XPERCHAN    : 7.862, 7.881   eV per channel (separate by commas if more than one detector)
#OFFSET      : 18.5, -22.4         eV of first channel  (separate by commas if more than one detector
#SIGNALTYPE  : XRF
#YP_TEMP     : 0.536
#LIVETIME    : 8.84509, 8.8193   seconds (separate by commas if more than one detector)
#REALTIME    : 10, 10.0   seconds (separate by commas if more than one detector)
#SPECTRUM    : start of spectrum data
0, 0
0, 0
0, 0
0, 0
0, 0
0, 0
0, 0
2, 1
2, 2
3, 5
4, 5
8, 11
13, 12
24, 20
29, 57
85, 114
428, 541
117, 138
20, 39
19, 29
48, 65
246, 333
96, 121
80, 84
186, 221
113, 105
66, 67
20, 30
6, 13
11, 10
19, 21
17, 18
13, 21
179, 288
284, 377
41, 41
35, 47
43, 54
10, 12
13, 5
19, 27
55, 68
31, 35
16, 20
9, 14
20, 17
13, 20
8, 6
8, 9
28, 30
20, 28
16, 8
14, 22
21, 35
44, 59
18, 24
28, 29
333, 487
1480, 1850
975, 1022
131, 98
17, 17
20, 27
78, 102
232, 280
146, 159
22, 14
14, 8
9, 14
6, 7
7, 6
16, 3
9, 7
6, 11
5, 6
3, 5
7, 7
6, 4
12, 15
12, 13
4, 10
9, 3
9, 9
7, 8
3, 9
5, 9
4, 10
4, 10
4, 4
6, 1
1, 5
5, 3
1, 6
6, 2
4, 6
3, 1
4, 4
2, 2
2, 1
2, 8
4, 4
2, 1
3, 3
1, 1
4, 5
0, 2
1, 1
3, 5
3, 4
4, 2
3, 0
2, 1
2, 1
2, 1
3, 3
2, 1
3, 6
0, 1
2, 0
1, 2
5, 1
3, 1
3, 3
1, 1
2, 1
0, 1
0, 1
0, 0
1, 4
4, 2
0, 1
1, 1
1, 0
0, 0
1, 2
1, 2
0, 0
2, 0
0, 3
0, 0
1, 0
0, 0
0, 0
2, 0
1, 1
0, 2
0, 0
0, 0
1, 2
0, 0
0, 0
0, 0
1, 0
0, 0
0, 0
1, 0
0, 0
0, 0
0, 0
0, 1
0, 0
0, 0
0, 0
0, 0
0, 0
0, 0
0, 0
0, 1
0, 0
1, 1
0, 0
0, 0
1, 0
0, 0
1, 1
0, 0
0, 0
0, 0
1, 0
0, 0
0, 0
0, 2
0, 0
0, 2
0, 0
0, 0
0, 0
0, 1
0, 0
0, 0
0, 0
0, 0
0, 0
0, 1
0, 0
0, 0
0, 1
0, 1
0, 0
0, 0
0, 0
0, 0
0, 0
0, 0
0, 0
0, 0
0, 0
0, 0
0, 0
0, 0
0, 0
0, 0
0, 0
0, 0
0, 0
0, 0
0, 0
0, 0
0, 0
0, 0
0, 0
0, 0
0, 0
0, 0
0, 0
0, 0
0, 0
0, 0
0, 0
0, 0
0, 0
0, 0
0, 0
0, 0
0, 0
0, 0
0, 0
0, 0
0, 0
0, 0
0, 0
0, 0
0, 0
0, 0
0, 0
0, 0
0, 0
0, 0
0, 0
0, 0
0, 0
0, 0
0, 0
0, 0
0, 0
0, 0
0, 0
0, 0
0, 0
0, 0
0, 0
0, 0
0, 0
0, 0
0, 0
0, 0
0, 0
0, 0
0, 0
0, 0
0, 0
0, 0
0, 0
0, 0
0, 0
0, 0
0, 0
0, 0
0, 0
0, 0
0, 0
0, 0
0, 0
0, 0
0, 0
0, 0
0, 0
0, 0
0, 0
0, 0
0, 0
0, 0
0, 0
0, 0
#ENDOFDATA     end of spectrum data