File: host_upload/02-11-2024/rqc/uplink1/ps__0567_0717304816_000rfs_shot_16.msa
#FORMAT      : EMSA/MAS spectral data file
#VERSION     : TC202v2.0 PIXL
#TITLE       : Novarupta (sol567) subset1
#DATE        : 02-11-2024      Date in the format DD-MMM-YYYY, for example 07-JUL-2010
#TIME        :             The time of day at which the spectrum was recorded, in 24-hour format
#OWNER       : PIXL Flight Model       (PIXL will use this to indicate which instrument took the data.)
#NPOINTS     : 4096     Number of data points in the spectrum (This can be zero for configuration only files)
#NCOLUMNS    : 2     Number of data columns in the spectrum (This can be zero for configuration only files)
#XUNITS      : eV
#YUNITS      : COUNTS
#DATATYPE    : YY
#XPERCHAN    : 7.862, 7.881   eV per channel (separate by commas if more than one detector)
#OFFSET      : 18.5, -22.4         eV of first channel  (separate by commas if more than one detector
#SIGNALTYPE  : XRF
#YP_TEMP     : -4.339
#LIVETIME    : 8.84368, 8.65258   seconds (separate by commas if more than one detector)
#REALTIME    : 10, 10.0   seconds (separate by commas if more than one detector)
#SPECTRUM    : start of spectrum data
0, 0
0, 0
0, 0
0, 0
0, 0
0, 0
0, 0
3, 0
1, 1
3, 3
4, 3
6, 13
14, 15
27, 32
41, 51
135, 162
448, 483
101, 110
30, 28
29, 28
61, 97
294, 297
109, 101
112, 105
201, 228
113, 130
56, 68
16, 20
6, 7
17, 16
44, 35
13, 20
31, 32
253, 326
257, 320
39, 43
46, 48
46, 59
5, 8
8, 10
30, 26
54, 61
25, 28
14, 18
11, 14
18, 18
8, 16
6, 9
12, 19
30, 39
19, 19
15, 12
12, 14
35, 36
39, 48
20, 21
50, 64
688, 780
1586, 1802
681, 674
72, 56
23, 13
29, 27
142, 166
242, 267
99, 96
13, 9
9, 9
15, 9
5, 5
8, 5
4, 8
6, 7
5, 8
5, 2
10, 9
5, 5
7, 9
4, 9
2, 13
8, 6
3, 9
7, 10
4, 5
5, 2
7, 7
2, 5
9, 2
4, 6
3, 4
6, 3
8, 5
2, 9
1, 3
2, 2
4, 9
3, 4
5, 2
4, 0
0, 7
2, 3
3, 1
4, 1
0, 1
1, 6
3, 4
5, 0
1, 6
2, 2
2, 3
1, 3
1, 1
3, 2
3, 1
4, 0
3, 4
8, 6
3, 3
3, 1
4, 1
3, 1
3, 2
4, 2
1, 3
0, 1
0, 4
3, 3
0, 2
1, 1
0, 2
2, 0
0, 2
1, 1
2, 3
1, 1
0, 0
0, 1
0, 0
0, 1
0, 0
0, 0
0, 2
2, 0
1, 2
0, 0
0, 1
0, 1
1, 0
1, 1
1, 1
2, 0
0, 0
0, 0
0, 0
0, 0
0, 0
0, 0
0, 0
0, 0
0, 1
0, 0
1, 1
0, 1
1, 1
0, 0
0, 1
1, 0
1, 0
1, 0
0, 0
0, 0
0, 2
0, 0
0, 0
0, 0
0, 1
0, 0
0, 0
1, 0
0, 0
0, 0
1, 0
0, 1
0, 0
0, 0
0, 0
1, 0
0, 0
0, 0
0, 1
0, 0
0, 0
0, 0
0, 0
0, 0
0, 0
0, 0
0, 0
0, 0
0, 0
0, 0
0, 0
0, 0
0, 0
0, 0
0, 0
0, 0
0, 0
0, 0
0, 0
0, 0
0, 0
0, 0
0, 0
0, 0
0, 0
0, 0
0, 0
0, 0
0, 1
0, 0
0, 0
0, 0
0, 0
0, 0
0, 0
0, 0
0, 0
0, 0
0, 0
0, 0
0, 0
0, 0
0, 0
0, 0
0, 0
0, 0
0, 0
0, 0
0, 0
0, 0
0, 0
0, 0
0, 0
0, 0
0, 0
0, 0
0, 0
0, 0
0, 0
0, 0
0, 0
0, 0
0, 0
0, 0
0, 0
0, 0
0, 0
0, 0
0, 0
0, 0
0, 0
0, 0
0, 0
0, 0
0, 0
0, 0
0, 0
0, 0
0, 0
0, 0
0, 0
0, 0
0, 0
0, 0
0, 0
0, 0
0, 0
0, 0
0, 0
0, 0
0, 0
0, 0
0, 0
0, 0
0, 0
0, 0
0, 0
0, 0
0, 0
0, 0
0, 0
0, 0
0, 0
#ENDOFDATA     end of spectrum data