File: host_upload/02-11-2024/rqc/uplink1/ps__0567_0717304816_000rfs_shot_412.msa
#FORMAT      : EMSA/MAS spectral data file
#VERSION     : TC202v2.0 PIXL
#TITLE       : Novarupta (sol567) subset1
#DATE        : 02-11-2024      Date in the format DD-MMM-YYYY, for example 07-JUL-2010
#TIME        :             The time of day at which the spectrum was recorded, in 24-hour format
#OWNER       : PIXL Flight Model       (PIXL will use this to indicate which instrument took the data.)
#NPOINTS     : 4096     Number of data points in the spectrum (This can be zero for configuration only files)
#NCOLUMNS    : 2     Number of data columns in the spectrum (This can be zero for configuration only files)
#XUNITS      : eV
#YUNITS      : COUNTS
#DATATYPE    : YY
#XPERCHAN    : 7.862, 7.881   eV per channel (separate by commas if more than one detector)
#OFFSET      : 18.5, -22.4         eV of first channel  (separate by commas if more than one detector
#SIGNALTYPE  : XRF
#YP_TEMP     : 1.915
#LIVETIME    : 8.82408, 8.81015   seconds (separate by commas if more than one detector)
#REALTIME    : 10, 10.0   seconds (separate by commas if more than one detector)
#SPECTRUM    : start of spectrum data
0, 0
0, 0
0, 0
0, 0
0, 0
0, 0
0, 0
0, 4
3, 3
4, 4
4, 2
7, 14
8, 16
23, 19
40, 65
97, 111
511, 543
123, 134
26, 38
25, 28
60, 69
293, 304
109, 115
71, 67
205, 256
110, 110
61, 75
29, 24
8, 12
5, 10
32, 24
13, 23
16, 29
194, 245
346, 326
66, 59
35, 45
40, 57
8, 18
8, 10
13, 19
56, 75
36, 24
17, 20
8, 9
22, 22
12, 18
4, 9
16, 21
38, 27
30, 27
15, 9
12, 13
31, 28
56, 48
16, 22
26, 45
363, 503
1604, 1795
1062, 1008
126, 106
16, 24
22, 17
81, 82
252, 270
176, 169
32, 15
3, 10
10, 8
10, 8
3, 7
6, 6
2, 3
10, 8
5, 8
9, 6
7, 4
3, 6
4, 7
5, 11
5, 6
5, 5
3, 4
9, 6
7, 4
3, 5
5, 3
5, 6
3, 5
1, 7
3, 2
5, 2
4, 5
5, 6
0, 4
2, 3
5, 2
2, 4
5, 3
7, 1
5, 1
3, 5
4, 5
4, 4
4, 4
2, 2
3, 1
1, 1
6, 3
2, 4
1, 5
2, 4
1, 2
0, 2
5, 2
2, 1
4, 1
2, 1
2, 0
1, 2
0, 1
4, 0
2, 2
3, 2
0, 3
0, 2
0, 3
0, 3
1, 2
1, 2
0, 0
0, 0
3, 0
1, 0
0, 0
2, 1
1, 0
0, 1
0, 2
1, 1
0, 0
2, 1
0, 1
1, 1
0, 0
1, 1
2, 0
0, 0
0, 1
0, 0
1, 1
2, 0
3, 0
0, 0
1, 1
1, 0
0, 0
0, 0
0, 0
0, 0
2, 0
0, 0
0, 0
0, 1
0, 0
0, 0
0, 0
0, 1
1, 0
0, 0
1, 0
2, 0
0, 0
0, 0
0, 0
0, 0
0, 0
0, 1
0, 0
0, 0
0, 0
0, 0
0, 0
1, 1
0, 0
0, 0
0, 1
0, 0
0, 0
0, 0
0, 0
0, 1
0, 0
0, 0
0, 0
0, 0
0, 0
0, 0
0, 0
0, 0
0, 0
0, 0
0, 0
0, 0
0, 0
0, 1
0, 0
0, 0
0, 0
0, 0
0, 0
0, 1
0, 0
0, 0
0, 0
0, 0
0, 0
0, 0
0, 0
0, 0
0, 0
0, 0
0, 0
0, 0
0, 0
0, 0
0, 0
0, 0
0, 0
0, 0
0, 0
0, 0
0, 0
0, 0
0, 0
0, 0
0, 0
0, 0
0, 0
0, 0
0, 0
0, 0
0, 0
0, 0
0, 0
0, 0
0, 0
0, 0
0, 0
0, 0
0, 0
0, 0
0, 0
0, 0
0, 0
0, 0
0, 0
0, 0
0, 0
0, 0
0, 0
0, 0
0, 0
0, 0
0, 0
0, 0
0, 0
0, 0
0, 0
0, 0
0, 0
0, 0
0, 0
0, 0
0, 0
0, 0
0, 0
0, 0
0, 0
0, 0
0, 0
0, 0
0, 0
0, 0
0, 0
0, 0
0, 0
0, 0
0, 0
0, 0
0, 0
0, 0
0, 0
0, 0
#ENDOFDATA     end of spectrum data