File: host_upload/02-11-2024/rqc/uplink1/ps__0567_0717304816_000rfs_shot_278.msa
#FORMAT      : EMSA/MAS spectral data file
#VERSION     : TC202v2.0 PIXL
#TITLE       : Novarupta (sol567) subset1
#DATE        : 02-11-2024      Date in the format DD-MMM-YYYY, for example 07-JUL-2010
#TIME        :             The time of day at which the spectrum was recorded, in 24-hour format
#OWNER       : PIXL Flight Model       (PIXL will use this to indicate which instrument took the data.)
#NPOINTS     : 4096     Number of data points in the spectrum (This can be zero for configuration only files)
#NCOLUMNS    : 2     Number of data columns in the spectrum (This can be zero for configuration only files)
#XUNITS      : eV
#YUNITS      : COUNTS
#DATATYPE    : YY
#XPERCHAN    : 7.862, 7.881   eV per channel (separate by commas if more than one detector)
#OFFSET      : 18.5, -22.4         eV of first channel  (separate by commas if more than one detector
#SIGNALTYPE  : XRF
#YP_TEMP     : 1.177
#LIVETIME    : 8.82679, 8.81291   seconds (separate by commas if more than one detector)
#REALTIME    : 10, 10.0   seconds (separate by commas if more than one detector)
#SPECTRUM    : start of spectrum data
0, 0
0, 0
0, 0
0, 0
0, 0
0, 0
0, 0
1, 0
3, 2
3, 1
1, 2
13, 7
16, 18
24, 15
42, 54
105, 112
474, 534
126, 108
30, 48
29, 18
44, 75
245, 332
133, 112
73, 79
262, 239
124, 102
71, 89
26, 26
12, 13
10, 12
19, 32
20, 19
14, 19
213, 273
341, 336
50, 36
43, 55
50, 48
19, 15
6, 16
12, 29
66, 65
45, 36
11, 13
12, 15
24, 21
15, 16
10, 16
16, 17
32, 29
29, 19
12, 14
14, 24
34, 35
64, 56
22, 27
27, 27
407, 474
1661, 1895
1129, 1062
107, 109
18, 17
19, 25
91, 99
250, 279
154, 156
20, 20
10, 5
16, 17
9, 8
7, 2
7, 5
5, 5
6, 4
7, 7
7, 8
9, 2
9, 5
7, 7
12, 9
5, 8
8, 4
5, 9
3, 3
8, 7
5, 6
10, 5
8, 6
2, 4
2, 9
10, 4
2, 4
3, 4
2, 5
3, 6
6, 2
3, 2
3, 3
1, 3
1, 4
0, 4
1, 3
5, 0
5, 2
1, 2
2, 5
3, 4
3, 1
2, 1
2, 1
1, 1
1, 3
2, 1
1, 0
0, 2
1, 6
2, 1
3, 2
1, 3
2, 2
3, 1
2, 2
0, 1
0, 3
0, 4
1, 0
1, 2
1, 1
2, 0
0, 0
1, 1
0, 0
3, 2
1, 2
2, 0
0, 0
2, 1
1, 1
0, 2
3, 2
3, 1
0, 0
0, 0
0, 0
1, 0
1, 0
3, 1
0, 1
0, 0
1, 1
1, 1
0, 2
0, 0
0, 1
0, 0
0, 0
1, 0
0, 0
1, 2
1, 1
1, 0
0, 1
0, 0
0, 0
0, 0
1, 0
0, 0
0, 0
0, 0
1, 0
0, 2
0, 0
0, 0
0, 1
0, 0
0, 0
0, 0
1, 0
0, 0
0, 0
0, 0
0, 0
0, 0
0, 0
0, 0
0, 0
0, 0
0, 0
0, 0
0, 0
1, 0
0, 0
0, 0
0, 0
0, 0
0, 0
1, 0
0, 0
0, 0
0, 0
0, 0
0, 0
0, 0
0, 0
0, 0
0, 0
0, 0
0, 0
0, 0
0, 0
0, 0
0, 0
0, 0
0, 0
0, 0
0, 0
0, 0
0, 0
0, 0
0, 0
0, 0
0, 0
0, 0
0, 0
0, 0
0, 0
0, 0
0, 0
0, 0
0, 0
0, 0
0, 0
1, 0
0, 0
0, 0
0, 0
0, 0
0, 0
0, 0
0, 0
0, 0
0, 0
0, 0
0, 0
0, 0
0, 0
0, 0
0, 0
0, 0
0, 0
0, 0
0, 0
0, 0
0, 0
0, 0
0, 0
0, 0
0, 0
0, 0
0, 0
0, 0
0, 0
0, 0
0, 0
0, 0
0, 0
0, 0
0, 0
0, 0
0, 0
0, 0
0, 0
0, 0
0, 0
0, 0
0, 0
0, 0
0, 0
0, 0
0, 0
0, 0
0, 0
0, 0
0, 0
0, 0
0, 0
0, 0
0, 0
0, 0
0, 0
0, 0
0, 0
0, 0
0, 0
#ENDOFDATA     end of spectrum data