File: host_upload/02-11-2024/rqc/uplink1/ps__0567_0717304816_000rfs_shot_215.msa
#FORMAT      : EMSA/MAS spectral data file
#VERSION     : TC202v2.0 PIXL
#TITLE       : Novarupta (sol567) subset1
#DATE        : 02-11-2024      Date in the format DD-MMM-YYYY, for example 07-JUL-2010
#TIME        :             The time of day at which the spectrum was recorded, in 24-hour format
#OWNER       : PIXL Flight Model       (PIXL will use this to indicate which instrument took the data.)
#NPOINTS     : 4096     Number of data points in the spectrum (This can be zero for configuration only files)
#NCOLUMNS    : 2     Number of data columns in the spectrum (This can be zero for configuration only files)
#XUNITS      : eV
#YUNITS      : COUNTS
#DATATYPE    : YY
#XPERCHAN    : 7.862, 7.881   eV per channel (separate by commas if more than one detector)
#OFFSET      : 18.5, -22.4         eV of first channel  (separate by commas if more than one detector
#SIGNALTYPE  : XRF
#YP_TEMP     : 0.632
#LIVETIME    : 8.8508, 8.82371   seconds (separate by commas if more than one detector)
#REALTIME    : 10, 10.0   seconds (separate by commas if more than one detector)
#SPECTRUM    : start of spectrum data
0, 0
0, 0
0, 0
0, 0
0, 0
0, 0
0, 0
1, 1
1, 4
2, 4
4, 2
6, 9
12, 18
21, 26
40, 50
119, 118
442, 511
119, 107
30, 32
17, 29
46, 61
273, 313
83, 119
72, 78
187, 229
98, 124
71, 71
41, 30
10, 4
5, 7
22, 32
11, 18
14, 15
183, 259
284, 293
38, 70
29, 51
37, 53
19, 13
9, 9
11, 28
50, 66
22, 37
15, 15
11, 21
17, 22
15, 16
6, 9
9, 15
30, 36
18, 23
7, 23
6, 9
38, 33
40, 43
17, 20
21, 40
320, 495
1470, 1840
969, 971
101, 103
12, 14
12, 28
76, 114
236, 243
139, 161
23, 12
6, 15
10, 13
3, 15
5, 6
6, 9
5, 6
13, 8
6, 8
5, 9
8, 4
6, 9
7, 9
12, 8
9, 4
7, 7
7, 6
5, 4
3, 5
3, 6
1, 4
6, 7
5, 8
8, 3
7, 2
5, 2
2, 2
2, 2
3, 8
5, 0
3, 3
1, 2
6, 2
0, 1
2, 5
4, 3
2, 5
2, 5
2, 5
0, 1
4, 5
1, 3
1, 1
2, 1
2, 3
1, 2
3, 2
2, 0
4, 3
2, 1
0, 3
3, 0
1, 2
1, 4
1, 1
1, 0
1, 0
4, 1
3, 1
0, 2
1, 4
0, 0
0, 1
0, 0
1, 1
1, 0
2, 2
1, 0
1, 0
0, 2
2, 0
0, 1
1, 0
0, 1
1, 1
0, 1
1, 0
0, 1
0, 5
0, 0
1, 0
1, 1
1, 0
0, 1
0, 0
0, 2
0, 0
0, 0
1, 1
0, 0
0, 0
2, 0
0, 0
0, 1
0, 0
0, 0
0, 0
0, 0
0, 0
0, 0
1, 0
0, 0
0, 1
1, 0
0, 0
0, 0
1, 0
0, 0
0, 0
0, 0
0, 1
0, 0
0, 0
2, 0
0, 0
0, 0
2, 0
0, 0
0, 1
0, 1
0, 0
1, 2
0, 0
0, 1
0, 0
0, 0
0, 0
0, 0
0, 0
0, 0
0, 0
0, 0
0, 0
0, 0
0, 0
0, 0
0, 0
0, 0
0, 0
0, 0
0, 0
0, 1
0, 0
0, 0
0, 0
0, 0
0, 0
0, 0
0, 0
0, 0
0, 0
0, 0
0, 0
0, 0
0, 0
0, 0
0, 0
0, 0
0, 0
0, 0
0, 0
0, 0
0, 0
0, 0
0, 0
0, 0
0, 0
0, 0
0, 0
0, 0
0, 0
0, 0
0, 0
0, 0
0, 0
0, 0
0, 0
0, 0
0, 0
0, 0
0, 0
0, 0
0, 0
0, 0
0, 0
0, 0
0, 0
0, 0
0, 0
0, 0
0, 0
0, 0
0, 0
0, 0
0, 0
0, 0
0, 0
0, 0
0, 0
0, 0
0, 0
0, 0
0, 0
0, 0
0, 0
0, 0
0, 0
0, 0
0, 0
0, 0
0, 0
0, 0
0, 0
0, 0
0, 0
0, 0
0, 0
0, 0
0, 0
0, 0
0, 0
0, 0
0, 0
0, 0
0, 0
0, 0
0, 0
0, 0
#ENDOFDATA     end of spectrum data