File: host_upload/02-11-2024/rqc/uplink1/ps__0567_0717304816_000rfs_shot_163.msa
#FORMAT      : EMSA/MAS spectral data file
#VERSION     : TC202v2.0 PIXL
#TITLE       : Novarupta (sol567) subset1
#DATE        : 02-11-2024      Date in the format DD-MMM-YYYY, for example 07-JUL-2010
#TIME        :             The time of day at which the spectrum was recorded, in 24-hour format
#OWNER       : PIXL Flight Model       (PIXL will use this to indicate which instrument took the data.)
#NPOINTS     : 4096     Number of data points in the spectrum (This can be zero for configuration only files)
#NCOLUMNS    : 2     Number of data columns in the spectrum (This can be zero for configuration only files)
#XUNITS      : eV
#YUNITS      : COUNTS
#DATATYPE    : YY
#XPERCHAN    : 7.862, 7.881   eV per channel (separate by commas if more than one detector)
#OFFSET      : 18.5, -22.4         eV of first channel  (separate by commas if more than one detector
#SIGNALTYPE  : XRF
#YP_TEMP     : 0.215
#LIVETIME    : 8.82748, 8.82896   seconds (separate by commas if more than one detector)
#REALTIME    : 10, 10.0   seconds (separate by commas if more than one detector)
#SPECTRUM    : start of spectrum data
0, 0
0, 0
0, 0
0, 0
0, 0
0, 0
0, 0
1, 0
2, 0
1, 9
2, 3
9, 16
20, 9
20, 19
56, 63
115, 107
514, 527
120, 115
43, 44
17, 27
70, 55
307, 328
129, 133
72, 91
242, 265
100, 126
72, 67
30, 27
10, 13
9, 8
31, 34
18, 12
23, 19
195, 252
344, 322
50, 62
41, 49
57, 51
16, 12
7, 10
19, 27
72, 60
28, 27
15, 12
18, 15
13, 20
6, 6
11, 11
8, 14
30, 36
14, 15
19, 13
13, 17
30, 35
42, 45
31, 15
29, 38
366, 480
1709, 1788
1060, 942
119, 104
15, 10
19, 30
88, 118
251, 275
157, 139
18, 16
13, 10
11, 15
16, 12
9, 4
9, 4
8, 3
6, 6
5, 5
11, 8
4, 9
8, 4
5, 3
7, 12
7, 4
9, 5
10, 5
5, 4
7, 6
3, 4
4, 4
7, 5
6, 2
5, 2
3, 5
10, 7
3, 4
3, 3
6, 6
4, 1
8, 9
3, 3
4, 1
2, 4
2, 5
7, 1
5, 5
3, 7
0, 1
1, 0
5, 2
4, 3
1, 3
3, 3
0, 1
1, 2
1, 4
2, 2
5, 4
2, 0
3, 3
2, 4
2, 2
3, 4
1, 1
1, 2
2, 1
1, 2
2, 1
1, 1
0, 0
3, 2
0, 1
0, 1
3, 0
1, 1
2, 1
0, 0
0, 1
1, 1
1, 0
0, 0
0, 2
1, 1
0, 2
2, 0
0, 1
1, 0
0, 0
1, 1
2, 0
0, 1
1, 0
0, 2
0, 1
1, 1
0, 1
0, 1
0, 0
0, 0
1, 1
1, 0
0, 0
0, 0
0, 0
0, 1
0, 0
0, 0
1, 0
0, 0
0, 0
0, 0
0, 0
0, 0
0, 0
0, 0
0, 0
1, 0
0, 0
0, 0
0, 0
0, 0
0, 0
0, 0
0, 0
1, 0
0, 0
0, 1
1, 0
0, 0
0, 0
0, 0
0, 0
0, 0
0, 0
0, 0
0, 0
0, 0
0, 0
0, 0
0, 0
0, 0
0, 0
0, 0
0, 0
0, 0
0, 0
0, 0
0, 0
0, 0
1, 0
0, 0
0, 0
0, 0
0, 0
0, 0
0, 0
0, 0
0, 0
0, 0
0, 0
0, 0
0, 0
0, 0
0, 0
0, 0
0, 0
0, 0
0, 0
0, 0
0, 0
0, 0
0, 0
0, 0
0, 0
0, 0
0, 0
0, 0
0, 0
0, 0
0, 0
0, 0
0, 0
0, 0
0, 0
0, 0
0, 0
0, 0
0, 0
0, 0
0, 0
0, 0
0, 0
0, 0
0, 0
0, 0
0, 0
0, 0
0, 0
0, 0
0, 0
0, 0
0, 0
0, 0
0, 0
0, 0
0, 0
0, 0
0, 0
0, 0
0, 0
0, 0
0, 0
0, 0
0, 0
0, 0
0, 0
0, 0
0, 0
0, 0
0, 0
0, 0
0, 0
0, 0
0, 0
0, 0
0, 0
0, 0
0, 0
0, 0
0, 0
0, 0
0, 0
0, 0
0, 0
0, 0
0, 0
0, 0
#ENDOFDATA     end of spectrum data