File: host_upload/02-11-2024/rqc/uplink1/ps__0567_0717304816_000rfs_shot_334.msa
#FORMAT      : EMSA/MAS spectral data file
#VERSION     : TC202v2.0 PIXL
#TITLE       : Novarupta (sol567) subset1
#DATE        : 02-11-2024      Date in the format DD-MMM-YYYY, for example 07-JUL-2010
#TIME        :             The time of day at which the spectrum was recorded, in 24-hour format
#OWNER       : PIXL Flight Model       (PIXL will use this to indicate which instrument took the data.)
#NPOINTS     : 4096     Number of data points in the spectrum (This can be zero for configuration only files)
#NCOLUMNS    : 2     Number of data columns in the spectrum (This can be zero for configuration only files)
#XUNITS      : eV
#YUNITS      : COUNTS
#DATATYPE    : YY
#XPERCHAN    : 7.862, 7.881   eV per channel (separate by commas if more than one detector)
#OFFSET      : 18.5, -22.4         eV of first channel  (separate by commas if more than one detector
#SIGNALTYPE  : XRF
#YP_TEMP     : 1.337
#LIVETIME    : 8.83923, 8.83493   seconds (separate by commas if more than one detector)
#REALTIME    : 10, 10.0   seconds (separate by commas if more than one detector)
#SPECTRUM    : start of spectrum data
0, 0
0, 0
0, 0
0, 0
0, 0
0, 0
0, 0
1, 0
2, 0
3, 4
1, 6
15, 10
19, 7
16, 26
44, 52
85, 119
446, 534
110, 111
27, 38
14, 19
44, 54
280, 343
106, 117
50, 77
203, 223
102, 132
66, 58
27, 27
9, 14
5, 14
23, 27
24, 12
9, 17
213, 229
345, 346
44, 52
44, 53
61, 60
10, 17
12, 12
19, 24
48, 63
37, 29
19, 17
8, 11
17, 16
9, 12
11, 11
9, 14
20, 27
20, 20
17, 10
11, 13
33, 38
48, 44
23, 20
26, 43
307, 487
1502, 1764
1000, 1050
117, 92
17, 25
16, 22
75, 108
230, 274
148, 165
29, 28
7, 8
17, 13
9, 7
7, 9
2, 4
9, 9
6, 10
8, 11
14, 12
3, 7
5, 8
12, 12
12, 8
6, 6
3, 8
4, 7
4, 6
4, 6
1, 8
2, 6
5, 5
3, 2
7, 2
5, 4
3, 5
5, 10
5, 2
2, 3
2, 5
1, 3
0, 5
1, 3
2, 2
1, 2
4, 6
4, 3
1, 2
2, 3
1, 4
1, 4
2, 4
3, 3
3, 5
2, 2
2, 2
0, 0
0, 0
2, 2
1, 4
0, 1
1, 5
3, 0
2, 2
2, 3
0, 0
1, 3
4, 2
0, 1
0, 2
1, 3
1, 3
1, 1
0, 0
1, 0
1, 1
2, 0
3, 0
0, 0
0, 0
1, 0
1, 1
1, 1
0, 1
0, 3
1, 2
1, 1
1, 0
0, 2
0, 0
1, 0
0, 0
0, 1
0, 0
1, 1
1, 1
0, 0
0, 0
0, 0
0, 0
0, 0
0, 0
0, 0
1, 0
0, 1
0, 0
1, 0
0, 0
0, 1
0, 0
0, 0
0, 0
0, 0
0, 0
0, 0
1, 0
0, 0
0, 0
0, 0
0, 0
0, 0
0, 1
1, 0
0, 0
0, 0
0, 0
0, 0
0, 1
0, 1
0, 0
0, 0
0, 0
0, 0
0, 0
0, 0
0, 0
0, 0
0, 0
0, 0
0, 0
0, 0
0, 0
0, 0
0, 0
0, 0
0, 0
0, 0
0, 0
0, 0
0, 0
0, 0
0, 0
0, 0
0, 0
0, 0
0, 0
0, 0
0, 0
0, 0
0, 0
0, 0
0, 0
0, 0
0, 0
0, 0
0, 0
0, 0
0, 0
0, 0
0, 0
0, 0
0, 0
0, 0
0, 0
0, 0
0, 0
0, 0
0, 0
0, 0
0, 0
0, 0
0, 0
0, 0
0, 0
0, 0
0, 0
0, 0
0, 0
0, 0
0, 0
0, 0
0, 0
0, 0
0, 0
0, 0
0, 0
0, 0
0, 0
0, 0
0, 0
0, 0
0, 0
0, 0
0, 0
0, 0
0, 0
0, 0
0, 0
0, 0
0, 0
0, 0
0, 0
0, 0
0, 0
0, 0
0, 0
0, 0
0, 0
0, 0
0, 0
0, 0
0, 0
0, 0
0, 0
0, 0
0, 0
0, 0
0, 0
0, 0
0, 0
0, 0
0, 0
0, 0
0, 0
0, 0
0, 0
0, 0
0, 0
#ENDOFDATA     end of spectrum data