File: host_upload/02-11-2024/rqc/uplink1/ps__0567_0717304816_000rfs_shot_404.msa
#FORMAT      : EMSA/MAS spectral data file
#VERSION     : TC202v2.0 PIXL
#TITLE       : Novarupta (sol567) subset1
#DATE        : 02-11-2024      Date in the format DD-MMM-YYYY, for example 07-JUL-2010
#TIME        :             The time of day at which the spectrum was recorded, in 24-hour format
#OWNER       : PIXL Flight Model       (PIXL will use this to indicate which instrument took the data.)
#NPOINTS     : 4096     Number of data points in the spectrum (This can be zero for configuration only files)
#NCOLUMNS    : 2     Number of data columns in the spectrum (This can be zero for configuration only files)
#XUNITS      : eV
#YUNITS      : COUNTS
#DATATYPE    : YY
#XPERCHAN    : 7.862, 7.881   eV per channel (separate by commas if more than one detector)
#OFFSET      : 18.5, -22.4         eV of first channel  (separate by commas if more than one detector
#SIGNALTYPE  : XRF
#YP_TEMP     : 1.818
#LIVETIME    : 8.81336, 8.81949   seconds (separate by commas if more than one detector)
#REALTIME    : 10, 10.0   seconds (separate by commas if more than one detector)
#SPECTRUM    : start of spectrum data
0, 0
0, 0
0, 0
0, 0
0, 0
0, 0
0, 0
0, 0
4, 3
2, 2
2, 7
1, 8
17, 12
27, 29
32, 35
118, 140
513, 544
144, 124
32, 28
27, 17
46, 54
320, 341
111, 124
75, 72
235, 224
121, 112
81, 62
36, 29
8, 8
10, 15
28, 28
12, 18
14, 21
217, 233
352, 332
57, 47
38, 46
44, 50
13, 13
11, 6
19, 27
85, 70
47, 44
24, 17
13, 14
22, 14
15, 11
12, 10
18, 19
31, 41
26, 24
15, 16
13, 11
36, 32
53, 50
21, 21
18, 34
388, 479
1640, 1742
1202, 1036
138, 85
24, 12
15, 31
69, 119
288, 297
170, 162
19, 15
4, 9
12, 14
11, 3
8, 5
7, 4
6, 6
4, 10
9, 5
7, 5
7, 4
7, 14
10, 9
11, 10
7, 9
8, 4
6, 3
10, 5
5, 3
5, 8
3, 10
4, 5
4, 4
7, 4
4, 4
6, 6
4, 4
5, 4
3, 3
5, 4
3, 2
0, 5
1, 2
4, 2
1, 2
2, 2
2, 1
0, 1
2, 3
2, 0
1, 3
1, 0
3, 1
2, 3
2, 3
2, 2
3, 2
1, 3
2, 1
7, 1
2, 5
1, 2
5, 0
1, 4
2, 0
3, 1
3, 0
0, 2
0, 3
1, 1
3, 0
0, 0
0, 0
1, 0
0, 0
0, 1
2, 0
1, 1
1, 0
2, 2
0, 1
3, 1
0, 1
1, 1
0, 3
0, 0
0, 0
1, 0
0, 1
3, 0
1, 0
0, 1
0, 0
1, 0
0, 0
0, 1
0, 0
0, 0
0, 0
1, 0
1, 2
0, 0
0, 0
0, 1
0, 0
2, 1
0, 0
0, 0
1, 0
0, 0
0, 1
0, 0
0, 1
2, 0
1, 0
0, 1
0, 0
0, 0
0, 0
0, 0
1, 1
0, 0
0, 1
0, 0
0, 0
0, 1
0, 1
0, 1
0, 0
0, 0
0, 1
0, 0
0, 0
0, 0
0, 0
0, 0
0, 0
0, 0
0, 0
0, 0
0, 0
0, 0
0, 0
0, 0
0, 0
0, 0
0, 0
0, 0
0, 0
0, 0
0, 0
0, 0
0, 0
0, 1
0, 0
0, 0
0, 0
0, 0
0, 0
0, 0
0, 0
0, 0
0, 0
0, 0
0, 0
0, 0
0, 0
0, 0
0, 0
0, 0
0, 0
0, 0
0, 0
0, 0
0, 0
0, 0
0, 0
0, 0
0, 0
0, 0
0, 0
0, 0
0, 0
0, 0
0, 0
0, 0
0, 0
0, 0
0, 0
0, 0
0, 0
0, 0
0, 0
0, 0
0, 0
0, 0
0, 0
0, 0
0, 0
0, 0
0, 0
0, 0
0, 0
0, 0
0, 0
0, 0
0, 0
0, 0
0, 0
0, 0
0, 0
0, 0
0, 0
0, 0
0, 0
0, 0
0, 0
0, 0
0, 0
0, 0
0, 0
0, 0
0, 0
0, 0
0, 0
0, 0
0, 0
0, 0
0, 0
0, 0
0, 0
0, 0
0, 0
0, 0
0, 0
0, 0
0, 0
0, 0
#ENDOFDATA     end of spectrum data