File: host_upload/02-11-2024/rqc/uplink1/ps__0567_0717304816_000rfs_shot_31.msa
#FORMAT      : EMSA/MAS spectral data file
#VERSION     : TC202v2.0 PIXL
#TITLE       : Novarupta (sol567) subset1
#DATE        : 02-11-2024      Date in the format DD-MMM-YYYY, for example 07-JUL-2010
#TIME        :             The time of day at which the spectrum was recorded, in 24-hour format
#OWNER       : PIXL Flight Model       (PIXL will use this to indicate which instrument took the data.)
#NPOINTS     : 4096     Number of data points in the spectrum (This can be zero for configuration only files)
#NCOLUMNS    : 2     Number of data columns in the spectrum (This can be zero for configuration only files)
#XUNITS      : eV
#YUNITS      : COUNTS
#DATATYPE    : YY
#XPERCHAN    : 7.862, 7.881   eV per channel (separate by commas if more than one detector)
#OFFSET      : 18.5, -22.4         eV of first channel  (separate by commas if more than one detector
#SIGNALTYPE  : XRF
#YP_TEMP     : -4.275
#LIVETIME    : 8.83162, 8.8266   seconds (separate by commas if more than one detector)
#REALTIME    : 10, 10.0   seconds (separate by commas if more than one detector)
#SPECTRUM    : start of spectrum data
0, 0
0, 0
0, 0
0, 0
0, 0
0, 0
0, 0
0, 2
3, 3
3, 2
7, 1
12, 10
12, 12
20, 24
50, 52
131, 182
494, 504
120, 140
39, 37
15, 20
79, 82
298, 306
115, 125
90, 85
252, 224
105, 115
62, 73
19, 29
11, 10
13, 10
18, 30
13, 18
33, 34
239, 282
300, 316
62, 40
51, 50
54, 50
12, 9
11, 11
27, 34
58, 65
32, 38
20, 7
12, 20
19, 23
7, 17
15, 8
22, 15
26, 40
22, 23
10, 10
14, 12
38, 40
38, 38
17, 25
44, 68
609, 725
1693, 1849
834, 765
90, 60
18, 16
30, 29
132, 169
250, 250
113, 99
18, 24
6, 10
10, 16
15, 10
4, 8
7, 5
4, 10
6, 2
5, 13
7, 12
8, 5
4, 11
6, 6
10, 14
6, 5
4, 2
9, 5
4, 5
0, 7
5, 6
3, 10
12, 8
8, 3
4, 6
4, 7
5, 4
6, 3
5, 2
4, 2
4, 3
4, 2
1, 4
2, 2
6, 1
4, 0
2, 4
4, 1
3, 2
8, 1
3, 4
3, 1
1, 7
6, 1
3, 1
2, 3
3, 4
1, 2
1, 0
3, 0
1, 1
4, 5
3, 6
1, 1
1, 2
0, 2
1, 2
3, 0
2, 0
3, 0
1, 1
1, 0
2, 0
1, 2
1, 2
2, 1
2, 0
0, 0
1, 1
0, 3
0, 0
0, 0
1, 0
0, 1
1, 0
3, 0
1, 0
0, 0
0, 0
1, 1
0, 2
0, 1
0, 0
0, 0
0, 0
0, 0
0, 0
0, 0
0, 1
0, 1
0, 0
0, 0
1, 1
1, 1
0, 0
0, 0
1, 0
1, 0
0, 0
0, 1
1, 1
0, 0
1, 0
0, 1
0, 0
0, 0
0, 0
0, 0
0, 0
0, 0
0, 0
0, 1
0, 0
0, 0
0, 0
0, 0
0, 0
0, 0
1, 0
0, 1
0, 0
0, 0
0, 0
0, 0
0, 1
0, 0
0, 0
0, 0
0, 0
0, 0
0, 0
0, 0
0, 0
0, 0
0, 0
0, 0
0, 1
0, 0
0, 0
0, 0
0, 0
0, 0
0, 0
0, 0
0, 0
1, 0
0, 1
0, 0
0, 0
0, 0
0, 0
0, 0
0, 0
0, 0
0, 0
0, 0
0, 0
0, 0
0, 0
0, 0
0, 0
0, 0
0, 0
0, 0
0, 0
0, 0
0, 0
0, 0
0, 0
0, 0
0, 0
0, 0
0, 0
0, 0
0, 0
0, 0
0, 0
0, 0
0, 0
0, 0
0, 0
0, 0
0, 0
0, 0
0, 0
0, 0
0, 0
0, 0
0, 0
0, 0
0, 0
0, 0
0, 0
0, 0
0, 0
0, 0
0, 0
0, 0
0, 0
0, 0
0, 0
0, 0
0, 0
0, 0
0, 0
0, 0
0, 0
0, 0
0, 0
0, 0
0, 0
0, 0
0, 0
0, 0
0, 0
0, 0
0, 0
0, 0
0, 0
0, 0
0, 0
0, 0
0, 0
0, 0
0, 0
0, 0
0, 0
0, 0
0, 0
#ENDOFDATA     end of spectrum data