File: host_upload/02-11-2024/rqc/uplink1/ps__0567_0717304816_000rfs_shot_359.msa
#FORMAT      : EMSA/MAS spectral data file
#VERSION     : TC202v2.0 PIXL
#TITLE       : Novarupta (sol567) subset1
#DATE        : 02-11-2024      Date in the format DD-MMM-YYYY, for example 07-JUL-2010
#TIME        :             The time of day at which the spectrum was recorded, in 24-hour format
#OWNER       : PIXL Flight Model       (PIXL will use this to indicate which instrument took the data.)
#NPOINTS     : 4096     Number of data points in the spectrum (This can be zero for configuration only files)
#NCOLUMNS    : 2     Number of data columns in the spectrum (This can be zero for configuration only files)
#XUNITS      : eV
#YUNITS      : COUNTS
#DATATYPE    : YY
#XPERCHAN    : 7.862, 7.881   eV per channel (separate by commas if more than one detector)
#OFFSET      : 18.5, -22.4         eV of first channel  (separate by commas if more than one detector
#SIGNALTYPE  : XRF
#YP_TEMP     : 1.594
#LIVETIME    : 8.82092, 8.81523   seconds (separate by commas if more than one detector)
#REALTIME    : 10, 10.0   seconds (separate by commas if more than one detector)
#SPECTRUM    : start of spectrum data
0, 0
0, 0
0, 0
0, 0
0, 0
0, 0
0, 0
1, 1
2, 6
1, 2
2, 2
9, 11
13, 7
25, 23
42, 58
98, 112
508, 485
146, 112
36, 34
25, 21
50, 59
306, 358
124, 113
56, 74
202, 224
123, 107
60, 84
22, 21
8, 9
9, 7
26, 27
26, 17
19, 21
209, 234
331, 303
56, 32
40, 53
50, 63
11, 6
10, 13
21, 16
65, 63
43, 34
15, 7
8, 15
27, 18
14, 14
6, 9
13, 19
31, 28
21, 22
9, 10
9, 12
36, 32
58, 50
24, 26
35, 39
390, 399
1630, 1727
1146, 1075
126, 107
13, 18
25, 24
86, 105
234, 289
159, 142
26, 27
11, 10
12, 12
8, 9
3, 3
5, 6
8, 7
9, 9
11, 6
9, 8
7, 7
4, 7
10, 13
10, 8
6, 10
7, 4
3, 7
3, 6
5, 2
4, 5
1, 8
4, 3
3, 5
7, 11
3, 3
2, 8
4, 3
4, 5
1, 0
3, 7
4, 2
1, 3
5, 5
4, 4
6, 4
3, 3
5, 1
4, 1
2, 5
3, 0
2, 1
4, 2
4, 2
2, 3
2, 2
2, 1
1, 3
2, 1
0, 1
3, 2
4, 3
1, 4
2, 2
2, 1
1, 4
3, 1
3, 1
2, 3
2, 2
0, 1
0, 0
1, 1
1, 1
0, 3
0, 1
0, 1
0, 2
1, 2
1, 1
2, 0
0, 1
1, 0
0, 1
1, 0
0, 0
0, 0
0, 1
0, 1
0, 1
0, 0
0, 0
1, 1
2, 1
1, 0
0, 0
0, 0
0, 0
1, 0
0, 0
0, 2
1, 0
0, 0
1, 0
1, 0
2, 1
1, 0
0, 2
0, 1
0, 0
0, 0
0, 0
0, 1
0, 1
0, 0
0, 0
1, 3
2, 1
0, 0
1, 0
0, 0
0, 0
0, 0
0, 0
0, 0
0, 0
0, 1
0, 0
0, 0
0, 0
0, 2
0, 0
0, 0
0, 0
0, 0
0, 0
0, 0
1, 0
0, 0
0, 0
0, 0
1, 0
0, 0
0, 0
0, 0
0, 0
0, 0
0, 0
0, 0
0, 0
0, 0
0, 0
0, 0
0, 0
0, 0
0, 0
0, 0
0, 0
0, 0
0, 0
0, 0
0, 0
0, 0
0, 0
0, 0
0, 0
0, 0
0, 0
0, 0
0, 0
0, 0
0, 0
0, 0
0, 0
0, 0
0, 0
0, 0
0, 0
0, 0
0, 0
0, 0
0, 0
0, 0
0, 0
0, 0
0, 0
0, 0
0, 0
0, 0
0, 0
0, 0
0, 0
0, 0
0, 0
0, 0
0, 0
0, 0
0, 0
0, 0
0, 0
0, 0
0, 0
0, 0
0, 0
0, 0
0, 0
0, 0
0, 0
0, 0
0, 0
0, 0
0, 0
0, 0
0, 0
0, 0
0, 0
0, 0
0, 0
0, 0
0, 0
0, 0
0, 0
0, 0
0, 0
0, 0
0, 0
0, 0
0, 0
0, 0
0, 0
0, 0
0, 0
0, 0
0, 0
0, 0
0, 0
0, 0
0, 0
0, 0
#ENDOFDATA     end of spectrum data