File: host_upload/02-11-2024/rqc/uplink1/ps__0567_0717304816_000rfs_shot_186.msa
#FORMAT      : EMSA/MAS spectral data file
#VERSION     : TC202v2.0 PIXL
#TITLE       : Novarupta (sol567) subset1
#DATE        : 02-11-2024      Date in the format DD-MMM-YYYY, for example 07-JUL-2010
#TIME        :             The time of day at which the spectrum was recorded, in 24-hour format
#OWNER       : PIXL Flight Model       (PIXL will use this to indicate which instrument took the data.)
#NPOINTS     : 4096     Number of data points in the spectrum (This can be zero for configuration only files)
#NCOLUMNS    : 2     Number of data columns in the spectrum (This can be zero for configuration only files)
#XUNITS      : eV
#YUNITS      : COUNTS
#DATATYPE    : YY
#XPERCHAN    : 7.862, 7.881   eV per channel (separate by commas if more than one detector)
#OFFSET      : 18.5, -22.4         eV of first channel  (separate by commas if more than one detector
#SIGNALTYPE  : XRF
#YP_TEMP     : 0.6
#LIVETIME    : 8.85298, 8.81936   seconds (separate by commas if more than one detector)
#REALTIME    : 10, 10.0   seconds (separate by commas if more than one detector)
#SPECTRUM    : start of spectrum data
0, 0
0, 0
0, 0
0, 0
0, 0
0, 0
0, 0
1, 1
1, 4
2, 0
4, 4
10, 10
16, 8
22, 21
47, 57
92, 127
482, 554
113, 136
25, 35
17, 16
50, 65
316, 359
130, 145
74, 72
183, 233
137, 114
88, 80
28, 23
5, 11
6, 13
32, 33
18, 29
22, 25
205, 243
333, 362
48, 57
41, 50
47, 51
4, 10
10, 11
21, 21
52, 86
32, 28
16, 14
14, 18
15, 21
16, 9
14, 17
14, 8
16, 33
16, 20
13, 15
10, 11
35, 44
44, 50
26, 27
20, 31
355, 488
1552, 1798
975, 991
110, 86
26, 15
18, 24
104, 95
231, 270
139, 137
23, 16
10, 16
12, 14
8, 7
7, 6
3, 6
3, 9
6, 6
14, 3
5, 6
7, 6
7, 8
8, 14
12, 8
8, 6
7, 7
4, 5
4, 5
5, 4
4, 6
4, 4
7, 9
4, 5
6, 4
10, 12
3, 3
3, 6
3, 4
4, 3
2, 3
3, 1
4, 4
2, 4
5, 1
2, 2
3, 6
3, 1
1, 3
5, 3
4, 1
2, 2
1, 4
2, 7
3, 4
4, 0
0, 2
0, 1
2, 4
1, 0
2, 1
4, 2
2, 1
1, 0
2, 1
2, 1
2, 1
4, 3
2, 1
1, 1
1, 1
0, 5
1, 1
1, 1
2, 0
1, 0
1, 0
1, 0
0, 2
1, 0
0, 0
1, 1
0, 2
1, 1
0, 0
0, 0
1, 1
0, 0
0, 0
0, 0
1, 1
1, 1
0, 2
1, 0
0, 0
0, 0
0, 1
1, 1
1, 0
0, 0
0, 0
0, 0
0, 0
1, 0
0, 1
0, 0
0, 0
1, 0
0, 0
0, 1
0, 0
0, 0
0, 0
0, 0
0, 0
0, 0
0, 0
0, 0
0, 0
0, 1
0, 0
0, 0
0, 0
0, 0
0, 0
1, 0
0, 0
1, 0
0, 0
0, 0
0, 2
0, 0
0, 0
0, 0
0, 0
0, 0
0, 0
0, 0
0, 0
0, 0
0, 0
0, 0
0, 0
0, 0
0, 0
0, 0
0, 0
1, 0
0, 0
0, 0
0, 0
0, 0
0, 0
0, 0
0, 0
0, 0
0, 0
0, 0
0, 0
0, 0
0, 0
0, 0
0, 0
0, 1
0, 0
0, 0
0, 0
0, 0
0, 0
0, 0
0, 0
0, 0
0, 0
0, 0
0, 0
0, 0
0, 0
0, 0
0, 0
0, 0
0, 0
0, 0
0, 0
0, 0
0, 0
0, 0
0, 0
0, 0
0, 0
0, 0
0, 0
0, 0
0, 0
0, 0
0, 0
0, 0
0, 0
0, 0
0, 0
0, 0
0, 0
0, 0
0, 0
0, 0
0, 0
0, 0
0, 0
0, 0
0, 0
0, 0
0, 0
0, 0
0, 0
0, 0
0, 0
0, 0
0, 0
0, 0
0, 0
0, 0
0, 0
0, 0
0, 0
0, 0
0, 0
0, 0
0, 0
0, 0
0, 0
0, 0
0, 0
0, 0
0, 0
0, 0
0, 0
0, 0
0, 0
0, 0
0, 0
#ENDOFDATA     end of spectrum data