File: host_upload/02-11-2024/rqc/uplink1/ps__0567_0717304816_000rfs_shot_209.msa
#FORMAT      : EMSA/MAS spectral data file
#VERSION     : TC202v2.0 PIXL
#TITLE       : Novarupta (sol567) subset1
#DATE        : 02-11-2024      Date in the format DD-MMM-YYYY, for example 07-JUL-2010
#TIME        :             The time of day at which the spectrum was recorded, in 24-hour format
#OWNER       : PIXL Flight Model       (PIXL will use this to indicate which instrument took the data.)
#NPOINTS     : 4096     Number of data points in the spectrum (This can be zero for configuration only files)
#NCOLUMNS    : 2     Number of data columns in the spectrum (This can be zero for configuration only files)
#XUNITS      : eV
#YUNITS      : COUNTS
#DATATYPE    : YY
#XPERCHAN    : 7.862, 7.881   eV per channel (separate by commas if more than one detector)
#OFFSET      : 18.5, -22.4         eV of first channel  (separate by commas if more than one detector
#SIGNALTYPE  : XRF
#YP_TEMP     : 0.664
#LIVETIME    : 8.82482, 8.82261   seconds (separate by commas if more than one detector)
#REALTIME    : 10, 10.0   seconds (separate by commas if more than one detector)
#SPECTRUM    : start of spectrum data
0, 0
0, 0
0, 0
0, 0
0, 0
0, 0
0, 0
1, 0
2, 3
6, 4
2, 0
11, 10
18, 5
20, 28
44, 35
95, 128
467, 473
133, 102
27, 43
18, 21
60, 73
330, 409
140, 139
81, 64
197, 208
128, 109
77, 65
33, 30
7, 3
11, 13
24, 27
19, 13
21, 20
214, 265
301, 298
49, 38
48, 43
47, 50
13, 9
8, 6
10, 16
56, 67
34, 24
10, 19
22, 16
16, 20
21, 20
6, 13
13, 18
33, 23
31, 22
7, 13
7, 10
36, 27
40, 39
15, 21
29, 21
382, 471
1602, 1777
1017, 928
127, 105
21, 18
23, 11
75, 100
266, 296
158, 152
23, 16
6, 7
17, 15
8, 10
8, 3
8, 6
7, 6
7, 9
5, 10
9, 12
5, 6
7, 5
9, 8
13, 11
3, 1
3, 8
4, 7
2, 7
3, 11
4, 4
4, 3
7, 7
2, 2
4, 11
4, 3
4, 7
5, 2
2, 4
2, 2
2, 5
2, 2
7, 1
1, 3
3, 6
1, 4
4, 2
6, 3
1, 4
0, 4
2, 5
0, 3
0, 3
2, 2
0, 6
2, 3
4, 2
0, 2
2, 2
2, 6
2, 1
3, 7
1, 2
3, 1
1, 3
0, 2
1, 6
2, 0
2, 1
2, 1
3, 0
0, 0
2, 0
0, 1
0, 1
0, 0
1, 0
0, 1
0, 1
1, 0
1, 1
0, 0
0, 1
1, 1
1, 0
1, 1
1, 0
1, 0
0, 0
2, 1
2, 0
0, 1
1, 1
0, 0
0, 2
0, 1
1, 0
0, 1
0, 0
0, 0
0, 1
0, 0
0, 0
0, 0
0, 0
0, 1
0, 0
0, 0
2, 0
0, 0
1, 0
0, 0
0, 1
0, 0
1, 0
0, 0
0, 0
0, 0
0, 1
0, 0
0, 0
0, 0
0, 0
0, 1
1, 0
0, 0
0, 0
0, 0
0, 0
0, 0
0, 0
1, 0
0, 0
0, 0
0, 0
0, 0
0, 0
0, 0
0, 0
0, 0
0, 0
0, 0
0, 0
0, 0
0, 0
0, 0
0, 0
0, 0
0, 0
0, 0
0, 0
0, 0
0, 0
0, 0
0, 0
0, 0
0, 0
1, 0
0, 0
0, 0
0, 0
0, 0
0, 0
0, 0
0, 0
0, 0
0, 0
0, 0
0, 0
0, 0
0, 0
0, 0
0, 0
0, 0
0, 0
0, 0
0, 0
0, 0
0, 0
0, 0
0, 0
0, 0
0, 0
0, 0
0, 0
0, 0
0, 0
0, 0
0, 0
0, 0
0, 0
0, 0
0, 0
0, 0
0, 0
0, 0
0, 0
0, 0
0, 0
0, 0
0, 0
0, 0
0, 0
0, 0
0, 0
0, 0
0, 0
0, 0
0, 0
0, 0
0, 0
0, 0
0, 0
0, 0
0, 0
0, 0
0, 0
0, 0
0, 0
0, 0
0, 0
0, 0
0, 0
0, 0
0, 0
0, 0
0, 0
0, 0
0, 0
0, 0
0, 0
0, 0
0, 0
0, 0
0, 0
0, 0
0, 0
0, 0
0, 0
#ENDOFDATA     end of spectrum data