File: host_upload/02-11-2024/rqc/uplink1/ps__0567_0717304816_000rfs_shot_301.msa
#FORMAT      : EMSA/MAS spectral data file
#VERSION     : TC202v2.0 PIXL
#TITLE       : Novarupta (sol567) subset1
#DATE        : 02-11-2024      Date in the format DD-MMM-YYYY, for example 07-JUL-2010
#TIME        :             The time of day at which the spectrum was recorded, in 24-hour format
#OWNER       : PIXL Flight Model       (PIXL will use this to indicate which instrument took the data.)
#NPOINTS     : 4096     Number of data points in the spectrum (This can be zero for configuration only files)
#NCOLUMNS    : 2     Number of data columns in the spectrum (This can be zero for configuration only files)
#XUNITS      : eV
#YUNITS      : COUNTS
#DATATYPE    : YY
#XPERCHAN    : 7.862, 7.881   eV per channel (separate by commas if more than one detector)
#OFFSET      : 18.5, -22.4         eV of first channel  (separate by commas if more than one detector
#SIGNALTYPE  : XRF
#YP_TEMP     : 1.498
#LIVETIME    : 8.82453, 8.80915   seconds (separate by commas if more than one detector)
#REALTIME    : 10, 10.0   seconds (separate by commas if more than one detector)
#SPECTRUM    : start of spectrum data
0, 0
0, 0
0, 0
0, 0
0, 0
0, 0
0, 0
1, 0
2, 4
2, 5
1, 4
14, 8
9, 18
30, 22
50, 42
106, 121
483, 565
132, 134
24, 27
25, 24
55, 70
335, 354
147, 116
65, 85
230, 237
118, 102
76, 62
33, 36
14, 11
11, 6
27, 31
21, 22
25, 27
195, 241
333, 354
49, 53
40, 45
64, 59
12, 14
16, 8
21, 27
56, 63
33, 36
22, 8
19, 18
22, 19
12, 12
16, 13
10, 15
25, 36
24, 21
12, 16
14, 20
26, 51
41, 43
25, 26
27, 29
347, 480
1523, 1772
978, 1038
128, 94
14, 14
16, 31
90, 106
269, 298
159, 160
34, 18
5, 10
17, 18
10, 16
2, 7
4, 6
3, 2
9, 5
6, 10
4, 9
4, 8
9, 6
13, 8
15, 10
9, 8
4, 6
8, 5
8, 13
5, 6
1, 4
7, 10
4, 9
6, 2
5, 5
3, 5
4, 5
5, 8
4, 2
1, 6
5, 2
5, 3
1, 1
5, 8
2, 5
2, 3
3, 0
4, 3
2, 6
3, 3
1, 3
1, 1
3, 1
2, 2
0, 2
4, 0
0, 3
2, 5
0, 3
6, 5
2, 3
3, 3
5, 3
1, 1
2, 2
2, 2
0, 1
4, 1
0, 2
3, 2
0, 3
1, 1
3, 4
2, 1
1, 0
0, 1
1, 0
1, 1
0, 1
1, 1
0, 1
3, 0
1, 0
0, 1
0, 0
0, 1
2, 2
0, 0
1, 1
1, 0
0, 0
0, 0
0, 0
0, 0
0, 1
1, 0
0, 0
0, 0
1, 0
0, 0
1, 1
0, 0
0, 0
0, 1
0, 1
1, 0
0, 0
1, 2
0, 0
0, 0
1, 0
0, 0
0, 0
0, 0
1, 0
1, 1
0, 1
0, 0
1, 0
1, 0
0, 0
0, 0
0, 0
0, 0
0, 1
0, 0
0, 0
0, 1
0, 1
1, 1
0, 0
0, 0
0, 0
0, 0
0, 0
0, 0
0, 0
1, 0
0, 0
0, 0
0, 0
0, 0
0, 0
0, 0
0, 0
0, 0
0, 0
0, 0
0, 0
0, 0
0, 0
0, 0
0, 0
0, 0
0, 0
0, 0
0, 0
0, 0
0, 0
1, 0
0, 0
0, 0
0, 0
0, 0
0, 0
0, 0
0, 0
0, 0
0, 0
0, 0
0, 0
0, 0
0, 0
0, 0
0, 0
0, 0
0, 0
0, 0
0, 0
0, 0
0, 0
0, 0
0, 0
0, 0
0, 0
0, 0
0, 0
0, 0
0, 0
0, 0
0, 0
0, 0
0, 0
0, 0
0, 0
0, 0
0, 0
0, 0
0, 0
0, 0
0, 0
0, 0
0, 0
0, 0
0, 0
0, 0
0, 0
0, 0
0, 0
0, 0
0, 0
0, 0
0, 0
0, 0
0, 0
0, 0
0, 0
0, 0
0, 0
0, 0
0, 0
0, 0
0, 0
0, 0
0, 0
0, 0
0, 0
0, 0
0, 0
0, 0
0, 0
0, 0
0, 0
0, 0
0, 0
0, 0
0, 0
0, 0
0, 0
#ENDOFDATA     end of spectrum data