File: host_upload/02-11-2024/rqc/uplink1/ps__0567_0717304816_000rfs_shot_126.msa
#FORMAT      : EMSA/MAS spectral data file
#VERSION     : TC202v2.0 PIXL
#TITLE       : Novarupta (sol567) subset1
#DATE        : 02-11-2024      Date in the format DD-MMM-YYYY, for example 07-JUL-2010
#TIME        :             The time of day at which the spectrum was recorded, in 24-hour format
#OWNER       : PIXL Flight Model       (PIXL will use this to indicate which instrument took the data.)
#NPOINTS     : 4096     Number of data points in the spectrum (This can be zero for configuration only files)
#NCOLUMNS    : 2     Number of data columns in the spectrum (This can be zero for configuration only files)
#XUNITS      : eV
#YUNITS      : COUNTS
#DATATYPE    : YY
#XPERCHAN    : 7.862, 7.881   eV per channel (separate by commas if more than one detector)
#OFFSET      : 18.5, -22.4         eV of first channel  (separate by commas if more than one detector
#SIGNALTYPE  : XRF
#YP_TEMP     : -0.523
#LIVETIME    : 8.83892, 8.81832   seconds (separate by commas if more than one detector)
#REALTIME    : 10, 10.0   seconds (separate by commas if more than one detector)
#SPECTRUM    : start of spectrum data
0, 0
0, 0
0, 0
0, 0
0, 0
0, 0
0, 0
0, 0
1, 3
2, 4
2, 9
9, 11
6, 11
22, 26
38, 49
101, 117
488, 485
121, 126
24, 27
22, 17
54, 66
256, 295
107, 115
65, 70
190, 221
110, 106
56, 60
22, 28
8, 7
6, 9
22, 33
7, 16
15, 18
182, 244
300, 342
63, 59
39, 47
61, 45
11, 15
8, 12
18, 21
65, 67
33, 27
17, 13
17, 16
18, 21
12, 13
4, 10
16, 13
31, 40
16, 28
10, 13
8, 14
30, 44
45, 46
16, 21
37, 40
391, 548
1497, 1912
904, 917
102, 78
22, 12
15, 25
86, 128
256, 264
143, 147
11, 28
14, 14
12, 10
7, 8
9, 4
5, 9
9, 5
6, 3
7, 11
13, 11
5, 6
8, 8
8, 17
9, 6
3, 2
5, 6
4, 6
4, 6
3, 5
3, 6
5, 4
5, 2
6, 5
2, 6
2, 9
5, 6
6, 5
5, 5
4, 2
5, 3
1, 4
0, 5
2, 5
4, 3
4, 1
2, 3
1, 4
3, 0
4, 4
0, 3
8, 3
2, 2
1, 3
0, 3
3, 3
0, 0
2, 5
2, 2
2, 0
1, 2
5, 4
0, 5
3, 1
0, 0
0, 2
0, 0
2, 0
4, 1
2, 2
4, 1
0, 2
3, 1
0, 1
0, 1
2, 2
1, 1
2, 0
0, 1
1, 0
0, 0
1, 1
0, 2
0, 2
0, 1
0, 1
0, 1
1, 1
0, 0
1, 1
0, 1
0, 1
0, 1
0, 0
1, 1
0, 0
0, 0
0, 0
0, 0
1, 0
1, 0
0, 0
0, 0
0, 1
0, 0
0, 0
0, 0
0, 0
0, 0
0, 0
1, 0
0, 0
0, 0
0, 0
0, 1
0, 0
0, 0
0, 0
0, 0
0, 1
0, 0
0, 0
0, 0
0, 0
0, 0
0, 0
0, 0
1, 0
1, 0
0, 0
0, 0
0, 0
0, 1
0, 0
0, 0
1, 0
1, 0
0, 0
0, 0
0, 0
0, 0
0, 0
0, 0
0, 0
0, 0
0, 0
0, 0
0, 0
0, 0
0, 0
0, 0
0, 0
0, 0
0, 0
0, 0
0, 0
0, 0
0, 0
0, 0
0, 0
0, 0
0, 0
0, 0
0, 0
0, 0
0, 0
0, 0
0, 0
0, 0
0, 0
0, 0
0, 0
0, 0
0, 0
0, 0
0, 0
0, 0
0, 0
0, 0
0, 0
0, 0
0, 0
0, 0
0, 0
0, 0
0, 0
0, 0
0, 0
0, 0
0, 0
0, 0
0, 0
0, 0
0, 0
0, 0
0, 0
0, 0
0, 0
0, 0
0, 0
0, 0
0, 0
0, 0
0, 0
0, 0
0, 0
0, 0
0, 0
0, 0
0, 0
0, 0
0, 0
0, 0
0, 0
0, 0
0, 0
0, 0
0, 0
0, 0
0, 0
0, 0
0, 0
0, 0
0, 0
0, 0
0, 0
0, 0
0, 0
0, 0
0, 0
0, 0
0, 0
0, 0
0, 0
0, 0
0, 0
0, 0
0, 0
0, 0
#ENDOFDATA     end of spectrum data