File: host_upload/02-11-2024/rqc/uplink1/ps__0567_0717304816_000rfs_shot_399.msa
#FORMAT      : EMSA/MAS spectral data file
#VERSION     : TC202v2.0 PIXL
#TITLE       : Novarupta (sol567) subset1
#DATE        : 02-11-2024      Date in the format DD-MMM-YYYY, for example 07-JUL-2010
#TIME        :             The time of day at which the spectrum was recorded, in 24-hour format
#OWNER       : PIXL Flight Model       (PIXL will use this to indicate which instrument took the data.)
#NPOINTS     : 4096     Number of data points in the spectrum (This can be zero for configuration only files)
#NCOLUMNS    : 2     Number of data columns in the spectrum (This can be zero for configuration only files)
#XUNITS      : eV
#YUNITS      : COUNTS
#DATATYPE    : YY
#XPERCHAN    : 7.862, 7.881   eV per channel (separate by commas if more than one detector)
#OFFSET      : 18.5, -22.4         eV of first channel  (separate by commas if more than one detector
#SIGNALTYPE  : XRF
#YP_TEMP     : 1.883
#LIVETIME    : 8.82121, 8.80472   seconds (separate by commas if more than one detector)
#REALTIME    : 10, 10.0   seconds (separate by commas if more than one detector)
#SPECTRUM    : start of spectrum data
0, 0
0, 0
0, 0
0, 0
0, 0
0, 0
0, 0
0, 0
5, 4
1, 6
3, 5
9, 11
12, 11
17, 30
39, 36
97, 115
512, 559
131, 122
27, 47
29, 22
45, 60
323, 303
117, 103
93, 76
224, 282
111, 126
73, 63
32, 32
14, 12
7, 10
22, 38
25, 12
13, 19
199, 254
341, 353
64, 53
46, 51
49, 50
15, 12
8, 8
27, 21
77, 76
35, 29
12, 10
14, 13
9, 17
18, 10
13, 8
13, 22
24, 18
25, 18
14, 13
8, 8
37, 36
34, 36
17, 32
31, 34
330, 464
1635, 1902
1189, 1059
130, 122
14, 19
13, 17
92, 120
266, 336
185, 139
17, 14
8, 10
8, 14
11, 7
9, 3
8, 8
9, 4
3, 9
6, 11
5, 11
10, 8
6, 6
19, 11
17, 9
9, 5
5, 5
3, 6
4, 7
4, 7
6, 5
6, 3
3, 3
4, 3
6, 6
7, 4
6, 6
2, 5
3, 2
2, 1
5, 3
3, 0
5, 4
2, 6
3, 3
3, 5
2, 2
3, 1
3, 4
2, 2
4, 2
0, 5
0, 5
1, 3
0, 3
1, 3
2, 6
2, 4
2, 0
2, 1
0, 3
3, 3
5, 4
1, 1
1, 1
0, 1
1, 5
0, 1
2, 3
0, 3
4, 1
0, 2
0, 0
3, 2
3, 1
0, 2
0, 2
1, 1
1, 1
0, 0
1, 1
0, 1
1, 2
1, 1
0, 0
0, 0
0, 0
1, 0
1, 1
0, 0
1, 0
0, 0
0, 1
0, 1
0, 1
0, 1
1, 0
0, 0
0, 0
0, 0
0, 1
0, 0
0, 1
0, 0
0, 0
1, 0
0, 0
1, 0
0, 0
0, 0
0, 0
0, 0
0, 0
2, 0
1, 0
0, 0
1, 1
0, 0
0, 0
0, 1
1, 0
0, 0
1, 0
0, 0
0, 1
0, 0
0, 0
0, 0
1, 0
0, 0
1, 0
0, 0
0, 0
0, 0
0, 0
0, 0
0, 0
0, 0
0, 0
0, 0
0, 0
0, 0
0, 0
0, 0
0, 0
0, 0
0, 0
0, 0
0, 0
0, 0
0, 0
0, 0
0, 0
0, 0
0, 0
0, 0
0, 0
0, 0
0, 0
0, 0
0, 0
0, 0
0, 0
0, 0
0, 0
0, 0
0, 0
0, 0
0, 0
0, 0
0, 0
0, 0
0, 0
0, 0
0, 0
0, 0
0, 0
0, 0
0, 0
0, 0
0, 0
0, 0
0, 0
0, 0
0, 0
0, 0
0, 0
0, 0
0, 0
0, 0
0, 0
0, 0
0, 0
0, 0
0, 0
0, 0
0, 0
0, 0
0, 0
0, 0
0, 0
0, 0
0, 0
0, 0
0, 0
0, 0
0, 0
0, 0
0, 0
0, 0
0, 0
0, 0
0, 0
0, 0
0, 0
0, 0
0, 0
0, 0
0, 0
0, 0
0, 0
0, 0
0, 0
0, 0
0, 0
0, 0
0, 0
0, 0
0, 0
0, 0
0, 0
0, 0
0, 0
0, 0
0, 0
0, 0
0, 0
0, 0
0, 0
#ENDOFDATA     end of spectrum data