File: host_upload/02-11-2024/rqc/uplink1/ps__0567_0717304816_000rfs_shot_176.msa
#FORMAT      : EMSA/MAS spectral data file
#VERSION     : TC202v2.0 PIXL
#TITLE       : Novarupta (sol567) subset1
#DATE        : 02-11-2024      Date in the format DD-MMM-YYYY, for example 07-JUL-2010
#TIME        :             The time of day at which the spectrum was recorded, in 24-hour format
#OWNER       : PIXL Flight Model       (PIXL will use this to indicate which instrument took the data.)
#NPOINTS     : 4096     Number of data points in the spectrum (This can be zero for configuration only files)
#NCOLUMNS    : 2     Number of data columns in the spectrum (This can be zero for configuration only files)
#XUNITS      : eV
#YUNITS      : COUNTS
#DATATYPE    : YY
#XPERCHAN    : 7.862, 7.881   eV per channel (separate by commas if more than one detector)
#OFFSET      : 18.5, -22.4         eV of first channel  (separate by commas if more than one detector
#SIGNALTYPE  : XRF
#YP_TEMP     : 0.247
#LIVETIME    : 8.82226, 8.82291   seconds (separate by commas if more than one detector)
#REALTIME    : 10, 10.0   seconds (separate by commas if more than one detector)
#SPECTRUM    : start of spectrum data
0, 0
0, 0
0, 0
0, 0
0, 0
0, 0
0, 0
3, 0
3, 6
5, 1
4, 1
8, 11
16, 10
24, 19
45, 37
89, 131
506, 509
145, 94
37, 27
24, 25
51, 49
316, 338
109, 105
90, 66
244, 212
128, 119
58, 90
27, 31
14, 7
7, 9
29, 27
18, 24
16, 27
196, 216
316, 348
48, 53
35, 44
59, 60
11, 19
12, 10
24, 25
48, 56
20, 48
15, 20
12, 14
17, 20
14, 14
8, 14
14, 25
21, 32
27, 20
13, 12
13, 15
34, 42
43, 53
27, 23
41, 37
357, 453
1635, 1798
1055, 945
129, 105
16, 16
16, 17
96, 102
265, 280
155, 150
24, 22
6, 6
10, 8
2, 4
5, 4
2, 9
8, 10
11, 3
10, 12
5, 9
6, 7
2, 14
15, 8
16, 7
7, 5
5, 6
9, 10
8, 3
9, 1
10, 6
9, 9
4, 6
8, 3
4, 5
8, 4
2, 4
3, 5
5, 1
1, 8
3, 5
2, 2
1, 2
2, 5
5, 6
0, 2
2, 2
4, 4
3, 6
3, 1
1, 3
2, 2
2, 3
1, 3
3, 1
2, 2
4, 1
2, 1
1, 1
4, 2
2, 3
0, 2
2, 2
1, 4
3, 4
1, 2
0, 2
2, 1
0, 0
3, 2
1, 2
1, 2
0, 1
1, 2
2, 2
0, 0
1, 1
1, 0
2, 0
0, 3
0, 1
0, 0
0, 1
1, 1
1, 0
0, 0
0, 0
2, 2
3, 1
1, 0
0, 1
0, 0
0, 0
0, 0
1, 2
0, 0
0, 0
0, 0
0, 0
0, 0
0, 0
0, 0
0, 0
0, 0
0, 1
0, 1
1, 0
0, 1
1, 0
0, 0
2, 0
0, 1
0, 1
0, 0
0, 1
1, 0
0, 0
0, 0
1, 2
0, 0
0, 0
2, 1
0, 0
0, 0
0, 0
0, 0
0, 0
1, 0
0, 1
1, 0
0, 0
0, 0
0, 0
0, 0
0, 0
0, 0
0, 0
0, 0
0, 0
0, 0
0, 1
0, 0
0, 0
0, 0
0, 0
0, 0
1, 0
0, 0
0, 0
0, 0
0, 0
0, 0
0, 0
0, 0
0, 0
0, 0
0, 0
0, 0
0, 0
0, 0
0, 0
0, 0
0, 0
0, 0
0, 0
0, 1
0, 0
0, 0
0, 0
0, 0
0, 0
0, 0
0, 0
0, 0
0, 0
0, 0
0, 0
0, 1
0, 0
0, 0
0, 0
0, 0
0, 0
0, 0
0, 0
0, 0
0, 0
0, 0
0, 0
0, 0
0, 0
0, 0
0, 0
0, 0
0, 0
0, 0
0, 0
0, 0
0, 0
0, 0
0, 0
0, 0
0, 0
0, 0
0, 0
0, 0
0, 0
0, 0
0, 0
0, 0
0, 0
0, 0
0, 0
0, 0
0, 0
0, 0
0, 0
0, 0
0, 0
0, 0
0, 0
0, 0
0, 0
0, 0
0, 0
0, 0
0, 0
0, 0
0, 0
0, 0
0, 0
0, 0
0, 0
0, 0
0, 0
0, 0
0, 0
0, 0
0, 0
#ENDOFDATA     end of spectrum data