File: host_upload/02-11-2024/rqc/uplink1/ps__0567_0717304816_000rfs_shot_266.msa
#FORMAT      : EMSA/MAS spectral data file
#VERSION     : TC202v2.0 PIXL
#TITLE       : Novarupta (sol567) subset1
#DATE        : 02-11-2024      Date in the format DD-MMM-YYYY, for example 07-JUL-2010
#TIME        :             The time of day at which the spectrum was recorded, in 24-hour format
#OWNER       : PIXL Flight Model       (PIXL will use this to indicate which instrument took the data.)
#NPOINTS     : 4096     Number of data points in the spectrum (This can be zero for configuration only files)
#NCOLUMNS    : 2     Number of data columns in the spectrum (This can be zero for configuration only files)
#XUNITS      : eV
#YUNITS      : COUNTS
#DATATYPE    : YY
#XPERCHAN    : 7.862, 7.881   eV per channel (separate by commas if more than one detector)
#OFFSET      : 18.5, -22.4         eV of first channel  (separate by commas if more than one detector
#SIGNALTYPE  : XRF
#YP_TEMP     : 1.177
#LIVETIME    : 8.83862, 8.80876   seconds (separate by commas if more than one detector)
#REALTIME    : 10, 10.0   seconds (separate by commas if more than one detector)
#SPECTRUM    : start of spectrum data
0, 0
0, 0
0, 0
0, 0
0, 0
0, 0
0, 0
0, 0
3, 4
5, 7
0, 6
11, 16
14, 10
25, 30
43, 57
106, 122
463, 578
116, 123
27, 27
21, 26
66, 76
305, 338
111, 128
64, 66
203, 266
92, 93
66, 74
32, 33
8, 14
6, 12
25, 28
15, 23
14, 24
192, 284
331, 376
52, 69
32, 50
44, 47
11, 10
9, 10
14, 26
59, 54
30, 37
10, 19
11, 17
22, 22
12, 19
12, 14
12, 17
21, 28
10, 31
7, 9
9, 12
21, 49
50, 56
26, 23
25, 30
350, 484
1520, 1859
953, 1024
104, 90
17, 11
19, 24
71, 110
197, 300
140, 146
19, 13
4, 5
12, 15
9, 6
1, 7
4, 10
7, 2
4, 7
3, 12
12, 8
3, 7
5, 7
13, 5
11, 14
10, 5
6, 17
1, 8
8, 0
7, 9
6, 8
4, 4
9, 5
8, 3
8, 6
4, 1
6, 5
8, 6
6, 3
2, 3
3, 4
2, 5
4, 1
1, 4
4, 0
5, 1
3, 4
2, 2
5, 2
3, 2
2, 5
2, 3
2, 3
3, 1
3, 3
1, 2
4, 2
1, 2
0, 3
3, 2
2, 1
2, 4
2, 3
1, 0
1, 4
4, 3
1, 2
1, 1
0, 1
3, 1
1, 0
1, 1
0, 3
0, 1
1, 0
0, 1
2, 1
1, 0
0, 1
0, 0
1, 2
0, 0
0, 1
1, 0
0, 1
0, 0
1, 1
2, 2
0, 0
0, 0
0, 0
0, 0
0, 0
2, 2
0, 0
0, 0
1, 0
0, 0
0, 0
0, 2
1, 0
0, 0
0, 0
0, 0
0, 0
1, 0
0, 1
0, 1
0, 0
0, 0
1, 0
1, 0
0, 0
0, 0
0, 1
0, 0
0, 0
0, 0
0, 0
0, 0
0, 0
0, 0
0, 0
1, 1
0, 0
0, 0
0, 0
0, 0
0, 0
0, 0
0, 0
0, 0
0, 1
1, 0
0, 0
0, 0
0, 0
0, 0
0, 0
0, 0
0, 0
0, 0
0, 0
0, 0
0, 1
0, 0
0, 0
0, 0
0, 0
0, 1
0, 0
0, 0
0, 0
0, 0
0, 0
0, 0
0, 0
0, 0
0, 0
0, 0
0, 0
0, 0
0, 0
0, 0
0, 0
0, 0
0, 0
0, 0
0, 0
0, 0
0, 0
0, 0
0, 0
0, 0
0, 0
0, 0
0, 0
0, 0
0, 0
0, 0
0, 0
0, 0
0, 0
0, 0
0, 0
0, 0
0, 0
0, 0
0, 0
0, 0
0, 0
0, 0
0, 0
0, 0
0, 0
0, 0
0, 0
0, 0
0, 0
0, 0
0, 0
0, 0
0, 0
0, 0
0, 0
0, 0
0, 0
0, 0
0, 0
0, 0
0, 0
0, 0
0, 0
0, 0
0, 0
0, 0
0, 0
0, 0
0, 0
0, 0
0, 0
0, 0
0, 0
0, 0
0, 0
0, 0
0, 0
0, 0
0, 0
0, 0
0, 0
0, 0
0, 0
0, 0
0, 0
0, 0
0, 0
0, 0
0, 0
#ENDOFDATA     end of spectrum data