File: host_upload/02-11-2024/rqc/uplink1/ps__0567_0717304816_000rfs_shot_352.msa
#FORMAT      : EMSA/MAS spectral data file
#VERSION     : TC202v2.0 PIXL
#TITLE       : Novarupta (sol567) subset1
#DATE        : 02-11-2024      Date in the format DD-MMM-YYYY, for example 07-JUL-2010
#TIME        :             The time of day at which the spectrum was recorded, in 24-hour format
#OWNER       : PIXL Flight Model       (PIXL will use this to indicate which instrument took the data.)
#NPOINTS     : 4096     Number of data points in the spectrum (This can be zero for configuration only files)
#NCOLUMNS    : 2     Number of data columns in the spectrum (This can be zero for configuration only files)
#XUNITS      : eV
#YUNITS      : COUNTS
#DATATYPE    : YY
#XPERCHAN    : 7.862, 7.881   eV per channel (separate by commas if more than one detector)
#OFFSET      : 18.5, -22.4         eV of first channel  (separate by commas if more than one detector
#SIGNALTYPE  : XRF
#YP_TEMP     : 1.594
#LIVETIME    : 8.83316, 8.80277   seconds (separate by commas if more than one detector)
#REALTIME    : 10, 10.0   seconds (separate by commas if more than one detector)
#SPECTRUM    : start of spectrum data
0, 0
0, 0
0, 0
0, 0
0, 0
0, 0
0, 0
0, 1
2, 1
2, 5
5, 4
7, 15
12, 22
17, 19
48, 31
92, 117
489, 527
126, 103
33, 39
24, 27
56, 57
309, 323
120, 132
58, 80
208, 200
90, 122
61, 73
24, 23
12, 10
6, 10
24, 39
16, 21
16, 19
206, 248
317, 319
46, 55
47, 40
54, 51
10, 9
9, 9
20, 26
44, 60
29, 35
15, 23
18, 16
9, 22
12, 20
10, 8
14, 13
33, 30
27, 31
9, 15
9, 9
32, 37
50, 51
25, 19
35, 34
407, 480
1604, 1842
1104, 1097
137, 111
15, 12
19, 26
89, 103
258, 275
164, 139
15, 32
8, 10
8, 17
12, 5
6, 5
7, 8
5, 8
10, 9
12, 10
8, 7
8, 5
6, 5
14, 9
4, 8
4, 6
11, 5
4, 5
7, 3
3, 6
3, 3
9, 1
2, 9
2, 6
4, 6
2, 3
6, 5
2, 5
2, 7
3, 3
2, 4
1, 4
1, 5
5, 3
5, 3
3, 7
4, 0
4, 5
0, 7
4, 2
1, 5
0, 3
0, 2
4, 0
4, 2
1, 4
2, 3
2, 3
2, 4
2, 2
2, 4
2, 1
6, 7
1, 8
2, 3
1, 2
2, 0
1, 1
1, 1
2, 5
0, 2
0, 1
1, 2
2, 0
4, 0
1, 0
1, 1
2, 4
0, 0
0, 0
0, 1
2, 1
1, 2
1, 3
0, 0
0, 0
1, 0
0, 1
2, 1
1, 0
1, 2
0, 1
0, 0
0, 0
1, 0
0, 1
0, 0
0, 1
3, 1
0, 0
1, 1
1, 1
2, 0
0, 1
0, 0
0, 0
0, 0
0, 0
0, 0
0, 0
0, 0
0, 0
0, 1
0, 0
1, 1
0, 1
0, 0
0, 0
1, 0
0, 0
0, 0
0, 1
0, 0
0, 0
0, 0
0, 0
0, 0
1, 0
1, 0
0, 0
0, 1
0, 1
0, 0
0, 0
0, 0
0, 0
0, 0
0, 0
0, 0
0, 0
0, 0
0, 0
0, 1
0, 0
0, 0
0, 0
0, 0
0, 0
0, 0
0, 0
0, 0
0, 0
0, 0
0, 0
0, 0
0, 0
0, 0
0, 0
0, 0
0, 0
0, 0
0, 0
0, 0
0, 0
0, 0
0, 0
0, 0
0, 0
0, 0
0, 0
0, 0
0, 0
0, 0
0, 0
0, 0
0, 0
0, 0
0, 0
0, 0
0, 0
0, 0
0, 0
0, 0
0, 0
0, 0
0, 0
0, 0
0, 0
0, 0
0, 0
0, 0
0, 0
0, 0
0, 0
0, 0
0, 0
0, 0
0, 0
0, 0
0, 0
0, 0
0, 0
0, 0
0, 0
0, 0
0, 0
0, 0
0, 0
0, 0
0, 0
0, 0
0, 0
0, 0
0, 0
0, 0
0, 0
0, 0
0, 0
0, 0
0, 0
0, 0
0, 0
0, 0
0, 0
0, 0
0, 0
0, 0
0, 0
0, 0
0, 0
0, 0
0, 0
0, 0
0, 0
0, 0
0, 0
0, 0
0, 0
0, 0
#ENDOFDATA     end of spectrum data