File: host_upload/02-11-2024/rqc/uplink1/ps__0567_0717304816_000rfs_shot_449.msa
#FORMAT      : EMSA/MAS spectral data file
#VERSION     : TC202v2.0 PIXL
#TITLE       : Novarupta (sol567) subset1
#DATE        : 02-11-2024      Date in the format DD-MMM-YYYY, for example 07-JUL-2010
#TIME        :             The time of day at which the spectrum was recorded, in 24-hour format
#OWNER       : PIXL Flight Model       (PIXL will use this to indicate which instrument took the data.)
#NPOINTS     : 4096     Number of data points in the spectrum (This can be zero for configuration only files)
#NCOLUMNS    : 2     Number of data columns in the spectrum (This can be zero for configuration only files)
#XUNITS      : eV
#YUNITS      : COUNTS
#DATATYPE    : YY
#XPERCHAN    : 7.862, 7.881   eV per channel (separate by commas if more than one detector)
#OFFSET      : 18.5, -22.4         eV of first channel  (separate by commas if more than one detector
#SIGNALTYPE  : XRF
#YP_TEMP     : 1.658
#LIVETIME    : 8.84358, 8.81358   seconds (separate by commas if more than one detector)
#REALTIME    : 10, 10.0   seconds (separate by commas if more than one detector)
#SPECTRUM    : start of spectrum data
0, 0
0, 0
0, 0
0, 0
0, 0
0, 0
0, 0
1, 0
2, 1
4, 3
1, 4
4, 11
15, 13
17, 26
36, 51
102, 124
480, 532
110, 131
26, 28
24, 24
42, 58
261, 319
123, 111
64, 83
219, 235
125, 121
68, 76
22, 41
6, 13
8, 6
24, 27
15, 15
11, 22
183, 263
318, 328
54, 52
39, 51
41, 55
18, 19
11, 12
14, 18
56, 66
35, 46
9, 17
11, 14
14, 17
17, 13
7, 13
16, 25
19, 30
9, 16
17, 15
15, 7
39, 49
41, 49
17, 19
22, 24
349, 461
1498, 1798
1015, 1035
124, 96
13, 29
15, 23
71, 102
230, 269
136, 152
24, 24
10, 8
15, 7
13, 6
4, 3
2, 9
7, 6
3, 6
8, 7
5, 9
4, 6
6, 6
18, 16
14, 6
8, 6
3, 7
8, 9
3, 6
7, 5
7, 5
2, 4
11, 4
4, 5
5, 1
1, 2
4, 2
4, 5
1, 4
3, 4
2, 5
2, 5
4, 2
1, 3
6, 3
3, 9
3, 2
2, 5
3, 2
1, 1
2, 3
5, 1
3, 3
1, 0
3, 1
2, 3
4, 0
1, 0
0, 0
2, 2
2, 3
2, 5
6, 1
0, 0
2, 3
1, 1
1, 2
3, 5
2, 1
2, 4
1, 1
0, 0
1, 3
1, 1
0, 2
0, 1
0, 2
4, 1
0, 1
0, 0
0, 1
0, 2
1, 1
1, 2
1, 0
0, 3
1, 0
1, 0
1, 0
0, 1
0, 1
2, 0
1, 0
0, 0
1, 0
0, 0
0, 2
0, 0
1, 0
1, 0
2, 0
1, 0
0, 1
0, 1
0, 1
0, 0
0, 0
1, 0
0, 0
0, 0
1, 0
0, 0
0, 0
0, 0
1, 0
1, 2
0, 0
0, 0
0, 0
0, 0
1, 1
0, 0
0, 0
0, 1
0, 0
1, 0
1, 0
0, 0
0, 0
1, 0
0, 0
0, 0
2, 0
0, 0
0, 0
0, 0
0, 0
0, 0
0, 0
0, 0
0, 0
0, 1
0, 0
0, 0
0, 0
0, 0
0, 0
0, 0
0, 0
0, 0
0, 0
0, 0
1, 0
0, 0
0, 0
0, 0
0, 0
0, 0
1, 0
0, 0
1, 0
0, 0
0, 0
0, 0
0, 0
0, 0
0, 0
0, 0
0, 0
0, 0
0, 0
0, 0
0, 0
0, 0
0, 0
0, 0
0, 0
0, 0
0, 0
0, 0
0, 0
0, 0
0, 0
0, 0
0, 0
0, 0
0, 0
0, 0
0, 0
0, 0
0, 0
0, 0
0, 0
0, 0
0, 0
0, 0
0, 0
0, 0
0, 0
0, 0
0, 0
0, 0
0, 0
0, 0
0, 0
0, 0
0, 0
0, 0
0, 0
0, 0
0, 0
0, 0
0, 0
0, 0
0, 0
0, 0
0, 0
0, 0
0, 0
0, 0
0, 0
0, 0
0, 0
0, 0
0, 0
0, 0
0, 0
0, 0
0, 0
0, 0
0, 0
0, 0
0, 0
0, 0
0, 0
0, 0
0, 0
0, 0
0, 0
#ENDOFDATA     end of spectrum data