File: host_upload/02-11-2024/rqc/uplink1/ps__0567_0717304816_000rfs_shot_248.msa
#FORMAT      : EMSA/MAS spectral data file
#VERSION     : TC202v2.0 PIXL
#TITLE       : Novarupta (sol567) subset1
#DATE        : 02-11-2024      Date in the format DD-MMM-YYYY, for example 07-JUL-2010
#TIME        :             The time of day at which the spectrum was recorded, in 24-hour format
#OWNER       : PIXL Flight Model       (PIXL will use this to indicate which instrument took the data.)
#NPOINTS     : 4096     Number of data points in the spectrum (This can be zero for configuration only files)
#NCOLUMNS    : 2     Number of data columns in the spectrum (This can be zero for configuration only files)
#XUNITS      : eV
#YUNITS      : COUNTS
#DATATYPE    : YY
#XPERCHAN    : 7.862, 7.881   eV per channel (separate by commas if more than one detector)
#OFFSET      : 18.5, -22.4         eV of first channel  (separate by commas if more than one detector
#SIGNALTYPE  : XRF
#YP_TEMP     : 1.081
#LIVETIME    : 8.8225, 8.83047   seconds (separate by commas if more than one detector)
#REALTIME    : 10, 10.0   seconds (separate by commas if more than one detector)
#SPECTRUM    : start of spectrum data
0, 0
0, 0
0, 0
0, 0
0, 0
0, 0
0, 0
0, 2
1, 3
4, 1
2, 1
10, 7
6, 17
17, 15
57, 44
127, 133
498, 497
117, 95
29, 31
20, 17
51, 64
286, 307
124, 112
67, 73
192, 244
129, 132
80, 73
27, 25
7, 4
7, 10
42, 36
22, 21
21, 22
190, 225
319, 342
53, 42
35, 41
47, 48
12, 15
8, 9
14, 21
65, 70
33, 28
13, 14
12, 15
11, 21
12, 19
13, 9
12, 15
25, 40
23, 13
11, 14
13, 16
26, 33
36, 33
20, 29
33, 34
444, 471
1764, 1766
1138, 942
156, 91
17, 19
19, 21
109, 90
251, 311
160, 133
26, 22
9, 12
13, 12
4, 12
2, 8
7, 9
7, 4
4, 11
4, 10
10, 9
3, 5
5, 7
5, 12
11, 9
6, 8
1, 4
5, 7
8, 4
6, 3
9, 7
3, 7
10, 5
8, 8
6, 8
6, 4
5, 3
2, 7
5, 3
3, 6
8, 4
2, 2
6, 5
4, 3
2, 2
3, 2
4, 2
1, 1
5, 3
3, 5
3, 2
0, 4
2, 5
4, 0
1, 2
2, 0
4, 0
2, 4
2, 0
2, 1
5, 2
1, 4
3, 2
1, 0
3, 0
0, 1
0, 3
1, 2
1, 3
2, 2
1, 0
0, 0
0, 2
1, 1
1, 0
1, 3
1, 0
1, 1
1, 1
0, 1
0, 2
0, 0
0, 0
0, 1
0, 0
0, 0
0, 0
1, 0
1, 1
0, 1
1, 0
0, 0
2, 0
0, 0
2, 0
0, 0
0, 0
0, 1
1, 0
0, 0
0, 0
0, 0
0, 0
0, 0
1, 1
0, 0
0, 2
2, 0
0, 0
0, 0
0, 0
0, 0
0, 1
0, 0
0, 0
1, 0
1, 0
0, 0
0, 0
0, 1
0, 0
0, 0
0, 0
0, 0
0, 0
0, 0
0, 0
0, 0
1, 0
0, 0
0, 0
0, 0
0, 0
0, 0
0, 0
0, 0
0, 0
0, 0
0, 0
0, 0
0, 1
0, 0
0, 0
1, 0
0, 0
0, 0
0, 0
0, 0
0, 0
0, 0
0, 0
0, 0
0, 0
0, 0
0, 0
0, 0
0, 0
0, 0
0, 0
0, 0
0, 0
0, 0
1, 0
0, 0
0, 0
0, 0
0, 0
0, 0
0, 0
0, 0
0, 0
0, 0
0, 0
0, 0
0, 0
0, 0
0, 0
0, 0
0, 0
0, 0
0, 0
0, 0
0, 0
0, 0
0, 0
0, 0
0, 0
0, 0
0, 0
0, 0
0, 0
0, 0
0, 0
0, 0
0, 0
0, 0
0, 0
0, 0
0, 0
0, 0
0, 0
0, 0
0, 0
0, 0
0, 0
0, 0
0, 0
0, 0
0, 0
0, 0
0, 0
0, 0
0, 0
0, 0
0, 0
0, 0
0, 0
0, 0
0, 0
0, 0
0, 0
0, 0
0, 0
0, 0
0, 0
0, 0
0, 0
0, 0
0, 0
0, 0
0, 0
0, 0
0, 0
0, 0
0, 0
0, 0
0, 0
0, 0
0, 0
#ENDOFDATA     end of spectrum data