File: host_upload/02-11-2024/rqc/uplink1/ps__0567_0717304816_000rfs_shot_403.msa
#FORMAT      : EMSA/MAS spectral data file
#VERSION     : TC202v2.0 PIXL
#TITLE       : Novarupta (sol567) subset1
#DATE        : 02-11-2024      Date in the format DD-MMM-YYYY, for example 07-JUL-2010
#TIME        :             The time of day at which the spectrum was recorded, in 24-hour format
#OWNER       : PIXL Flight Model       (PIXL will use this to indicate which instrument took the data.)
#NPOINTS     : 4096     Number of data points in the spectrum (This can be zero for configuration only files)
#NCOLUMNS    : 2     Number of data columns in the spectrum (This can be zero for configuration only files)
#XUNITS      : eV
#YUNITS      : COUNTS
#DATATYPE    : YY
#XPERCHAN    : 7.862, 7.881   eV per channel (separate by commas if more than one detector)
#OFFSET      : 18.5, -22.4         eV of first channel  (separate by commas if more than one detector
#SIGNALTYPE  : XRF
#YP_TEMP     : 1.818
#LIVETIME    : 8.81907, 8.62656   seconds (separate by commas if more than one detector)
#REALTIME    : 10, 10.0   seconds (separate by commas if more than one detector)
#SPECTRUM    : start of spectrum data
0, 0
0, 0
0, 0
0, 0
0, 0
0, 0
0, 0
0, 1
4, 2
6, 5
5, 4
3, 5
8, 12
31, 25
41, 50
121, 117
510, 485
110, 115
46, 31
27, 29
56, 54
312, 311
111, 109
83, 79
209, 243
123, 123
64, 73
29, 28
10, 12
11, 12
20, 27
11, 20
11, 22
222, 259
334, 306
54, 47
46, 49
48, 51
14, 12
10, 13
14, 20
78, 60
35, 28
10, 11
18, 14
24, 19
13, 15
13, 8
17, 16
29, 30
30, 26
11, 11
19, 13
44, 31
46, 56
26, 14
37, 33
357, 462
1644, 1731
1155, 946
146, 102
19, 15
26, 21
80, 109
302, 290
166, 144
30, 23
9, 12
17, 13
10, 7
9, 5
6, 7
1, 9
6, 8
5, 11
7, 7
11, 10
3, 9
9, 11
11, 9
7, 9
11, 6
4, 4
8, 2
4, 1
9, 3
7, 4
10, 2
4, 5
3, 4
4, 4
3, 5
6, 6
5, 5
9, 4
2, 5
8, 3
6, 3
6, 4
4, 4
4, 3
3, 1
3, 3
6, 0
3, 1
7, 2
0, 2
3, 6
0, 4
2, 3
5, 2
3, 2
2, 1
3, 1
1, 1
0, 1
3, 2
2, 2
5, 1
1, 4
2, 0
2, 2
2, 5
2, 0
1, 0
2, 2
3, 1
1, 1
3, 1
1, 0
1, 1
1, 1
2, 0
1, 1
2, 1
0, 0
0, 0
2, 0
0, 4
0, 0
0, 1
0, 0
0, 1
2, 0
0, 0
0, 0
0, 1
1, 0
0, 1
0, 0
0, 0
1, 1
1, 1
0, 0
0, 0
0, 0
0, 1
0, 0
0, 0
0, 0
0, 0
1, 2
0, 0
1, 0
0, 0
1, 0
0, 0
0, 1
0, 0
0, 1
0, 0
0, 0
1, 1
0, 0
0, 2
1, 0
1, 0
1, 0
0, 0
0, 1
0, 0
0, 0
0, 0
0, 0
0, 0
0, 0
0, 0
0, 0
0, 0
0, 0
0, 1
0, 0
0, 0
0, 0
0, 0
0, 1
0, 0
0, 0
0, 0
0, 0
0, 0
0, 0
0, 0
0, 0
0, 0
1, 0
0, 0
0, 0
0, 0
0, 0
0, 0
0, 0
0, 0
0, 0
0, 0
0, 0
0, 0
0, 0
0, 0
0, 0
0, 0
0, 0
0, 0
0, 0
0, 0
0, 0
0, 0
0, 0
0, 0
0, 0
0, 0
0, 0
0, 0
0, 0
0, 0
0, 0
0, 0
0, 0
0, 0
0, 0
0, 0
0, 0
0, 0
0, 0
0, 0
0, 0
0, 0
0, 0
0, 0
0, 0
0, 0
0, 0
0, 0
0, 0
0, 0
0, 0
0, 0
0, 0
0, 0
0, 0
0, 0
0, 0
0, 0
0, 0
0, 0
0, 0
0, 0
0, 0
0, 0
0, 0
0, 0
0, 0
0, 0
0, 0
0, 0
0, 0
0, 0
0, 0
0, 0
0, 0
0, 0
0, 0
0, 0
0, 0
0, 0
0, 0
0, 0
0, 0
0, 0
0, 0
0, 0
0, 0
0, 0
0, 0
#ENDOFDATA     end of spectrum data