File: host_upload/02-11-2024/rqc/uplink1/ps__0567_0717304816_000rfs_shot_351.msa
#FORMAT      : EMSA/MAS spectral data file
#VERSION     : TC202v2.0 PIXL
#TITLE       : Novarupta (sol567) subset1
#DATE        : 02-11-2024      Date in the format DD-MMM-YYYY, for example 07-JUL-2010
#TIME        :             The time of day at which the spectrum was recorded, in 24-hour format
#OWNER       : PIXL Flight Model       (PIXL will use this to indicate which instrument took the data.)
#NPOINTS     : 4096     Number of data points in the spectrum (This can be zero for configuration only files)
#NCOLUMNS    : 2     Number of data columns in the spectrum (This can be zero for configuration only files)
#XUNITS      : eV
#YUNITS      : COUNTS
#DATATYPE    : YY
#XPERCHAN    : 7.862, 7.881   eV per channel (separate by commas if more than one detector)
#OFFSET      : 18.5, -22.4         eV of first channel  (separate by commas if more than one detector
#SIGNALTYPE  : XRF
#YP_TEMP     : 1.594
#LIVETIME    : 8.83178, 8.81495   seconds (separate by commas if more than one detector)
#REALTIME    : 10, 10.0   seconds (separate by commas if more than one detector)
#SPECTRUM    : start of spectrum data
0, 0
0, 0
0, 0
0, 0
0, 0
0, 0
0, 0
0, 0
1, 1
4, 2
6, 2
7, 5
8, 13
19, 31
42, 62
94, 137
508, 504
107, 131
31, 34
24, 17
42, 42
284, 296
116, 126
52, 68
200, 228
117, 104
62, 52
29, 32
3, 6
8, 9
35, 33
13, 17
18, 20
201, 247
305, 313
56, 54
40, 63
49, 53
13, 12
14, 11
11, 23
57, 69
31, 24
15, 9
13, 13
14, 14
14, 23
11, 8
17, 10
29, 22
21, 28
14, 15
14, 18
38, 30
35, 42
16, 32
29, 40
366, 498
1678, 1911
1119, 1060
108, 103
8, 18
17, 13
82, 89
256, 307
157, 137
25, 29
3, 11
11, 16
8, 7
11, 5
8, 5
4, 9
5, 10
3, 10
10, 5
10, 5
5, 4
12, 10
9, 11
6, 4
8, 7
5, 3
4, 7
5, 5
5, 3
9, 7
3, 11
5, 2
2, 5
5, 3
6, 3
2, 2
3, 0
6, 1
3, 3
3, 7
6, 2
2, 2
2, 4
7, 3
2, 2
0, 3
4, 2
1, 2
2, 1
4, 1
2, 4
6, 2
2, 1
4, 1
2, 0
0, 4
0, 1
2, 2
2, 0
3, 6
4, 2
2, 5
0, 0
2, 4
2, 0
4, 3
0, 2
2, 0
3, 1
0, 0
0, 1
0, 0
0, 1
0, 1
2, 1
0, 0
0, 1
1, 1
0, 0
2, 0
0, 1
0, 0
1, 1
1, 2
0, 1
0, 2
0, 0
2, 1
0, 0
0, 1
2, 2
1, 1
0, 0
1, 0
2, 1
0, 1
0, 0
0, 0
0, 1
0, 0
0, 0
1, 1
0, 0
0, 0
1, 0
0, 0
0, 1
0, 0
2, 0
0, 1
1, 0
0, 0
0, 0
0, 0
0, 0
0, 0
0, 0
0, 0
1, 0
0, 0
0, 0
0, 0
0, 0
0, 1
0, 1
0, 1
0, 0
1, 0
0, 0
0, 0
0, 0
0, 0
0, 0
0, 0
0, 0
0, 0
1, 0
0, 0
1, 0
0, 0
0, 0
0, 0
0, 0
0, 0
0, 0
0, 0
0, 0
0, 0
0, 0
0, 0
1, 0
0, 0
0, 0
0, 0
0, 0
0, 0
0, 0
0, 0
0, 0
0, 0
0, 0
0, 0
0, 0
0, 0
0, 0
0, 0
0, 0
0, 0
0, 0
0, 0
0, 0
0, 0
0, 0
0, 0
0, 0
0, 0
0, 0
0, 0
0, 0
0, 0
0, 0
0, 0
0, 0
0, 0
0, 0
0, 0
0, 0
0, 0
0, 0
0, 0
0, 0
0, 0
0, 0
0, 0
0, 0
0, 0
0, 0
0, 0
0, 0
0, 0
0, 0
0, 0
0, 0
0, 0
0, 0
0, 0
0, 0
0, 0
0, 0
0, 0
0, 0
0, 0
0, 0
0, 0
0, 0
0, 0
0, 0
0, 0
0, 0
0, 0
0, 0
0, 0
0, 0
0, 0
0, 0
0, 0
0, 0
0, 0
0, 0
0, 0
0, 0
0, 0
0, 0
0, 0
0, 0
0, 0
0, 0
#ENDOFDATA     end of spectrum data