File: host_upload/02-11-2024/rqc/uplink1/ps__0567_0717304816_000rfs_shot_153.msa
#FORMAT      : EMSA/MAS spectral data file
#VERSION     : TC202v2.0 PIXL
#TITLE       : Novarupta (sol567) subset1
#DATE        : 02-11-2024      Date in the format DD-MMM-YYYY, for example 07-JUL-2010
#TIME        :             The time of day at which the spectrum was recorded, in 24-hour format
#OWNER       : PIXL Flight Model       (PIXL will use this to indicate which instrument took the data.)
#NPOINTS     : 4096     Number of data points in the spectrum (This can be zero for configuration only files)
#NCOLUMNS    : 2     Number of data columns in the spectrum (This can be zero for configuration only files)
#XUNITS      : eV
#YUNITS      : COUNTS
#DATATYPE    : YY
#XPERCHAN    : 7.862, 7.881   eV per channel (separate by commas if more than one detector)
#OFFSET      : 18.5, -22.4         eV of first channel  (separate by commas if more than one detector
#SIGNALTYPE  : XRF
#YP_TEMP     : -0.202
#LIVETIME    : 8.83684, 8.80539   seconds (separate by commas if more than one detector)
#REALTIME    : 10, 10.0   seconds (separate by commas if more than one detector)
#SPECTRUM    : start of spectrum data
0, 0
0, 0
0, 0
0, 0
0, 0
0, 0
0, 0
1, 1
8, 2
4, 4
2, 5
12, 10
13, 7
28, 32
40, 46
114, 158
477, 553
124, 110
26, 41
20, 26
59, 60
296, 368
131, 129
81, 82
223, 264
118, 146
73, 83
24, 37
11, 10
6, 22
31, 34
17, 17
20, 26
209, 275
288, 353
48, 52
55, 50
51, 66
11, 17
15, 10
18, 19
50, 83
26, 41
18, 31
12, 16
22, 22
14, 21
7, 14
9, 24
25, 27
16, 22
12, 11
15, 18
34, 33
44, 49
26, 23
24, 43
357, 536
1520, 1923
983, 1051
109, 106
15, 12
18, 22
82, 85
256, 263
148, 133
16, 23
8, 6
7, 15
6, 6
4, 8
2, 9
3, 11
6, 9
8, 11
9, 9
2, 7
4, 6
10, 14
12, 14
6, 5
5, 9
1, 5
7, 5
6, 4
3, 6
3, 7
1, 4
2, 8
3, 6
3, 5
3, 7
1, 5
4, 3
5, 2
2, 8
5, 4
2, 6
6, 5
5, 2
3, 10
2, 2
7, 3
2, 2
4, 0
2, 4
5, 2
3, 1
3, 2
2, 4
1, 2
4, 6
1, 1
1, 1
4, 3
3, 4
2, 3
4, 2
2, 0
1, 2
3, 3
1, 5
2, 3
3, 1
2, 0
0, 3
1, 1
2, 1
1, 3
0, 0
1, 1
2, 0
1, 1
0, 0
0, 2
0, 1
0, 0
1, 1
0, 0
1, 0
1, 0
0, 2
0, 2
0, 0
1, 0
2, 0
0, 0
0, 1
1, 1
0, 3
0, 0
0, 0
0, 0
1, 0
0, 1
0, 0
0, 0
1, 1
1, 1
0, 1
1, 1
0, 0
1, 0
0, 1
1, 0
0, 0
0, 0
1, 1
1, 1
0, 0
0, 1
0, 1
0, 0
0, 0
1, 0
0, 0
1, 0
0, 0
0, 0
1, 0
0, 1
0, 0
0, 0
0, 0
0, 0
0, 0
0, 0
0, 0
1, 0
1, 0
0, 0
0, 0
0, 0
0, 0
0, 0
0, 0
0, 0
0, 0
0, 0
0, 0
0, 0
0, 0
0, 0
0, 0
0, 0
0, 0
0, 0
0, 0
0, 1
0, 0
0, 0
0, 0
0, 0
0, 0
0, 0
0, 0
0, 0
0, 0
0, 0
0, 0
0, 0
0, 0
0, 0
0, 0
0, 0
0, 0
0, 0
0, 0
0, 0
0, 0
0, 0
0, 0
0, 0
0, 0
0, 0
0, 0
0, 0
0, 0
0, 0
0, 0
0, 0
0, 0
0, 0
0, 0
0, 0
0, 0
0, 0
0, 0
0, 0
0, 0
0, 0
0, 0
0, 0
0, 0
0, 0
0, 0
0, 0
0, 0
0, 0
0, 0
0, 0
0, 0
0, 0
0, 0
0, 0
0, 0
0, 0
0, 0
0, 0
0, 0
0, 0
0, 0
0, 0
0, 0
0, 0
0, 0
0, 0
0, 0
0, 0
0, 0
0, 0
0, 0
0, 0
0, 0
0, 0
0, 0
0, 0
0, 0
0, 0
0, 0
0, 0
0, 0
0, 0
0, 0
#ENDOFDATA     end of spectrum data