File: host_upload/02-11-2024/rqc/uplink1/ps__0567_0717304816_000rfs_shot_1.msa
#FORMAT      : EMSA/MAS spectral data file
#VERSION     : TC202v2.0 PIXL
#TITLE       : Novarupta (sol567) subset1
#DATE        : 02-11-2024      Date in the format DD-MMM-YYYY, for example 07-JUL-2010
#TIME        :             The time of day at which the spectrum was recorded, in 24-hour format
#OWNER       : PIXL Flight Model       (PIXL will use this to indicate which instrument took the data.)
#NPOINTS     : 4096     Number of data points in the spectrum (This can be zero for configuration only files)
#NCOLUMNS    : 2     Number of data columns in the spectrum (This can be zero for configuration only files)
#XUNITS      : eV
#YUNITS      : COUNTS
#DATATYPE    : YY
#XPERCHAN    : 7.862, 7.881   eV per channel (separate by commas if more than one detector)
#OFFSET      : 18.5, -22.4         eV of first channel  (separate by commas if more than one detector
#SIGNALTYPE  : XRF
#YP_TEMP     : -4.371
#LIVETIME    : 8.84519, 8.82559   seconds (separate by commas if more than one detector)
#REALTIME    : 10, 10.0   seconds (separate by commas if more than one detector)
#SPECTRUM    : start of spectrum data
0, 0
0, 0
0, 0
0, 0
0, 0
0, 0
0, 0
0, 0
2, 2
4, 1
3, 2
11, 13
11, 9
32, 27
42, 40
140, 159
422, 507
102, 107
21, 34
15, 21
80, 94
263, 292
106, 96
84, 96
198, 217
91, 114
69, 78
21, 25
13, 7
13, 7
25, 30
7, 16
25, 22
244, 299
246, 237
48, 36
47, 60
49, 38
10, 8
12, 13
37, 44
50, 67
30, 30
12, 15
11, 15
18, 8
8, 9
15, 10
16, 11
32, 25
23, 30
14, 18
9, 19
42, 45
39, 39
16, 20
89, 82
765, 831
1672, 1713
609, 569
62, 52
19, 22
42, 39
158, 175
230, 271
80, 79
13, 16
13, 4
14, 13
9, 4
5, 6
6, 5
10, 9
6, 7
12, 6
4, 8
10, 4
5, 10
9, 15
15, 4
3, 5
4, 6
4, 4
6, 3
5, 6
6, 7
8, 10
8, 8
5, 6
3, 2
5, 3
7, 3
3, 4
6, 2
5, 3
4, 0
3, 5
3, 3
3, 1
3, 1
4, 1
5, 1
2, 3
2, 3
1, 3
4, 1
3, 6
5, 1
3, 1
2, 2
1, 3
1, 0
1, 5
3, 2
1, 1
5, 2
0, 2
1, 0
1, 4
3, 0
1, 2
2, 1
1, 1
1, 0
2, 4
1, 0
2, 2
1, 3
1, 0
2, 1
0, 1
0, 2
2, 1
1, 1
1, 0
1, 0
0, 2
0, 1
1, 0
1, 1
1, 1
0, 1
0, 2
1, 0
0, 0
0, 1
1, 0
1, 2
0, 0
0, 1
0, 2
1, 0
1, 0
0, 0
1, 0
0, 1
0, 0
0, 0
0, 1
0, 1
0, 0
0, 0
0, 0
0, 0
0, 1
0, 0
0, 0
0, 0
0, 1
0, 1
0, 0
1, 0
0, 0
0, 0
0, 0
1, 0
0, 1
0, 0
0, 0
0, 0
0, 0
0, 0
0, 0
0, 0
0, 0
0, 0
0, 0
0, 0
0, 0
0, 1
1, 0
0, 0
0, 0
0, 0
0, 0
0, 0
0, 0
0, 1
0, 0
0, 0
0, 0
0, 0
0, 0
0, 0
0, 0
0, 0
0, 1
0, 0
0, 0
0, 0
0, 0
0, 0
0, 0
0, 0
0, 0
0, 0
0, 0
0, 0
0, 0
0, 0
0, 0
0, 0
0, 0
0, 0
0, 0
0, 0
0, 0
0, 0
0, 0
0, 0
0, 0
0, 0
0, 0
0, 0
0, 0
0, 0
0, 0
0, 0
0, 0
0, 0
0, 0
0, 0
0, 0
0, 0
0, 0
0, 0
0, 0
0, 0
0, 0
0, 0
0, 0
0, 0
0, 0
0, 0
0, 0
0, 0
0, 0
0, 0
0, 0
0, 0
0, 0
0, 0
0, 0
0, 0
0, 0
0, 0
0, 0
0, 0
0, 0
0, 0
0, 0
0, 0
0, 0
0, 0
0, 0
0, 0
0, 0
0, 0
0, 0
0, 0
0, 0
0, 0
0, 0
0, 0
0, 0
0, 0
0, 0
0, 0
0, 0
0, 0
0, 0
0, 0
0, 0
0, 0
#ENDOFDATA     end of spectrum data