File: host_upload/02-11-2024/rqc/uplink1/ps__0567_0717304816_000rfs_shot_241.msa
#FORMAT      : EMSA/MAS spectral data file
#VERSION     : TC202v2.0 PIXL
#TITLE       : Novarupta (sol567) subset1
#DATE        : 02-11-2024      Date in the format DD-MMM-YYYY, for example 07-JUL-2010
#TIME        :             The time of day at which the spectrum was recorded, in 24-hour format
#OWNER       : PIXL Flight Model       (PIXL will use this to indicate which instrument took the data.)
#NPOINTS     : 4096     Number of data points in the spectrum (This can be zero for configuration only files)
#NCOLUMNS    : 2     Number of data columns in the spectrum (This can be zero for configuration only files)
#XUNITS      : eV
#YUNITS      : COUNTS
#DATATYPE    : YY
#XPERCHAN    : 7.862, 7.881   eV per channel (separate by commas if more than one detector)
#OFFSET      : 18.5, -22.4         eV of first channel  (separate by commas if more than one detector
#SIGNALTYPE  : XRF
#YP_TEMP     : 0.824
#LIVETIME    : 8.82932, 8.81186   seconds (separate by commas if more than one detector)
#REALTIME    : 10, 10.0   seconds (separate by commas if more than one detector)
#SPECTRUM    : start of spectrum data
0, 0
0, 0
0, 0
0, 0
0, 0
0, 0
0, 0
2, 1
4, 2
6, 3
3, 1
7, 12
16, 13
12, 28
38, 57
112, 116
448, 537
120, 104
26, 31
23, 28
53, 49
265, 342
122, 125
69, 74
195, 221
98, 128
74, 69
31, 21
6, 3
11, 13
22, 33
23, 24
20, 21
195, 265
312, 352
52, 61
45, 51
44, 54
8, 13
12, 13
15, 31
52, 72
31, 42
13, 12
14, 15
22, 27
13, 18
4, 9
13, 15
29, 37
26, 21
10, 11
15, 17
30, 41
49, 54
19, 25
29, 44
358, 546
1556, 1869
994, 1037
114, 99
15, 19
34, 25
61, 111
216, 285
141, 157
19, 23
8, 15
14, 15
8, 11
8, 9
3, 10
4, 4
2, 6
11, 5
1, 5
1, 8
2, 11
9, 12
12, 12
2, 6
7, 8
3, 9
5, 7
5, 7
3, 8
6, 6
7, 4
3, 6
5, 4
3, 4
4, 2
8, 3
3, 1
5, 6
1, 3
4, 5
3, 3
3, 2
1, 2
6, 4
3, 4
6, 2
3, 4
1, 4
2, 7
2, 1
3, 1
1, 3
2, 3
4, 5
1, 6
1, 3
1, 1
2, 4
1, 3
4, 3
0, 5
1, 1
1, 0
2, 1
2, 4
2, 2
3, 3
0, 1
0, 0
0, 0
1, 2
0, 0
0, 1
0, 1
2, 3
0, 1
0, 2
2, 2
0, 2
1, 1
0, 0
0, 1
0, 0
0, 1
0, 0
1, 3
0, 2
0, 1
1, 0
0, 0
1, 2
0, 0
0, 1
1, 1
1, 0
0, 0
0, 0
0, 0
0, 0
0, 0
0, 0
0, 1
0, 1
1, 0
0, 1
0, 0
1, 0
0, 1
0, 0
0, 0
0, 0
0, 0
0, 1
0, 1
0, 0
0, 1
0, 0
0, 0
0, 0
0, 0
0, 0
0, 1
0, 0
0, 0
0, 1
1, 0
0, 0
0, 0
0, 0
0, 0
0, 0
0, 0
0, 0
0, 0
0, 0
0, 0
0, 0
0, 0
0, 0
0, 0
0, 0
1, 0
0, 0
0, 0
0, 0
0, 0
0, 0
0, 0
0, 0
0, 0
0, 0
0, 0
0, 0
0, 0
0, 0
0, 0
0, 0
0, 0
0, 0
0, 0
0, 0
0, 0
0, 0
0, 0
0, 0
0, 0
0, 0
0, 0
0, 0
0, 0
0, 0
0, 0
0, 0
0, 0
0, 0
0, 0
0, 0
0, 0
0, 0
0, 0
0, 0
0, 0
0, 0
0, 0
0, 0
0, 0
0, 0
0, 0
0, 0
0, 0
0, 0
0, 0
0, 0
0, 0
0, 0
0, 0
0, 0
0, 0
0, 0
0, 0
0, 0
0, 0
0, 0
0, 0
0, 0
0, 0
0, 0
0, 0
0, 0
0, 0
0, 0
0, 0
0, 0
0, 0
0, 0
0, 0
0, 0
0, 0
0, 0
0, 0
0, 0
0, 0
0, 0
0, 0
0, 0
0, 0
0, 0
0, 0
0, 0
0, 0
0, 0
0, 0
0, 0
0, 0
0, 0
0, 0
0, 0
#ENDOFDATA     end of spectrum data