File: host_upload/02-11-2024/rqc/uplink1/ps__0567_0717304816_000rfs_shot_208.msa
#FORMAT      : EMSA/MAS spectral data file
#VERSION     : TC202v2.0 PIXL
#TITLE       : Novarupta (sol567) subset1
#DATE        : 02-11-2024      Date in the format DD-MMM-YYYY, for example 07-JUL-2010
#TIME        :             The time of day at which the spectrum was recorded, in 24-hour format
#OWNER       : PIXL Flight Model       (PIXL will use this to indicate which instrument took the data.)
#NPOINTS     : 4096     Number of data points in the spectrum (This can be zero for configuration only files)
#NCOLUMNS    : 2     Number of data columns in the spectrum (This can be zero for configuration only files)
#XUNITS      : eV
#YUNITS      : COUNTS
#DATATYPE    : YY
#XPERCHAN    : 7.862, 7.881   eV per channel (separate by commas if more than one detector)
#OFFSET      : 18.5, -22.4         eV of first channel  (separate by commas if more than one detector
#SIGNALTYPE  : XRF
#YP_TEMP     : 0.664
#LIVETIME    : 8.83824, 8.82645   seconds (separate by commas if more than one detector)
#REALTIME    : 10, 10.0   seconds (separate by commas if more than one detector)
#SPECTRUM    : start of spectrum data
0, 0
0, 0
0, 0
0, 0
0, 0
0, 0
0, 0
0, 0
4, 3
3, 2
5, 0
10, 7
7, 16
21, 25
45, 49
112, 100
486, 526
120, 119
39, 33
28, 20
50, 49
287, 346
116, 116
67, 81
236, 210
123, 98
90, 62
29, 28
6, 8
7, 3
19, 26
21, 17
23, 25
232, 237
351, 343
63, 46
44, 47
47, 45
12, 15
5, 8
20, 19
62, 61
32, 37
17, 9
16, 13
21, 27
14, 13
10, 13
19, 16
24, 27
27, 21
10, 10
21, 9
27, 37
60, 50
16, 18
28, 45
405, 474
1594, 1716
1056, 941
119, 93
11, 15
15, 18
75, 94
261, 273
181, 135
20, 18
7, 6
14, 12
12, 7
4, 7
7, 11
8, 5
3, 9
6, 9
6, 9
4, 10
3, 3
7, 10
9, 12
3, 8
0, 7
4, 7
6, 9
2, 6
0, 3
1, 7
5, 6
6, 6
5, 5
2, 3
7, 3
3, 0
3, 6
6, 3
6, 1
5, 3
5, 3
5, 3
2, 2
4, 1
3, 1
4, 1
1, 0
1, 3
2, 5
1, 1
0, 2
2, 2
1, 5
3, 2
4, 2
1, 3
2, 2
2, 0
2, 1
3, 3
2, 3
0, 2
2, 1
0, 0
0, 2
1, 1
4, 0
0, 3
2, 0
2, 2
2, 1
2, 2
2, 1
0, 1
0, 1
0, 1
0, 0
2, 0
0, 0
2, 0
1, 1
1, 1
1, 0
0, 0
0, 0
1, 0
1, 0
1, 2
1, 1
0, 0
1, 1
1, 1
0, 0
0, 0
0, 1
1, 1
0, 0
1, 0
0, 1
0, 0
0, 0
0, 1
2, 0
0, 1
0, 0
0, 0
0, 1
0, 0
1, 0
0, 0
1, 0
0, 0
0, 0
0, 0
1, 0
0, 1
2, 1
0, 0
0, 0
0, 1
0, 0
0, 0
0, 0
0, 0
0, 0
0, 1
0, 0
1, 0
0, 0
0, 0
0, 0
0, 0
0, 0
0, 0
1, 0
0, 0
0, 0
0, 0
0, 0
0, 0
0, 0
0, 0
0, 0
0, 0
0, 0
0, 0
1, 0
0, 0
0, 0
0, 0
0, 0
0, 0
0, 0
0, 0
0, 0
0, 0
0, 0
0, 0
0, 1
0, 0
0, 0
0, 0
0, 0
0, 0
0, 0
0, 0
0, 0
1, 0
0, 0
0, 0
0, 0
0, 0
0, 0
0, 0
0, 0
0, 0
0, 0
0, 0
0, 0
0, 0
0, 0
0, 0
0, 0
0, 0
0, 0
0, 0
0, 0
0, 0
0, 0
0, 0
0, 0
0, 0
0, 0
0, 0
0, 0
0, 0
0, 0
0, 0
0, 0
0, 0
0, 0
0, 0
0, 0
0, 0
0, 0
0, 0
0, 0
0, 0
0, 0
0, 0
0, 0
0, 0
0, 0
0, 0
0, 0
0, 0
0, 0
0, 0
0, 0
0, 0
0, 0
0, 0
0, 0
0, 0
0, 0
0, 0
0, 0
0, 0
0, 0
0, 0
0, 0
0, 0
0, 0
0, 0
0, 0
0, 0
0, 0
#ENDOFDATA     end of spectrum data