File: host_upload/02-11-2024/rqc/uplink1/ps__0567_0717304816_000rfs_shot_438.msa
#FORMAT      : EMSA/MAS spectral data file
#VERSION     : TC202v2.0 PIXL
#TITLE       : Novarupta (sol567) subset1
#DATE        : 02-11-2024      Date in the format DD-MMM-YYYY, for example 07-JUL-2010
#TIME        :             The time of day at which the spectrum was recorded, in 24-hour format
#OWNER       : PIXL Flight Model       (PIXL will use this to indicate which instrument took the data.)
#NPOINTS     : 4096     Number of data points in the spectrum (This can be zero for configuration only files)
#NCOLUMNS    : 2     Number of data columns in the spectrum (This can be zero for configuration only files)
#XUNITS      : eV
#YUNITS      : COUNTS
#DATATYPE    : YY
#XPERCHAN    : 7.862, 7.881   eV per channel (separate by commas if more than one detector)
#OFFSET      : 18.5, -22.4         eV of first channel  (separate by commas if more than one detector
#SIGNALTYPE  : XRF
#YP_TEMP     : 1.915
#LIVETIME    : 8.83813, 8.82491   seconds (separate by commas if more than one detector)
#REALTIME    : 10, 10.0   seconds (separate by commas if more than one detector)
#SPECTRUM    : start of spectrum data
0, 0
0, 0
0, 0
0, 0
0, 0
0, 0
0, 0
1, 0
2, 2
3, 2
1, 0
10, 8
11, 10
24, 19
52, 45
96, 140
428, 507
112, 118
33, 30
18, 19
47, 49
257, 290
112, 115
78, 74
211, 224
130, 109
71, 82
41, 29
14, 12
12, 8
22, 18
20, 14
15, 25
193, 211
329, 335
61, 44
32, 40
46, 45
8, 10
7, 10
22, 30
60, 60
38, 38
13, 9
11, 15
19, 18
16, 9
11, 13
11, 21
25, 31
20, 20
9, 6
11, 17
32, 31
47, 60
24, 18
27, 32
342, 439
1530, 1655
989, 1007
116, 110
13, 19
29, 19
94, 88
228, 269
158, 161
20, 27
9, 11
15, 16
10, 8
12, 4
5, 5
4, 5
5, 8
6, 5
3, 5
13, 7
4, 7
11, 9
7, 6
7, 8
7, 6
4, 9
3, 6
6, 5
5, 2
3, 4
9, 9
6, 3
6, 7
1, 2
7, 1
6, 5
3, 2
6, 3
3, 1
3, 1
4, 9
2, 4
4, 2
3, 2
2, 2
3, 2
5, 2
3, 1
1, 2
0, 0
3, 2
1, 5
4, 3
3, 1
2, 2
3, 0
4, 1
0, 3
0, 1
3, 2
2, 1
1, 1
2, 2
1, 3
2, 1
4, 2
6, 2
1, 0
3, 2
1, 3
1, 1
1, 1
1, 0
1, 4
0, 1
0, 1
1, 2
0, 0
2, 0
2, 1
0, 1
0, 1
1, 0
0, 0
1, 0
0, 2
2, 1
0, 0
0, 1
0, 0
0, 0
1, 0
0, 1
0, 0
1, 1
0, 0
1, 1
0, 0
0, 0
0, 0
1, 0
1, 0
0, 0
1, 0
0, 0
0, 0
0, 1
0, 0
0, 0
1, 0
0, 0
0, 0
0, 1
0, 1
0, 0
0, 0
0, 0
1, 1
0, 0
0, 0
0, 0
0, 1
0, 0
0, 0
0, 0
0, 0
1, 0
0, 0
0, 1
0, 0
0, 0
0, 0
0, 0
0, 0
0, 0
0, 0
0, 0
0, 0
0, 0
0, 0
0, 0
0, 0
0, 0
0, 0
0, 0
0, 0
0, 0
0, 0
0, 0
0, 0
0, 0
0, 0
0, 0
0, 0
0, 0
0, 0
0, 0
0, 0
0, 0
0, 0
0, 0
0, 0
0, 0
0, 0
0, 0
0, 0
0, 0
0, 0
0, 0
0, 0
0, 0
0, 0
0, 0
0, 0
0, 0
0, 0
0, 0
0, 0
0, 0
0, 0
0, 0
0, 0
0, 0
0, 0
0, 0
0, 0
0, 0
0, 0
0, 0
0, 0
0, 0
0, 0
0, 0
0, 0
0, 0
0, 0
0, 0
0, 0
0, 0
0, 0
0, 0
0, 0
0, 0
0, 0
0, 0
0, 0
0, 0
0, 0
0, 0
0, 0
0, 0
0, 0
0, 0
0, 0
0, 0
0, 0
0, 0
0, 0
0, 0
0, 0
0, 0
0, 0
0, 0
0, 0
0, 0
0, 0
0, 0
0, 0
0, 0
0, 0
0, 0
0, 0
0, 0
0, 0
0, 0
0, 0
0, 0
#ENDOFDATA     end of spectrum data