File: host_upload/02-11-2024/rqc/uplink1/ps__0567_0717304816_000rfs_shot_223.msa
#FORMAT      : EMSA/MAS spectral data file
#VERSION     : TC202v2.0 PIXL
#TITLE       : Novarupta (sol567) subset1
#DATE        : 02-11-2024      Date in the format DD-MMM-YYYY, for example 07-JUL-2010
#TIME        :             The time of day at which the spectrum was recorded, in 24-hour format
#OWNER       : PIXL Flight Model       (PIXL will use this to indicate which instrument took the data.)
#NPOINTS     : 4096     Number of data points in the spectrum (This can be zero for configuration only files)
#NCOLUMNS    : 2     Number of data columns in the spectrum (This can be zero for configuration only files)
#XUNITS      : eV
#YUNITS      : COUNTS
#DATATYPE    : YY
#XPERCHAN    : 7.862, 7.881   eV per channel (separate by commas if more than one detector)
#OFFSET      : 18.5, -22.4         eV of first channel  (separate by commas if more than one detector
#SIGNALTYPE  : XRF
#YP_TEMP     : 0.76
#LIVETIME    : 8.83918, 8.82267   seconds (separate by commas if more than one detector)
#REALTIME    : 10, 10.0   seconds (separate by commas if more than one detector)
#SPECTRUM    : start of spectrum data
0, 0
0, 0
0, 0
0, 0
0, 0
0, 0
0, 0
0, 1
2, 2
4, 2
6, 5
10, 6
12, 18
25, 29
55, 48
117, 130
465, 519
118, 112
36, 24
18, 28
54, 53
265, 304
106, 110
74, 70
241, 236
108, 126
79, 59
32, 36
8, 3
13, 8
18, 33
18, 9
20, 20
204, 246
323, 321
53, 53
41, 29
47, 56
12, 11
12, 8
19, 12
48, 61
40, 33
7, 9
12, 13
27, 24
16, 16
9, 16
14, 14
30, 31
21, 19
17, 18
7, 14
24, 24
52, 59
13, 29
21, 35
378, 504
1532, 1823
1048, 980
115, 96
25, 26
14, 20
96, 98
270, 273
147, 144
31, 14
11, 11
7, 14
9, 2
7, 9
10, 7
6, 6
6, 8
4, 14
5, 3
8, 9
9, 10
10, 14
6, 16
11, 7
3, 4
4, 5
3, 3
12, 2
4, 3
7, 7
6, 6
8, 3
4, 8
5, 5
4, 3
6, 6
2, 4
0, 7
5, 2
2, 4
6, 1
4, 2
3, 3
1, 1
4, 6
5, 3
3, 1
3, 5
3, 0
1, 1
6, 2
3, 4
1, 2
3, 1
4, 3
4, 4
6, 3
0, 4
4, 3
1, 3
4, 4
2, 2
1, 3
0, 2
1, 1
3, 3
1, 3
1, 2
0, 0
1, 4
0, 1
0, 2
0, 0
0, 0
0, 0
1, 0
0, 1
1, 1
2, 0
0, 1
1, 0
1, 0
1, 0
2, 2
0, 0
1, 1
1, 1
0, 2
0, 1
0, 0
1, 0
0, 0
0, 0
0, 1
0, 1
0, 0
0, 0
1, 0
0, 0
1, 0
0, 3
0, 0
0, 0
0, 0
1, 0
1, 0
0, 0
0, 0
0, 0
0, 0
0, 0
0, 0
0, 0
0, 0
0, 0
0, 0
0, 0
0, 0
0, 0
0, 0
0, 1
0, 0
0, 0
0, 0
0, 1
0, 0
0, 1
1, 0
0, 0
0, 0
0, 0
0, 1
0, 0
0, 0
0, 0
0, 0
0, 1
0, 0
0, 0
0, 0
0, 0
0, 0
1, 0
0, 0
0, 0
0, 0
0, 0
0, 0
0, 0
0, 0
0, 0
0, 0
0, 0
0, 0
0, 0
0, 0
0, 0
0, 0
0, 0
0, 0
0, 0
0, 0
0, 0
0, 0
0, 0
0, 0
0, 0
0, 0
0, 0
0, 0
0, 0
0, 0
0, 0
0, 0
0, 0
0, 0
0, 0
0, 0
0, 0
0, 0
0, 0
0, 0
0, 0
0, 0
0, 0
0, 0
0, 0
0, 0
0, 0
0, 0
0, 0
0, 0
0, 0
0, 0
0, 0
0, 0
0, 0
0, 0
0, 0
0, 0
0, 0
0, 0
0, 0
0, 0
0, 0
0, 0
0, 0
0, 0
0, 0
0, 0
0, 0
0, 0
0, 0
0, 0
0, 0
0, 0
0, 0
0, 0
0, 0
0, 0
0, 0
0, 0
0, 0
0, 0
0, 0
0, 0
0, 0
0, 0
0, 0
0, 0
0, 0
0, 0
0, 0
0, 0
0, 0
0, 0
0, 0
#ENDOFDATA     end of spectrum data