File: host_upload/02-11-2024/rqc/uplink1/ps__0567_0717304816_000rfs_shot_494.msa
#FORMAT      : EMSA/MAS spectral data file
#VERSION     : TC202v2.0 PIXL
#TITLE       : Novarupta (sol567) subset1
#DATE        : 02-11-2024      Date in the format DD-MMM-YYYY, for example 07-JUL-2010
#TIME        :             The time of day at which the spectrum was recorded, in 24-hour format
#OWNER       : PIXL Flight Model       (PIXL will use this to indicate which instrument took the data.)
#NPOINTS     : 4096     Number of data points in the spectrum (This can be zero for configuration only files)
#NCOLUMNS    : 2     Number of data columns in the spectrum (This can be zero for configuration only files)
#XUNITS      : eV
#YUNITS      : COUNTS
#DATATYPE    : YY
#XPERCHAN    : 7.862, 7.881   eV per channel (separate by commas if more than one detector)
#OFFSET      : 18.5, -22.4         eV of first channel  (separate by commas if more than one detector
#SIGNALTYPE  : XRF
#YP_TEMP     : 2.267
#LIVETIME    : 8.8334, 8.808   seconds (separate by commas if more than one detector)
#REALTIME    : 10, 10.0   seconds (separate by commas if more than one detector)
#SPECTRUM    : start of spectrum data
0, 0
0, 0
0, 0
0, 0
0, 0
0, 0
0, 0
0, 1
2, 3
4, 2
2, 1
6, 11
19, 15
24, 32
49, 49
102, 109
442, 572
122, 132
27, 37
33, 27
52, 63
308, 353
119, 132
60, 82
234, 230
124, 115
78, 70
37, 27
7, 11
12, 8
25, 31
21, 32
12, 12
215, 295
322, 370
51, 56
38, 58
69, 65
9, 11
10, 12
19, 26
47, 60
31, 37
17, 15
10, 12
24, 27
11, 19
6, 11
15, 15
29, 27
18, 29
12, 11
13, 13
24, 47
47, 51
28, 21
32, 27
358, 489
1653, 1915
1112, 1079
127, 90
13, 22
20, 17
85, 113
250, 295
163, 156
27, 24
8, 14
10, 8
10, 10
4, 5
8, 11
3, 7
4, 9
6, 12
9, 10
7, 10
7, 4
17, 13
13, 11
8, 5
7, 4
8, 6
5, 10
7, 5
4, 4
6, 5
2, 9
5, 4
8, 4
6, 5
4, 9
2, 3
0, 2
8, 6
2, 8
1, 3
2, 3
4, 3
2, 2
3, 3
2, 2
0, 2
2, 3
3, 6
0, 0
2, 1
0, 2
1, 4
6, 1
2, 4
2, 5
3, 0
4, 0
3, 0
2, 3
2, 4
4, 2
2, 1
1, 1
1, 2
1, 2
3, 5
2, 1
0, 2
0, 2
0, 3
2, 1
2, 0
1, 0
3, 0
0, 0
0, 1
1, 2
2, 4
0, 0
0, 2
2, 2
1, 1
0, 0
2, 1
1, 2
0, 0
3, 0
0, 0
1, 0
0, 0
0, 0
0, 0
0, 0
0, 1
0, 1
0, 0
1, 1
0, 0
0, 0
0, 0
0, 0
0, 1
0, 0
0, 0
0, 0
0, 0
0, 0
0, 0
0, 0
0, 1
1, 0
0, 0
0, 0
0, 1
0, 2
0, 0
0, 1
0, 0
0, 0
0, 0
0, 0
0, 2
0, 0
0, 1
0, 0
0, 0
0, 0
0, 0
0, 0
0, 0
0, 0
0, 0
0, 0
0, 0
0, 0
0, 0
0, 0
0, 0
0, 0
0, 0
0, 1
0, 0
0, 0
0, 0
0, 0
0, 0
0, 0
0, 0
0, 0
0, 0
0, 0
0, 0
0, 0
0, 0
0, 0
0, 0
0, 0
0, 0
0, 0
0, 0
0, 0
0, 0
0, 0
0, 0
0, 0
0, 0
0, 0
0, 0
1, 0
0, 0
0, 0
0, 0
0, 0
0, 0
0, 0
0, 0
0, 0
0, 0
0, 0
0, 0
0, 0
0, 0
0, 0
0, 0
0, 0
0, 0
0, 0
0, 0
0, 0
0, 0
0, 0
0, 0
0, 0
0, 0
0, 0
0, 0
0, 0
0, 0
0, 0
0, 0
0, 0
0, 0
0, 0
0, 0
0, 0
0, 0
0, 0
0, 0
0, 0
0, 0
0, 0
0, 0
0, 0
0, 0
0, 0
0, 0
0, 0
0, 0
0, 0
0, 0
0, 0
0, 0
0, 0
0, 0
0, 0
0, 0
0, 0
0, 0
0, 0
0, 0
0, 0
0, 0
0, 0
0, 0
0, 0
0, 0
0, 0
#ENDOFDATA     end of spectrum data