File: host_upload/02-11-2024/rqc/uplink1/ps__0567_0717304816_000rfs_shot_433.msa
#FORMAT      : EMSA/MAS spectral data file
#VERSION     : TC202v2.0 PIXL
#TITLE       : Novarupta (sol567) subset1
#DATE        : 02-11-2024      Date in the format DD-MMM-YYYY, for example 07-JUL-2010
#TIME        :             The time of day at which the spectrum was recorded, in 24-hour format
#OWNER       : PIXL Flight Model       (PIXL will use this to indicate which instrument took the data.)
#NPOINTS     : 4096     Number of data points in the spectrum (This can be zero for configuration only files)
#NCOLUMNS    : 2     Number of data columns in the spectrum (This can be zero for configuration only files)
#XUNITS      : eV
#YUNITS      : COUNTS
#DATATYPE    : YY
#XPERCHAN    : 7.862, 7.881   eV per channel (separate by commas if more than one detector)
#OFFSET      : 18.5, -22.4         eV of first channel  (separate by commas if more than one detector
#SIGNALTYPE  : XRF
#YP_TEMP     : 1.979
#LIVETIME    : 8.8287, 8.82479   seconds (separate by commas if more than one detector)
#REALTIME    : 10, 10.0   seconds (separate by commas if more than one detector)
#SPECTRUM    : start of spectrum data
0, 0
0, 0
0, 0
0, 0
0, 0
0, 0
0, 0
1, 1
3, 4
4, 5
4, 2
6, 5
12, 17
21, 17
42, 46
103, 101
468, 531
125, 132
31, 35
28, 28
56, 61
270, 287
100, 97
65, 64
190, 207
115, 115
66, 70
33, 32
13, 10
6, 3
37, 37
15, 21
13, 27
202, 198
278, 366
53, 52
45, 41
52, 50
8, 9
8, 8
21, 28
67, 66
25, 33
13, 13
18, 26
18, 12
19, 13
11, 9
12, 20
28, 32
27, 24
10, 18
11, 13
44, 32
43, 55
19, 21
27, 32
336, 423
1576, 1827
1113, 1004
130, 88
12, 11
19, 19
77, 112
265, 263
152, 164
17, 13
14, 6
16, 11
10, 14
5, 10
3, 7
10, 7
10, 6
9, 7
5, 12
2, 6
7, 10
12, 7
8, 9
9, 5
5, 5
6, 3
5, 5
6, 6
4, 13
3, 3
5, 7
6, 8
4, 3
7, 8
1, 3
4, 2
5, 3
4, 5
4, 6
3, 6
4, 2
2, 3
6, 5
1, 3
1, 3
2, 1
2, 1
0, 1
2, 3
3, 2
1, 3
3, 1
1, 0
6, 2
1, 4
2, 5
2, 2
1, 3
2, 4
4, 0
1, 4
3, 0
2, 4
0, 2
0, 1
1, 0
3, 3
2, 2
0, 1
2, 1
1, 0
0, 1
0, 3
0, 1
1, 5
0, 2
1, 1
2, 0
1, 0
2, 1
1, 1
0, 1
0, 1
1, 0
1, 1
0, 0
0, 0
0, 0
1, 1
1, 0
1, 0
1, 0
0, 0
0, 1
1, 0
0, 1
0, 1
1, 0
0, 0
1, 0
0, 0
0, 0
0, 0
0, 0
0, 0
0, 1
0, 1
0, 2
0, 1
0, 0
0, 0
0, 0
1, 0
0, 0
0, 0
0, 0
1, 0
1, 0
1, 1
0, 0
0, 0
0, 0
1, 0
0, 0
0, 0
0, 1
0, 1
1, 0
1, 0
0, 0
0, 0
0, 0
0, 0
0, 1
0, 0
0, 0
0, 0
0, 0
0, 0
0, 0
0, 0
0, 0
0, 0
0, 0
0, 0
0, 0
0, 0
0, 0
0, 0
0, 0
0, 0
0, 0
0, 0
0, 0
0, 0
0, 0
0, 0
0, 0
0, 0
0, 0
0, 0
0, 0
0, 0
0, 0
0, 0
0, 0
0, 0
0, 0
0, 0
0, 0
0, 0
0, 0
0, 0
0, 0
0, 0
0, 0
0, 0
0, 0
0, 0
0, 0
0, 0
0, 0
0, 0
0, 0
0, 0
0, 0
0, 0
0, 0
0, 0
0, 0
0, 0
0, 0
0, 0
0, 0
0, 0
0, 0
0, 0
0, 0
0, 0
0, 0
0, 0
0, 0
0, 0
0, 0
0, 0
0, 0
0, 0
0, 0
0, 0
0, 0
0, 0
0, 0
0, 0
0, 0
0, 0
0, 0
0, 0
0, 0
0, 0
0, 0
0, 0
0, 0
0, 0
0, 0
0, 0
0, 0
0, 0
0, 0
0, 0
0, 0
0, 0
0, 0
0, 0
0, 0
0, 0
0, 0
0, 0
#ENDOFDATA     end of spectrum data