File: host_upload/02-11-2024/rqc/uplink1/ps__0567_0717304816_000rfs_shot_172.msa
#FORMAT      : EMSA/MAS spectral data file
#VERSION     : TC202v2.0 PIXL
#TITLE       : Novarupta (sol567) subset1
#DATE        : 02-11-2024      Date in the format DD-MMM-YYYY, for example 07-JUL-2010
#TIME        :             The time of day at which the spectrum was recorded, in 24-hour format
#OWNER       : PIXL Flight Model       (PIXL will use this to indicate which instrument took the data.)
#NPOINTS     : 4096     Number of data points in the spectrum (This can be zero for configuration only files)
#NCOLUMNS    : 2     Number of data columns in the spectrum (This can be zero for configuration only files)
#XUNITS      : eV
#YUNITS      : COUNTS
#DATATYPE    : YY
#XPERCHAN    : 7.862, 7.881   eV per channel (separate by commas if more than one detector)
#OFFSET      : 18.5, -22.4         eV of first channel  (separate by commas if more than one detector
#SIGNALTYPE  : XRF
#YP_TEMP     : 0.215
#LIVETIME    : 8.83345, 8.81494   seconds (separate by commas if more than one detector)
#REALTIME    : 10, 10.0   seconds (separate by commas if more than one detector)
#SPECTRUM    : start of spectrum data
0, 0
0, 0
0, 0
0, 0
0, 0
0, 0
0, 0
2, 1
1, 3
3, 6
4, 4
13, 8
6, 16
18, 21
28, 45
116, 130
485, 556
120, 128
28, 34
29, 29
46, 67
311, 332
119, 135
71, 75
234, 268
107, 107
64, 57
23, 31
12, 8
12, 14
37, 33
16, 21
19, 22
231, 271
344, 343
56, 44
41, 44
49, 54
15, 10
7, 7
20, 35
55, 60
34, 37
11, 7
10, 10
20, 22
13, 13
7, 12
12, 15
23, 30
28, 29
11, 8
7, 19
21, 37
34, 64
22, 25
33, 36
363, 513
1623, 1904
1054, 1043
113, 103
18, 14
16, 27
104, 91
238, 295
163, 136
23, 24
8, 9
8, 4
13, 7
3, 6
7, 4
3, 5
2, 4
6, 9
6, 7
6, 7
3, 9
14, 11
8, 14
2, 6
10, 5
4, 10
5, 4
5, 2
7, 6
5, 3
5, 5
8, 5
5, 3
6, 6
7, 6
4, 6
6, 6
4, 4
3, 3
3, 5
4, 1
3, 6
1, 3
2, 4
3, 3
5, 3
2, 3
6, 3
4, 3
2, 2
2, 4
1, 3
2, 2
1, 2
0, 3
2, 4
2, 2
1, 3
2, 2
5, 3
5, 2
3, 2
3, 0
1, 2
3, 1
0, 1
1, 1
2, 3
0, 1
0, 2
0, 1
3, 0
0, 0
1, 1
0, 1
0, 0
2, 0
2, 0
0, 2
1, 0
2, 0
0, 0
0, 1
1, 0
0, 0
0, 0
0, 1
1, 1
0, 1
1, 0
1, 0
0, 1
0, 0
1, 1
0, 0
1, 0
1, 0
0, 0
0, 0
0, 1
0, 1
1, 0
0, 1
0, 0
0, 0
0, 0
1, 1
0, 1
0, 0
0, 0
0, 1
0, 0
0, 0
0, 0
0, 0
0, 1
0, 0
0, 0
0, 1
1, 0
0, 0
0, 0
0, 0
0, 0
0, 0
0, 0
0, 0
0, 0
0, 0
1, 0
0, 1
1, 0
0, 0
0, 1
0, 0
0, 0
0, 0
0, 0
0, 0
0, 0
0, 0
0, 0
0, 0
0, 0
0, 0
0, 0
0, 0
0, 0
0, 1
0, 0
0, 0
0, 0
0, 0
0, 0
0, 0
0, 0
0, 0
0, 0
0, 0
0, 0
0, 0
0, 0
0, 0
0, 0
0, 0
0, 0
0, 0
0, 0
0, 0
0, 0
0, 0
0, 0
0, 0
0, 0
0, 0
0, 0
0, 0
0, 0
0, 0
0, 0
0, 0
0, 0
0, 0
0, 0
0, 0
0, 0
0, 0
0, 0
0, 0
0, 0
0, 0
0, 0
0, 0
0, 0
0, 0
0, 0
0, 0
0, 0
0, 0
0, 0
0, 0
0, 0
0, 0
0, 0
0, 0
0, 0
0, 0
0, 0
0, 0
0, 0
0, 0
0, 0
0, 0
0, 0
0, 0
0, 0
0, 0
0, 0
0, 0
0, 0
0, 0
0, 0
0, 0
0, 0
0, 0
0, 0
0, 0
0, 0
0, 0
0, 0
0, 0
0, 0
0, 0
0, 0
0, 0
0, 0
0, 0
#ENDOFDATA     end of spectrum data