File: host_upload/02-11-2024/rqc/uplink1/ps__0567_0717304816_000rfs_shot_177.msa
#FORMAT      : EMSA/MAS spectral data file
#VERSION     : TC202v2.0 PIXL
#TITLE       : Novarupta (sol567) subset1
#DATE        : 02-11-2024      Date in the format DD-MMM-YYYY, for example 07-JUL-2010
#TIME        :             The time of day at which the spectrum was recorded, in 24-hour format
#OWNER       : PIXL Flight Model       (PIXL will use this to indicate which instrument took the data.)
#NPOINTS     : 4096     Number of data points in the spectrum (This can be zero for configuration only files)
#NCOLUMNS    : 2     Number of data columns in the spectrum (This can be zero for configuration only files)
#XUNITS      : eV
#YUNITS      : COUNTS
#DATATYPE    : YY
#XPERCHAN    : 7.862, 7.881   eV per channel (separate by commas if more than one detector)
#OFFSET      : 18.5, -22.4         eV of first channel  (separate by commas if more than one detector
#SIGNALTYPE  : XRF
#YP_TEMP     : 0.471
#LIVETIME    : 8.82533, 8.81682   seconds (separate by commas if more than one detector)
#REALTIME    : 10, 10.0   seconds (separate by commas if more than one detector)
#SPECTRUM    : start of spectrum data
0, 0
0, 0
0, 0
0, 0
0, 0
0, 0
0, 0
0, 1
1, 4
2, 3
2, 0
11, 14
9, 13
25, 24
53, 40
99, 117
504, 526
123, 107
21, 30
19, 25
54, 53
301, 303
105, 118
81, 76
245, 231
122, 116
86, 78
32, 19
7, 11
6, 14
38, 28
26, 23
19, 28
224, 243
338, 279
45, 43
50, 40
45, 65
9, 8
12, 11
23, 20
57, 57
28, 34
19, 16
15, 19
19, 21
10, 10
9, 11
19, 18
31, 30
21, 30
16, 14
18, 18
34, 42
55, 47
27, 27
26, 40
383, 473
1676, 1795
1091, 1007
134, 84
21, 20
25, 28
76, 114
244, 286
164, 146
22, 23
13, 12
12, 16
9, 9
5, 6
0, 12
3, 3
10, 7
6, 8
7, 6
8, 8
6, 3
6, 12
9, 11
3, 9
6, 9
7, 8
0, 7
4, 6
8, 2
4, 5
6, 3
7, 12
7, 3
6, 10
2, 5
4, 5
5, 1
5, 3
1, 3
3, 5
1, 6
4, 4
7, 3
3, 2
0, 3
5, 3
6, 2
7, 0
2, 2
2, 4
2, 5
3, 2
1, 4
1, 2
2, 3
6, 1
1, 1
1, 0
6, 4
4, 2
3, 2
1, 3
2, 2
2, 0
2, 0
1, 2
2, 0
1, 2
0, 1
0, 0
0, 1
2, 0
1, 0
1, 1
1, 2
0, 0
2, 1
0, 1
0, 1
1, 1
1, 1
2, 0
0, 1
1, 3
0, 1
0, 0
1, 1
0, 0
1, 0
0, 3
0, 1
0, 0
0, 0
0, 0
0, 1
0, 0
0, 1
0, 0
0, 0
1, 0
0, 0
0, 0
0, 0
0, 0
1, 0
1, 0
1, 0
0, 0
0, 0
0, 1
0, 0
1, 1
0, 0
0, 0
0, 1
0, 0
0, 0
0, 0
0, 0
0, 0
1, 0
0, 0
0, 0
0, 1
0, 0
0, 1
1, 0
0, 1
0, 0
0, 0
0, 0
0, 0
0, 0
0, 0
0, 0
0, 1
0, 0
0, 0
0, 0
0, 0
0, 0
0, 0
0, 0
0, 0
0, 0
0, 0
0, 0
0, 0
0, 0
0, 0
0, 0
0, 0
0, 0
0, 0
0, 0
0, 0
0, 0
0, 0
0, 0
0, 0
0, 0
0, 0
0, 0
0, 0
0, 0
0, 0
0, 0
0, 0
0, 0
0, 0
0, 0
0, 0
0, 0
0, 0
1, 0
0, 0
0, 0
0, 0
0, 0
0, 0
0, 0
0, 0
0, 0
0, 0
0, 0
0, 0
0, 0
0, 0
0, 0
0, 0
0, 0
0, 0
0, 0
0, 0
0, 0
0, 0
0, 0
0, 0
0, 0
0, 0
0, 0
0, 0
0, 0
0, 0
0, 0
0, 0
0, 0
0, 0
0, 0
0, 0
0, 0
0, 0
0, 0
0, 0
0, 0
0, 0
0, 0
0, 0
0, 0
0, 0
0, 0
0, 0
0, 0
0, 0
0, 0
0, 0
0, 0
0, 0
0, 0
0, 0
0, 0
0, 0
0, 0
0, 0
0, 0
0, 0
0, 0
#ENDOFDATA     end of spectrum data