File: host_upload/02-11-2024/rqc/uplink1/ps__0567_0717304816_000rfs_shot_141.msa
#FORMAT      : EMSA/MAS spectral data file
#VERSION     : TC202v2.0 PIXL
#TITLE       : Novarupta (sol567) subset1
#DATE        : 02-11-2024      Date in the format DD-MMM-YYYY, for example 07-JUL-2010
#TIME        :             The time of day at which the spectrum was recorded, in 24-hour format
#OWNER       : PIXL Flight Model       (PIXL will use this to indicate which instrument took the data.)
#NPOINTS     : 4096     Number of data points in the spectrum (This can be zero for configuration only files)
#NCOLUMNS    : 2     Number of data columns in the spectrum (This can be zero for configuration only files)
#XUNITS      : eV
#YUNITS      : COUNTS
#DATATYPE    : YY
#XPERCHAN    : 7.862, 7.881   eV per channel (separate by commas if more than one detector)
#OFFSET      : 18.5, -22.4         eV of first channel  (separate by commas if more than one detector
#SIGNALTYPE  : XRF
#YP_TEMP     : -0.202
#LIVETIME    : 8.83138, 8.82102   seconds (separate by commas if more than one detector)
#REALTIME    : 10, 10.0   seconds (separate by commas if more than one detector)
#SPECTRUM    : start of spectrum data
0, 0
0, 0
0, 0
0, 0
0, 0
0, 0
0, 0
0, 0
3, 5
5, 3
7, 4
4, 12
16, 20
29, 29
51, 45
115, 151
482, 517
109, 126
34, 27
29, 26
51, 61
292, 316
124, 126
76, 74
225, 237
92, 143
75, 67
40, 42
8, 10
8, 8
29, 17
17, 15
16, 26
205, 270
291, 340
47, 57
32, 44
60, 43
13, 15
5, 4
19, 20
60, 49
32, 38
16, 17
14, 19
19, 21
15, 19
9, 12
16, 24
27, 30
20, 21
12, 7
15, 16
36, 30
53, 46
27, 18
26, 39
436, 511
1593, 1680
979, 921
129, 69
21, 13
32, 34
91, 115
248, 277
150, 136
19, 20
5, 11
16, 13
5, 12
7, 4
5, 3
7, 9
11, 9
6, 11
5, 6
10, 7
6, 5
12, 13
13, 7
7, 6
7, 8
4, 3
7, 10
5, 4
9, 1
8, 9
8, 4
4, 11
4, 7
5, 2
10, 6
4, 10
3, 3
2, 4
5, 4
3, 4
2, 5
3, 5
4, 4
1, 5
2, 6
2, 3
4, 2
3, 1
2, 3
3, 4
4, 2
3, 4
2, 4
5, 2
5, 2
0, 2
4, 2
1, 2
0, 1
3, 3
2, 4
1, 0
2, 2
1, 2
1, 2
2, 2
2, 1
0, 4
0, 0
2, 1
2, 1
1, 3
3, 1
0, 2
0, 0
1, 1
0, 1
2, 1
0, 1
1, 0
0, 3
0, 0
3, 0
1, 0
1, 1
0, 0
0, 0
2, 0
1, 0
0, 1
0, 0
1, 0
1, 0
0, 0
0, 0
1, 2
0, 0
1, 0
0, 0
0, 0
2, 0
1, 0
0, 0
1, 0
0, 0
2, 0
0, 0
1, 0
0, 0
0, 1
0, 0
0, 0
0, 0
0, 0
0, 0
0, 0
0, 0
0, 0
0, 1
0, 0
0, 0
0, 0
0, 0
0, 0
0, 1
0, 0
0, 1
0, 3
0, 0
0, 0
0, 0
0, 0
0, 0
0, 0
0, 0
1, 0
0, 0
0, 0
0, 0
0, 0
0, 0
0, 0
0, 0
0, 0
0, 0
0, 0
0, 0
0, 0
0, 0
0, 0
0, 0
0, 0
0, 0
0, 0
0, 0
0, 0
0, 0
0, 0
0, 0
0, 0
0, 0
0, 0
0, 0
0, 0
0, 0
0, 0
0, 0
0, 0
0, 0
0, 0
0, 0
0, 0
0, 0
0, 0
0, 0
0, 0
0, 0
0, 0
0, 0
0, 0
0, 0
0, 0
0, 0
0, 0
0, 0
0, 0
0, 0
0, 0
0, 0
0, 0
0, 0
0, 0
0, 0
0, 0
0, 0
0, 0
0, 0
0, 0
0, 0
0, 0
0, 0
0, 0
0, 0
0, 0
0, 0
0, 0
0, 0
0, 0
0, 0
0, 0
0, 0
0, 0
0, 0
0, 0
0, 0
0, 0
0, 0
0, 0
0, 0
0, 0
0, 0
0, 0
0, 0
0, 0
0, 0
0, 0
0, 0
0, 0
0, 0
0, 0
0, 0
0, 0
0, 0
0, 0
0, 0
0, 0
0, 0
#ENDOFDATA     end of spectrum data