File: host_upload/02-11-2024/rqc/uplink1/ps__0567_0717304816_000rfs_shot_462.msa
#FORMAT      : EMSA/MAS spectral data file
#VERSION     : TC202v2.0 PIXL
#TITLE       : Novarupta (sol567) subset1
#DATE        : 02-11-2024      Date in the format DD-MMM-YYYY, for example 07-JUL-2010
#TIME        :             The time of day at which the spectrum was recorded, in 24-hour format
#OWNER       : PIXL Flight Model       (PIXL will use this to indicate which instrument took the data.)
#NPOINTS     : 4096     Number of data points in the spectrum (This can be zero for configuration only files)
#NCOLUMNS    : 2     Number of data columns in the spectrum (This can be zero for configuration only files)
#XUNITS      : eV
#YUNITS      : COUNTS
#DATATYPE    : YY
#XPERCHAN    : 7.862, 7.881   eV per channel (separate by commas if more than one detector)
#OFFSET      : 18.5, -22.4         eV of first channel  (separate by commas if more than one detector
#SIGNALTYPE  : XRF
#YP_TEMP     : 1.883
#LIVETIME    : 8.83987, 8.82035   seconds (separate by commas if more than one detector)
#REALTIME    : 10, 10.0   seconds (separate by commas if more than one detector)
#SPECTRUM    : start of spectrum data
0, 0
0, 0
0, 0
0, 0
0, 0
0, 0
0, 0
0, 1
3, 2
1, 0
2, 3
14, 8
10, 21
24, 23
40, 40
83, 130
455, 516
120, 116
31, 29
19, 21
67, 62
305, 282
111, 135
65, 67
198, 223
96, 130
62, 61
27, 31
15, 14
8, 14
27, 32
9, 15
14, 23
184, 241
310, 326
60, 60
24, 39
46, 55
10, 7
9, 9
25, 28
61, 68
33, 37
17, 14
9, 21
19, 14
15, 16
13, 9
5, 22
35, 48
20, 29
18, 13
17, 12
25, 31
49, 70
20, 17
29, 32
350, 431
1572, 1729
1066, 959
129, 109
24, 9
16, 25
72, 91
265, 253
155, 142
21, 21
16, 5
12, 18
7, 5
4, 10
6, 7
7, 3
4, 9
7, 10
11, 10
7, 3
6, 9
11, 11
7, 9
13, 9
10, 5
7, 9
5, 5
3, 4
8, 7
11, 5
0, 4
4, 2
2, 2
4, 5
4, 5
2, 3
5, 1
3, 12
5, 4
6, 4
6, 2
2, 5
6, 7
2, 3
1, 2
3, 4
3, 1
1, 1
5, 2
0, 3
3, 1
0, 2
3, 2
3, 3
2, 2
2, 4
1, 2
4, 4
1, 3
2, 3
2, 1
1, 0
1, 3
2, 2
2, 0
1, 1
1, 0
1, 1
2, 0
0, 0
0, 1
2, 1
1, 0
1, 2
0, 2
0, 2
0, 1
0, 1
0, 1
0, 1
1, 1
0, 0
0, 1
0, 3
2, 1
1, 1
0, 0
2, 0
1, 0
1, 0
0, 0
0, 0
0, 1
0, 0
0, 0
0, 0
0, 2
0, 0
0, 0
1, 0
0, 0
1, 0
1, 0
0, 0
0, 0
1, 0
0, 0
0, 0
0, 0
1, 0
0, 1
1, 1
0, 1
1, 1
0, 0
0, 1
0, 0
1, 0
0, 0
0, 1
0, 0
0, 0
0, 0
0, 0
0, 0
0, 1
0, 1
0, 0
0, 0
0, 0
0, 0
0, 0
0, 0
0, 0
0, 0
0, 1
0, 0
0, 0
0, 0
0, 0
0, 0
0, 0
0, 0
0, 0
0, 0
0, 0
0, 0
0, 0
0, 0
0, 0
0, 0
0, 0
0, 0
0, 0
0, 0
0, 0
1, 0
0, 0
0, 0
0, 0
0, 0
0, 0
0, 0
0, 0
0, 0
0, 0
0, 0
0, 0
0, 0
0, 0
0, 0
0, 0
0, 0
0, 0
0, 0
0, 0
0, 0
0, 0
0, 0
0, 0
0, 0
0, 0
0, 0
0, 0
0, 0
0, 0
0, 0
0, 0
0, 0
0, 0
0, 0
0, 0
0, 0
0, 0
0, 0
0, 0
0, 0
0, 0
0, 0
0, 0
0, 0
0, 0
0, 0
0, 0
0, 0
0, 0
0, 0
0, 0
0, 0
0, 0
0, 0
0, 0
0, 0
0, 0
0, 0
0, 0
0, 0
0, 0
0, 0
0, 0
0, 0
0, 0
0, 0
0, 0
0, 0
0, 0
0, 0
0, 0
0, 0
0, 0
0, 0
0, 0
0, 0
0, 0
0, 0
0, 0
0, 0
#ENDOFDATA     end of spectrum data