File: host_upload/02-11-2024/rqc/uplink1/ps__0567_0717304816_000rfs_shot_56.msa
#FORMAT      : EMSA/MAS spectral data file
#VERSION     : TC202v2.0 PIXL
#TITLE       : Novarupta (sol567) subset1
#DATE        : 02-11-2024      Date in the format DD-MMM-YYYY, for example 07-JUL-2010
#TIME        :             The time of day at which the spectrum was recorded, in 24-hour format
#OWNER       : PIXL Flight Model       (PIXL will use this to indicate which instrument took the data.)
#NPOINTS     : 4096     Number of data points in the spectrum (This can be zero for configuration only files)
#NCOLUMNS    : 2     Number of data columns in the spectrum (This can be zero for configuration only files)
#XUNITS      : eV
#YUNITS      : COUNTS
#DATATYPE    : YY
#XPERCHAN    : 7.862, 7.881   eV per channel (separate by commas if more than one detector)
#OFFSET      : 18.5, -22.4         eV of first channel  (separate by commas if more than one detector
#SIGNALTYPE  : XRF
#YP_TEMP     : -2.511
#LIVETIME    : 8.83034, 8.64083   seconds (separate by commas if more than one detector)
#REALTIME    : 10, 10.0   seconds (separate by commas if more than one detector)
#SPECTRUM    : start of spectrum data
0, 0
0, 0
0, 0
0, 0
0, 0
0, 0
0, 0
0, 0
3, 4
3, 4
5, 2
8, 11
11, 15
26, 19
46, 40
131, 145
462, 525
133, 119
21, 38
12, 30
69, 70
333, 382
119, 132
90, 96
202, 241
120, 117
79, 82
45, 34
9, 11
10, 10
18, 13
14, 10
23, 30
273, 290
296, 339
56, 45
42, 65
48, 50
7, 6
13, 14
26, 38
56, 53
32, 29
14, 13
14, 12
14, 26
18, 13
10, 11
18, 17
24, 37
22, 26
8, 15
14, 16
36, 41
38, 47
13, 28
38, 52
496, 585
1606, 1839
887, 859
98, 83
20, 15
23, 22
97, 117
210, 323
116, 142
18, 23
6, 9
11, 11
7, 12
7, 8
2, 5
4, 4
8, 4
3, 11
7, 6
3, 4
4, 9
15, 14
9, 12
9, 1
6, 6
4, 5
5, 7
5, 5
6, 6
5, 6
0, 4
4, 2
3, 5
5, 2
8, 6
4, 5
6, 1
1, 6
1, 2
2, 2
3, 7
3, 2
4, 5
1, 5
3, 2
5, 3
2, 2
3, 4
6, 2
3, 2
4, 6
1, 10
5, 4
3, 2
3, 1
2, 2
1, 2
1, 1
4, 3
3, 4
3, 1
2, 1
2, 1
2, 3
2, 4
2, 2
2, 3
0, 1
1, 1
4, 2
0, 0
2, 2
4, 0
0, 2
0, 1
2, 1
0, 0
1, 3
1, 1
1, 1
1, 1
1, 1
0, 1
0, 1
1, 0
0, 1
0, 0
0, 0
1, 1
0, 1
0, 1
1, 0
1, 1
0, 0
0, 1
0, 2
0, 0
0, 0
0, 1
0, 0
1, 0
0, 1
0, 1
1, 0
1, 0
0, 0
1, 0
0, 0
0, 1
0, 0
0, 0
0, 1
1, 0
0, 1
0, 0
1, 1
0, 0
1, 0
0, 1
0, 0
0, 0
0, 0
0, 0
0, 0
0, 0
0, 0
0, 0
0, 0
0, 0
0, 0
0, 0
0, 0
0, 0
0, 0
0, 0
1, 0
0, 0
0, 0
0, 0
0, 0
1, 0
0, 0
0, 0
0, 0
0, 0
1, 0
0, 0
0, 0
0, 1
0, 0
0, 0
0, 0
0, 0
0, 0
0, 0
0, 0
0, 0
0, 0
0, 0
0, 0
0, 0
0, 0
0, 0
0, 0
0, 0
0, 0
0, 0
0, 0
0, 0
0, 0
0, 0
0, 0
0, 0
0, 0
0, 0
0, 0
0, 0
0, 0
0, 0
0, 0
0, 0
0, 0
0, 0
0, 0
0, 0
0, 0
0, 0
0, 0
0, 0
0, 0
0, 0
0, 0
0, 0
0, 0
0, 0
0, 0
0, 0
0, 0
0, 0
0, 0
0, 0
0, 0
0, 0
0, 0
0, 0
0, 0
0, 0
0, 0
0, 0
0, 0
0, 0
0, 0
0, 0
0, 0
0, 0
0, 0
0, 0
0, 0
0, 0
0, 0
0, 0
0, 0
0, 0
0, 0
0, 0
0, 0
0, 0
0, 0
0, 0
0, 0
0, 0
0, 0
0, 0
0, 0
0, 0
0, 0
0, 0
#ENDOFDATA     end of spectrum data