File: host_upload/02-11-2024/rqc/uplink1/ps__0567_0717304816_000rfs_shot_316.msa
#FORMAT      : EMSA/MAS spectral data file
#VERSION     : TC202v2.0 PIXL
#TITLE       : Novarupta (sol567) subset1
#DATE        : 02-11-2024      Date in the format DD-MMM-YYYY, for example 07-JUL-2010
#TIME        :             The time of day at which the spectrum was recorded, in 24-hour format
#OWNER       : PIXL Flight Model       (PIXL will use this to indicate which instrument took the data.)
#NPOINTS     : 4096     Number of data points in the spectrum (This can be zero for configuration only files)
#NCOLUMNS    : 2     Number of data columns in the spectrum (This can be zero for configuration only files)
#XUNITS      : eV
#YUNITS      : COUNTS
#DATATYPE    : YY
#XPERCHAN    : 7.862, 7.881   eV per channel (separate by commas if more than one detector)
#OFFSET      : 18.5, -22.4         eV of first channel  (separate by commas if more than one detector
#SIGNALTYPE  : XRF
#YP_TEMP     : 1.786
#LIVETIME    : 8.84027, 8.83839   seconds (separate by commas if more than one detector)
#REALTIME    : 10, 10.0   seconds (separate by commas if more than one detector)
#SPECTRUM    : start of spectrum data
0, 0
0, 0
0, 0
0, 0
0, 0
0, 0
0, 0
0, 0
7, 4
4, 3
8, 5
11, 14
14, 4
18, 30
39, 41
105, 138
485, 493
119, 121
34, 30
28, 22
62, 44
299, 323
110, 111
77, 83
208, 241
121, 111
72, 69
39, 25
12, 15
13, 4
30, 29
8, 18
17, 13
199, 217
309, 308
50, 49
36, 42
46, 48
8, 6
7, 8
17, 17
60, 63
32, 25
13, 16
11, 12
13, 22
16, 10
7, 15
9, 15
30, 37
24, 20
14, 11
19, 9
37, 27
53, 52
21, 23
26, 32
352, 444
1601, 1796
1076, 1036
126, 92
12, 9
19, 26
74, 90
221, 301
153, 151
25, 24
1, 4
13, 13
5, 6
4, 3
3, 11
6, 9
9, 6
10, 8
10, 12
7, 10
6, 8
12, 11
17, 7
8, 9
4, 5
5, 3
8, 8
7, 7
2, 10
2, 4
8, 5
5, 4
2, 4
4, 6
4, 7
2, 7
4, 3
3, 2
2, 6
3, 1
1, 4
3, 2
2, 4
2, 0
2, 1
5, 0
1, 3
3, 2
1, 3
4, 3
1, 3
3, 3
2, 5
4, 3
1, 3
2, 2
1, 0
2, 1
2, 3
2, 2
2, 0
0, 1
1, 1
0, 0
0, 1
0, 2
1, 2
0, 2
1, 1
0, 3
2, 1
0, 1
1, 1
2, 3
0, 0
3, 0
2, 0
0, 2
0, 2
1, 3
0, 0
1, 2
0, 0
0, 1
1, 0
0, 0
0, 0
1, 1
0, 0
0, 0
0, 0
1, 1
1, 1
0, 0
1, 0
0, 0
0, 1
0, 0
1, 0
0, 1
0, 0
0, 0
0, 0
1, 0
1, 1
0, 0
0, 0
0, 1
0, 0
0, 0
1, 0
0, 0
0, 0
0, 0
0, 1
0, 0
0, 0
0, 1
0, 0
0, 0
0, 0
1, 0
0, 1
0, 0
0, 0
0, 0
0, 1
0, 0
0, 1
0, 0
0, 0
0, 0
0, 0
0, 0
0, 0
0, 0
0, 0
0, 0
0, 0
0, 0
0, 0
1, 0
0, 1
0, 0
0, 0
0, 0
0, 0
0, 0
0, 0
0, 0
1, 0
0, 0
0, 0
0, 0
0, 0
0, 0
0, 0
0, 0
0, 0
0, 0
0, 0
0, 0
0, 0
0, 0
0, 0
0, 0
0, 0
0, 0
0, 0
0, 0
0, 0
0, 0
0, 0
0, 0
0, 0
0, 0
0, 0
0, 0
0, 0
0, 0
0, 0
0, 0
0, 0
0, 0
0, 0
0, 0
0, 0
0, 0
0, 0
0, 0
0, 0
0, 0
0, 0
0, 0
0, 0
0, 0
0, 0
0, 0
0, 0
0, 0
0, 0
0, 0
0, 0
0, 0
0, 0
0, 0
0, 0
0, 0
0, 0
0, 0
0, 0
0, 0
0, 0
0, 0
0, 0
0, 0
0, 0
0, 0
0, 0
0, 0
0, 0
0, 0
0, 0
0, 0
0, 0
0, 0
0, 0
0, 0
0, 0
0, 0
0, 0
0, 0
0, 0
0, 0
0, 0
0, 0
0, 0
#ENDOFDATA     end of spectrum data