File: host_upload/02-11-2024/rqc/uplink1/ps__0567_0717304816_000rfs_shot_147.msa
#FORMAT      : EMSA/MAS spectral data file
#VERSION     : TC202v2.0 PIXL
#TITLE       : Novarupta (sol567) subset1
#DATE        : 02-11-2024      Date in the format DD-MMM-YYYY, for example 07-JUL-2010
#TIME        :             The time of day at which the spectrum was recorded, in 24-hour format
#OWNER       : PIXL Flight Model       (PIXL will use this to indicate which instrument took the data.)
#NPOINTS     : 4096     Number of data points in the spectrum (This can be zero for configuration only files)
#NCOLUMNS    : 2     Number of data columns in the spectrum (This can be zero for configuration only files)
#XUNITS      : eV
#YUNITS      : COUNTS
#DATATYPE    : YY
#XPERCHAN    : 7.862, 7.881   eV per channel (separate by commas if more than one detector)
#OFFSET      : 18.5, -22.4         eV of first channel  (separate by commas if more than one detector
#SIGNALTYPE  : XRF
#YP_TEMP     : 0.343
#LIVETIME    : 8.83455, 8.81659   seconds (separate by commas if more than one detector)
#REALTIME    : 10, 10.0   seconds (separate by commas if more than one detector)
#SPECTRUM    : start of spectrum data
0, 0
0, 0
0, 0
0, 0
0, 0
0, 0
0, 0
0, 0
1, 3
5, 2
1, 4
10, 16
9, 16
17, 35
51, 42
102, 121
468, 570
119, 95
31, 32
20, 22
58, 59
299, 339
118, 124
68, 82
232, 262
106, 116
74, 82
36, 35
8, 13
10, 6
26, 28
13, 17
17, 23
203, 274
309, 327
52, 56
34, 51
44, 50
12, 15
7, 9
23, 23
55, 83
27, 26
18, 14
16, 16
11, 24
16, 16
14, 9
11, 14
24, 36
24, 31
10, 14
13, 20
45, 32
40, 47
22, 22
29, 32
375, 509
1577, 1888
972, 984
108, 99
10, 15
20, 26
79, 107
250, 296
126, 144
22, 17
11, 8
15, 12
11, 10
5, 3
7, 6
6, 7
4, 6
8, 4
4, 3
7, 4
4, 7
10, 14
12, 14
7, 7
12, 3
8, 2
9, 4
5, 3
5, 2
4, 9
6, 7
2, 9
3, 8
6, 3
9, 6
3, 6
4, 5
5, 1
3, 7
3, 4
2, 4
1, 2
1, 3
4, 4
2, 7
4, 3
4, 2
6, 4
0, 2
2, 1
0, 2
1, 0
0, 1
2, 3
0, 1
2, 4
1, 2
2, 6
6, 1
4, 2
0, 1
2, 5
2, 0
0, 2
2, 1
4, 2
0, 1
2, 2
0, 2
1, 2
1, 0
1, 1
3, 1
1, 3
0, 0
2, 3
0, 0
1, 0
0, 0
0, 0
1, 1
1, 0
0, 1
0, 1
0, 1
1, 0
1, 0
1, 1
0, 1
0, 0
0, 1
1, 1
0, 0
0, 0
1, 0
0, 0
0, 0
0, 0
1, 0
0, 0
2, 0
1, 0
0, 0
0, 0
0, 0
0, 0
0, 2
0, 0
0, 1
0, 0
0, 0
0, 0
1, 0
0, 0
1, 0
0, 0
0, 0
0, 0
0, 0
0, 1
0, 0
0, 0
0, 0
0, 0
0, 0
0, 0
0, 0
0, 0
0, 0
0, 0
0, 1
0, 0
0, 0
0, 0
1, 0
0, 0
0, 0
0, 0
0, 0
0, 0
0, 0
0, 0
0, 0
0, 0
0, 0
0, 0
0, 0
0, 0
0, 0
0, 0
0, 0
0, 0
0, 0
0, 0
0, 0
0, 0
0, 0
0, 0
0, 0
0, 0
0, 0
0, 0
0, 0
0, 0
0, 0
0, 0
0, 0
0, 0
0, 0
0, 0
0, 0
0, 0
0, 0
0, 0
0, 0
0, 0
0, 0
0, 0
0, 0
0, 0
0, 0
0, 0
0, 0
0, 0
0, 0
0, 0
0, 0
0, 0
0, 0
0, 0
0, 0
0, 0
0, 0
0, 0
0, 0
0, 0
0, 0
0, 0
0, 0
0, 0
0, 0
0, 0
0, 0
0, 0
0, 0
0, 0
0, 0
0, 0
0, 0
0, 0
0, 0
0, 0
0, 0
0, 0
0, 0
0, 0
0, 0
0, 0
0, 0
0, 0
0, 0
0, 0
0, 0
0, 0
0, 0
0, 0
0, 0
0, 0
0, 0
0, 0
0, 0
0, 0
0, 0
0, 0
0, 0
0, 0
0, 0
#ENDOFDATA     end of spectrum data