File: host_upload/02-11-2024/rqc/uplink1/ps__0567_0717304816_000rfs_shot_194.msa
#FORMAT      : EMSA/MAS spectral data file
#VERSION     : TC202v2.0 PIXL
#TITLE       : Novarupta (sol567) subset1
#DATE        : 02-11-2024      Date in the format DD-MMM-YYYY, for example 07-JUL-2010
#TIME        :             The time of day at which the spectrum was recorded, in 24-hour format
#OWNER       : PIXL Flight Model       (PIXL will use this to indicate which instrument took the data.)
#NPOINTS     : 4096     Number of data points in the spectrum (This can be zero for configuration only files)
#NCOLUMNS    : 2     Number of data columns in the spectrum (This can be zero for configuration only files)
#XUNITS      : eV
#YUNITS      : COUNTS
#DATATYPE    : YY
#XPERCHAN    : 7.862, 7.881   eV per channel (separate by commas if more than one detector)
#OFFSET      : 18.5, -22.4         eV of first channel  (separate by commas if more than one detector
#SIGNALTYPE  : XRF
#YP_TEMP     : 0.343
#LIVETIME    : 8.84702, 8.82346   seconds (separate by commas if more than one detector)
#REALTIME    : 10, 10.0   seconds (separate by commas if more than one detector)
#SPECTRUM    : start of spectrum data
0, 0
0, 0
0, 0
0, 0
0, 0
0, 0
0, 0
0, 0
2, 3
1, 3
3, 1
9, 10
15, 7
30, 29
46, 38
108, 120
459, 513
117, 127
31, 33
28, 21
34, 57
263, 342
123, 131
53, 72
231, 225
103, 115
72, 72
26, 28
14, 12
13, 7
17, 25
21, 20
12, 16
173, 250
290, 345
44, 52
24, 34
49, 54
7, 8
12, 5
21, 25
71, 64
44, 44
12, 19
13, 20
15, 26
10, 13
10, 5
12, 16
33, 40
13, 26
10, 12
20, 9
33, 36
36, 49
14, 22
26, 41
364, 469
1556, 1865
1013, 1014
112, 92
21, 13
23, 31
85, 101
260, 300
137, 172
21, 20
8, 11
13, 14
10, 13
7, 8
5, 4
6, 4
8, 6
3, 10
5, 7
1, 3
8, 6
14, 6
6, 9
8, 9
6, 4
4, 4
5, 6
6, 5
6, 6
7, 3
7, 4
6, 7
8, 5
2, 6
6, 5
6, 3
7, 5
4, 2
5, 4
0, 3
5, 5
2, 5
8, 3
4, 1
1, 2
0, 7
1, 2
5, 4
1, 6
4, 3
2, 3
0, 3
4, 2
0, 2
0, 3
1, 4
2, 3
1, 1
2, 2
3, 4
2, 4
0, 2
0, 1
2, 2
2, 1
0, 2
3, 4
2, 0
1, 2
2, 1
0, 1
3, 3
0, 1
0, 1
2, 3
1, 1
1, 0
3, 1
2, 0
1, 2
0, 0
0, 0
2, 0
2, 2
1, 0
0, 0
0, 0
0, 0
1, 0
0, 0
1, 1
0, 0
0, 2
0, 1
0, 0
1, 0
0, 0
0, 0
0, 0
0, 0
0, 0
0, 0
0, 0
0, 0
0, 0
1, 1
0, 0
0, 0
0, 0
1, 0
0, 0
1, 0
0, 0
0, 0
0, 0
0, 1
0, 0
0, 0
1, 0
0, 0
0, 0
0, 0
0, 0
0, 0
0, 0
1, 1
0, 0
0, 0
1, 1
0, 0
0, 1
0, 0
0, 0
0, 1
0, 0
0, 0
0, 0
0, 1
0, 0
0, 0
0, 0
0, 0
0, 0
0, 0
0, 0
0, 0
0, 0
0, 0
0, 0
0, 0
0, 0
0, 0
0, 0
0, 0
0, 0
0, 0
0, 0
0, 0
0, 0
0, 0
0, 0
0, 0
0, 0
0, 0
0, 0
0, 0
0, 0
0, 0
0, 0
0, 0
0, 0
0, 0
0, 0
0, 0
0, 0
0, 0
0, 0
0, 0
0, 0
0, 0
0, 0
0, 0
0, 0
0, 0
0, 0
0, 0
0, 0
0, 0
0, 0
0, 0
0, 0
0, 0
0, 0
0, 0
0, 0
0, 0
0, 0
0, 0
0, 0
0, 0
0, 0
0, 0
0, 0
0, 0
0, 0
0, 0
0, 0
0, 0
0, 0
0, 0
0, 0
0, 0
0, 0
0, 0
0, 0
0, 0
0, 0
0, 0
0, 0
0, 0
0, 0
0, 0
0, 0
0, 0
0, 0
0, 0
0, 0
0, 0
0, 0
0, 0
0, 0
0, 0
0, 0
0, 0
0, 0
0, 0
0, 0
#ENDOFDATA     end of spectrum data