File: host_upload/02-11-2024/rqc/uplink1/ps__0567_0717304816_000rfs_shot_4.msa
#FORMAT      : EMSA/MAS spectral data file
#VERSION     : TC202v2.0 PIXL
#TITLE       : Novarupta (sol567) subset1
#DATE        : 02-11-2024      Date in the format DD-MMM-YYYY, for example 07-JUL-2010
#TIME        :             The time of day at which the spectrum was recorded, in 24-hour format
#OWNER       : PIXL Flight Model       (PIXL will use this to indicate which instrument took the data.)
#NPOINTS     : 4096     Number of data points in the spectrum (This can be zero for configuration only files)
#NCOLUMNS    : 2     Number of data columns in the spectrum (This can be zero for configuration only files)
#XUNITS      : eV
#YUNITS      : COUNTS
#DATATYPE    : YY
#XPERCHAN    : 7.862, 7.881   eV per channel (separate by commas if more than one detector)
#OFFSET      : 18.5, -22.4         eV of first channel  (separate by commas if more than one detector
#SIGNALTYPE  : XRF
#YP_TEMP     : -4.404
#LIVETIME    : 8.84217, 8.82982   seconds (separate by commas if more than one detector)
#REALTIME    : 10, 10.0   seconds (separate by commas if more than one detector)
#SPECTRUM    : start of spectrum data
0, 0
0, 0
0, 0
0, 0
0, 0
0, 0
0, 0
0, 1
3, 3
7, 5
3, 8
5, 13
16, 14
24, 26
45, 38
174, 169
458, 433
108, 84
28, 27
16, 17
90, 86
321, 318
134, 124
103, 93
213, 208
110, 98
68, 67
30, 21
6, 11
10, 9
22, 17
16, 12
40, 46
304, 257
263, 234
50, 32
64, 42
48, 39
11, 12
12, 9
24, 32
66, 62
28, 25
16, 9
19, 12
20, 16
7, 12
16, 13
18, 18
24, 34
20, 10
7, 10
20, 8
39, 43
41, 35
23, 20
84, 93
779, 819
1658, 1678
603, 526
58, 50
16, 23
30, 39
152, 159
267, 227
76, 80
8, 9
11, 12
12, 10
8, 6
4, 11
7, 7
8, 6
11, 7
10, 11
11, 9
7, 6
3, 7
8, 8
10, 7
6, 6
6, 4
6, 5
4, 5
6, 8
4, 2
5, 3
3, 6
1, 4
4, 6
3, 7
6, 9
2, 5
4, 3
1, 1
6, 4
3, 2
2, 2
3, 4
2, 1
4, 3
3, 4
8, 5
1, 5
4, 2
3, 3
5, 3
0, 3
1, 0
1, 3
2, 3
2, 4
3, 1
3, 1
1, 3
3, 3
1, 3
2, 2
0, 1
1, 1
2, 2
1, 0
3, 1
0, 2
1, 0
0, 0
1, 2
1, 0
0, 0
1, 0
2, 2
0, 0
1, 0
0, 0
0, 0
0, 0
0, 1
1, 1
1, 1
0, 1
0, 1
0, 0
0, 1
0, 1
0, 0
1, 0
0, 0
0, 0
0, 1
0, 3
0, 0
0, 0
0, 0
0, 2
0, 1
0, 0
0, 0
0, 0
0, 0
0, 0
1, 0
0, 0
0, 0
0, 0
0, 0
0, 0
0, 0
0, 0
0, 1
2, 2
0, 0
1, 0
0, 1
0, 0
0, 0
0, 0
0, 0
0, 0
0, 0
1, 0
0, 0
0, 0
0, 0
0, 0
0, 0
0, 0
0, 0
0, 0
0, 0
0, 0
0, 0
0, 0
0, 0
1, 0
0, 0
0, 0
0, 0
0, 0
0, 0
0, 0
0, 0
0, 0
0, 0
1, 1
0, 0
0, 0
0, 0
0, 0
0, 0
0, 0
0, 0
0, 0
0, 0
0, 0
0, 0
0, 0
0, 0
0, 0
0, 0
0, 0
0, 0
0, 0
0, 1
0, 0
0, 0
0, 0
0, 0
0, 0
0, 0
0, 0
0, 0
0, 0
0, 0
0, 0
0, 0
0, 0
0, 0
0, 0
0, 0
0, 0
0, 0
0, 0
0, 0
0, 0
0, 0
0, 0
0, 0
0, 0
0, 0
0, 0
0, 0
0, 0
0, 0
0, 0
0, 0
0, 0
0, 0
0, 0
0, 0
0, 0
0, 0
0, 0
0, 0
0, 0
0, 0
0, 0
0, 0
0, 0
0, 0
0, 0
0, 0
0, 0
0, 0
0, 0
0, 0
0, 0
0, 0
0, 0
0, 0
0, 0
0, 0
0, 0
0, 0
0, 0
0, 0
0, 0
0, 0
0, 0
0, 0
0, 0
0, 0
0, 0
0, 0
0, 0
#ENDOFDATA     end of spectrum data