File: host_upload/02-11-2024/rqc/uplink1/ps__0567_0717304816_000rfs_shot_157.msa
#FORMAT      : EMSA/MAS spectral data file
#VERSION     : TC202v2.0 PIXL
#TITLE       : Novarupta (sol567) subset1
#DATE        : 02-11-2024      Date in the format DD-MMM-YYYY, for example 07-JUL-2010
#TIME        :             The time of day at which the spectrum was recorded, in 24-hour format
#OWNER       : PIXL Flight Model       (PIXL will use this to indicate which instrument took the data.)
#NPOINTS     : 4096     Number of data points in the spectrum (This can be zero for configuration only files)
#NCOLUMNS    : 2     Number of data columns in the spectrum (This can be zero for configuration only files)
#XUNITS      : eV
#YUNITS      : COUNTS
#DATATYPE    : YY
#XPERCHAN    : 7.862, 7.881   eV per channel (separate by commas if more than one detector)
#OFFSET      : 18.5, -22.4         eV of first channel  (separate by commas if more than one detector
#SIGNALTYPE  : XRF
#YP_TEMP     : -0.074
#LIVETIME    : 8.82502, 8.81252   seconds (separate by commas if more than one detector)
#REALTIME    : 10, 10.0   seconds (separate by commas if more than one detector)
#SPECTRUM    : start of spectrum data
0, 0
0, 0
0, 0
0, 0
0, 0
0, 0
0, 0
0, 0
5, 5
2, 8
0, 3
10, 11
17, 14
23, 29
48, 44
127, 126
529, 549
115, 117
41, 31
17, 25
61, 66
341, 389
132, 108
57, 91
227, 261
141, 112
70, 66
28, 23
9, 8
6, 12
22, 42
17, 20
19, 26
217, 285
304, 372
62, 53
30, 60
49, 48
15, 15
3, 12
17, 29
52, 79
36, 33
15, 20
27, 17
15, 17
11, 16
8, 15
15, 16
23, 41
26, 20
9, 12
10, 13
36, 43
43, 56
24, 16
36, 35
363, 502
1571, 1925
1054, 1023
113, 99
16, 29
34, 27
106, 100
252, 281
173, 139
23, 13
5, 10
5, 9
5, 12
9, 4
9, 10
5, 11
5, 7
11, 12
7, 7
12, 8
8, 8
15, 19
7, 10
1, 1
10, 8
7, 7
4, 7
5, 8
1, 2
7, 6
4, 8
6, 3
3, 6
4, 7
4, 4
1, 9
2, 6
3, 7
3, 4
4, 5
2, 3
1, 5
8, 7
1, 4
2, 3
5, 3
0, 3
4, 5
1, 0
6, 2
3, 6
7, 2
5, 1
3, 2
0, 3
4, 1
3, 1
0, 3
1, 0
3, 5
2, 6
1, 3
1, 2
0, 3
2, 1
1, 3
2, 2
3, 0
0, 3
4, 2
0, 1
1, 0
0, 0
0, 0
1, 1
0, 0
1, 0
1, 1
1, 0
0, 0
1, 1
0, 0
1, 0
0, 1
0, 0
0, 2
0, 0
0, 1
1, 0
1, 3
0, 1
0, 1
0, 0
0, 0
0, 0
1, 0
1, 1
1, 0
0, 0
0, 0
0, 0
0, 1
1, 0
0, 1
0, 0
0, 0
0, 0
0, 1
1, 0
1, 0
0, 0
0, 1
0, 0
0, 0
0, 0
2, 0
0, 0
0, 0
0, 0
0, 0
0, 0
0, 0
0, 1
0, 0
0, 0
0, 0
0, 1
0, 0
1, 0
0, 0
0, 0
0, 0
0, 0
0, 0
0, 0
0, 0
0, 0
0, 0
0, 0
0, 0
0, 0
0, 0
0, 0
2, 0
0, 0
0, 0
0, 0
0, 0
0, 0
0, 0
0, 0
0, 0
0, 0
0, 0
0, 0
0, 0
0, 0
0, 0
0, 0
0, 0
0, 0
0, 0
0, 0
0, 0
0, 0
0, 0
0, 0
0, 0
0, 0
0, 0
0, 0
0, 0
0, 0
0, 0
0, 0
0, 0
0, 0
0, 0
0, 0
0, 0
0, 0
0, 0
0, 0
0, 0
0, 0
0, 0
0, 0
0, 0
0, 0
0, 0
0, 0
0, 0
0, 0
0, 0
0, 0
0, 0
0, 0
0, 0
0, 0
0, 0
0, 0
0, 0
0, 0
0, 0
0, 0
0, 0
0, 0
0, 0
0, 0
0, 0
0, 0
0, 0
0, 0
0, 0
0, 0
0, 0
0, 0
0, 0
0, 0
0, 0
0, 0
0, 0
0, 0
0, 0
0, 0
0, 0
0, 0
0, 0
0, 0
0, 0
0, 0
0, 0
0, 0
0, 0
0, 0
0, 0
0, 0
#ENDOFDATA     end of spectrum data