File: host_upload/02-11-2024/rqc/uplink1/ps__0567_0717304816_000rfs_shot_417.msa
#FORMAT      : EMSA/MAS spectral data file
#VERSION     : TC202v2.0 PIXL
#TITLE       : Novarupta (sol567) subset1
#DATE        : 02-11-2024      Date in the format DD-MMM-YYYY, for example 07-JUL-2010
#TIME        :             The time of day at which the spectrum was recorded, in 24-hour format
#OWNER       : PIXL Flight Model       (PIXL will use this to indicate which instrument took the data.)
#NPOINTS     : 4096     Number of data points in the spectrum (This can be zero for configuration only files)
#NCOLUMNS    : 2     Number of data columns in the spectrum (This can be zero for configuration only files)
#XUNITS      : eV
#YUNITS      : COUNTS
#DATATYPE    : YY
#XPERCHAN    : 7.862, 7.881   eV per channel (separate by commas if more than one detector)
#OFFSET      : 18.5, -22.4         eV of first channel  (separate by commas if more than one detector
#SIGNALTYPE  : XRF
#YP_TEMP     : 1.851
#LIVETIME    : 8.83464, 8.80862   seconds (separate by commas if more than one detector)
#REALTIME    : 10, 10.0   seconds (separate by commas if more than one detector)
#SPECTRUM    : start of spectrum data
0, 0
0, 0
0, 0
0, 0
0, 0
0, 0
0, 0
1, 1
2, 4
5, 2
5, 3
8, 10
14, 5
21, 28
39, 50
96, 117
441, 613
108, 134
30, 32
22, 23
55, 75
300, 295
126, 115
65, 92
234, 256
122, 115
71, 66
28, 21
10, 11
9, 12
26, 33
20, 15
19, 18
212, 258
313, 366
53, 52
36, 44
47, 52
15, 14
10, 7
16, 23
58, 72
36, 40
11, 14
7, 12
15, 21
7, 15
9, 9
20, 13
36, 51
21, 20
11, 15
10, 9
31, 41
50, 44
17, 16
21, 31
334, 450
1495, 1909
1054, 1047
113, 120
18, 23
19, 26
83, 90
217, 279
127, 144
28, 16
15, 10
15, 12
6, 7
5, 5
9, 5
6, 4
5, 6
9, 11
3, 7
14, 12
10, 8
7, 10
11, 15
11, 8
3, 6
3, 7
8, 5
3, 5
3, 9
4, 3
7, 3
6, 6
5, 4
3, 7
2, 1
1, 7
3, 4
3, 3
5, 2
3, 4
4, 4
3, 6
2, 4
4, 3
1, 2
2, 3
3, 5
3, 3
3, 5
2, 2
1, 3
2, 4
3, 2
1, 2
1, 3
2, 3
1, 2
0, 5
4, 0
3, 6
2, 1
0, 3
4, 1
2, 1
2, 3
1, 1
3, 3
1, 1
0, 2
1, 2
1, 0
1, 0
0, 1
2, 0
1, 1
0, 0
2, 1
0, 3
2, 0
1, 0
0, 1
0, 0
0, 0
0, 0
1, 0
0, 0
0, 2
0, 1
0, 0
1, 0
1, 0
0, 1
1, 0
0, 0
1, 1
1, 1
0, 2
0, 0
0, 0
0, 0
1, 0
0, 0
0, 0
0, 0
0, 0
1, 1
0, 2
0, 1
0, 0
0, 0
0, 0
0, 0
1, 0
1, 0
0, 0
0, 0
0, 0
0, 0
0, 1
0, 0
0, 0
0, 0
1, 0
0, 0
0, 0
0, 0
1, 0
1, 0
0, 0
0, 0
0, 0
0, 0
0, 0
0, 1
0, 0
0, 0
0, 0
0, 0
0, 0
0, 0
0, 0
0, 0
0, 0
0, 0
0, 0
0, 0
0, 0
0, 0
0, 0
1, 0
0, 0
0, 0
0, 0
0, 0
0, 0
0, 0
0, 1
0, 0
0, 0
0, 0
0, 0
0, 0
0, 0
0, 0
0, 0
0, 0
0, 0
0, 0
0, 0
0, 0
0, 0
0, 0
0, 0
0, 0
0, 0
0, 0
0, 0
0, 0
0, 0
0, 0
0, 0
0, 0
0, 0
0, 0
0, 0
0, 0
0, 0
0, 0
0, 0
0, 0
0, 0
0, 0
0, 0
0, 0
0, 0
0, 0
0, 0
0, 0
0, 0
0, 0
0, 0
0, 0
0, 0
0, 0
0, 0
0, 0
0, 0
0, 0
0, 0
0, 0
0, 0
0, 0
0, 0
0, 0
0, 0
0, 0
0, 0
0, 0
0, 0
0, 0
0, 0
0, 0
0, 0
0, 0
0, 0
0, 0
0, 0
0, 0
0, 0
0, 0
0, 0
0, 0
0, 0
0, 0
0, 0
0, 0
0, 0
#ENDOFDATA     end of spectrum data