File: host_upload/02-11-2024/rqc/uplink1/ps__0567_0717304816_000rfs_shot_273.msa
#FORMAT      : EMSA/MAS spectral data file
#VERSION     : TC202v2.0 PIXL
#TITLE       : Novarupta (sol567) subset1
#DATE        : 02-11-2024      Date in the format DD-MMM-YYYY, for example 07-JUL-2010
#TIME        :             The time of day at which the spectrum was recorded, in 24-hour format
#OWNER       : PIXL Flight Model       (PIXL will use this to indicate which instrument took the data.)
#NPOINTS     : 4096     Number of data points in the spectrum (This can be zero for configuration only files)
#NCOLUMNS    : 2     Number of data columns in the spectrum (This can be zero for configuration only files)
#XUNITS      : eV
#YUNITS      : COUNTS
#DATATYPE    : YY
#XPERCHAN    : 7.862, 7.881   eV per channel (separate by commas if more than one detector)
#OFFSET      : 18.5, -22.4         eV of first channel  (separate by commas if more than one detector
#SIGNALTYPE  : XRF
#YP_TEMP     : 1.337
#LIVETIME    : 8.82988, 8.81469   seconds (separate by commas if more than one detector)
#REALTIME    : 10, 10.0   seconds (separate by commas if more than one detector)
#SPECTRUM    : start of spectrum data
0, 0
0, 0
0, 0
0, 0
0, 0
0, 0
0, 0
0, 0
1, 4
3, 4
1, 2
10, 11
18, 14
21, 24
41, 35
97, 103
494, 530
128, 122
21, 40
31, 23
60, 62
294, 350
115, 126
81, 78
252, 224
108, 113
71, 65
26, 31
10, 12
6, 11
42, 42
18, 19
17, 28
198, 254
354, 360
53, 56
44, 48
53, 66
19, 16
12, 9
20, 21
77, 88
42, 29
16, 16
11, 12
14, 24
6, 4
7, 7
15, 21
34, 23
19, 22
8, 11
13, 16
29, 36
55, 42
18, 16
29, 31
413, 488
1575, 1827
1092, 986
126, 122
14, 11
14, 20
73, 111
227, 312
143, 147
18, 21
3, 11
10, 16
12, 13
7, 4
5, 9
10, 4
4, 6
7, 10
5, 14
4, 4
12, 7
5, 12
11, 13
4, 9
4, 7
5, 5
3, 6
10, 9
6, 6
4, 6
4, 6
6, 5
6, 8
11, 5
2, 6
1, 7
7, 3
4, 9
5, 7
5, 8
0, 5
4, 6
4, 2
2, 3
5, 4
2, 1
3, 0
2, 5
5, 1
2, 4
3, 5
2, 3
5, 2
1, 2
1, 6
6, 3
2, 3
0, 3
5, 2
4, 4
5, 2
1, 3
1, 0
1, 1
1, 2
0, 2
1, 1
5, 1
1, 0
2, 2
1, 0
3, 1
2, 0
2, 1
0, 3
0, 1
2, 2
3, 0
1, 0
0, 2
2, 1
1, 1
1, 1
2, 2
1, 1
0, 0
1, 1
1, 0
1, 1
1, 0
1, 0
0, 0
0, 0
0, 0
0, 0
0, 0
1, 2
2, 0
1, 2
0, 0
0, 0
1, 0
1, 0
0, 0
0, 0
0, 0
0, 0
0, 0
1, 0
1, 0
0, 0
0, 0
1, 1
0, 0
0, 0
0, 0
0, 0
0, 0
0, 0
0, 0
1, 0
0, 0
1, 0
0, 0
0, 0
0, 0
0, 0
0, 0
1, 1
0, 0
0, 0
0, 0
0, 0
0, 0
0, 0
0, 0
0, 0
0, 0
0, 0
0, 0
0, 1
0, 0
0, 0
0, 0
1, 0
0, 0
0, 0
0, 0
0, 0
0, 0
0, 0
0, 0
0, 0
0, 0
0, 0
0, 0
0, 0
0, 0
0, 1
0, 0
0, 0
0, 0
0, 0
0, 0
0, 0
0, 0
0, 0
0, 0
0, 0
0, 0
0, 0
0, 0
0, 0
0, 0
0, 0
0, 0
0, 0
0, 0
0, 0
0, 0
0, 0
0, 0
0, 0
0, 0
0, 0
0, 0
0, 0
0, 0
0, 0
0, 0
0, 0
0, 0
0, 0
0, 0
0, 0
0, 0
0, 0
0, 0
0, 0
0, 0
0, 0
0, 0
0, 0
0, 0
0, 0
0, 0
0, 0
0, 0
0, 0
0, 0
0, 0
0, 0
0, 0
0, 0
0, 0
0, 0
0, 0
0, 0
0, 0
0, 0
0, 0
0, 0
0, 0
0, 0
0, 0
0, 0
0, 0
0, 0
0, 0
0, 0
0, 0
0, 0
0, 0
0, 0
0, 0
0, 0
0, 0
#ENDOFDATA     end of spectrum data