File: host_upload/02-11-2024/rqc/uplink1/ps__0567_0717304816_000rfs_shot_87.msa
#FORMAT      : EMSA/MAS spectral data file
#VERSION     : TC202v2.0 PIXL
#TITLE       : Novarupta (sol567) subset1
#DATE        : 02-11-2024      Date in the format DD-MMM-YYYY, for example 07-JUL-2010
#TIME        :             The time of day at which the spectrum was recorded, in 24-hour format
#OWNER       : PIXL Flight Model       (PIXL will use this to indicate which instrument took the data.)
#NPOINTS     : 4096     Number of data points in the spectrum (This can be zero for configuration only files)
#NCOLUMNS    : 2     Number of data columns in the spectrum (This can be zero for configuration only files)
#XUNITS      : eV
#YUNITS      : COUNTS
#DATATYPE    : YY
#XPERCHAN    : 7.862, 7.881   eV per channel (separate by commas if more than one detector)
#OFFSET      : 18.5, -22.4         eV of first channel  (separate by commas if more than one detector
#SIGNALTYPE  : XRF
#YP_TEMP     : -1.293
#LIVETIME    : 8.83608, 8.83435   seconds (separate by commas if more than one detector)
#REALTIME    : 10, 10.0   seconds (separate by commas if more than one detector)
#SPECTRUM    : start of spectrum data
0, 0
0, 0
0, 0
0, 0
0, 0
0, 0
0, 0
2, 0
1, 3
2, 1
1, 4
13, 16
10, 16
30, 26
47, 41
121, 131
472, 456
117, 116
25, 34
22, 25
54, 52
291, 317
114, 105
90, 84
242, 231
126, 118
78, 70
34, 20
8, 9
9, 9
31, 25
19, 8
30, 26
239, 202
296, 312
41, 46
47, 42
51, 47
6, 13
10, 9
19, 21
54, 67
35, 33
14, 15
15, 19
13, 19
13, 11
6, 14
21, 25
24, 43
23, 24
15, 9
14, 16
34, 44
44, 46
18, 23
31, 28
389, 541
1633, 1711
922, 848
100, 80
18, 14
26, 23
112, 107
255, 279
133, 130
20, 18
13, 7
16, 20
9, 6
4, 4
7, 5
7, 4
4, 6
5, 6
4, 5
9, 9
7, 5
13, 11
10, 13
10, 7
6, 4
6, 8
8, 5
2, 3
5, 6
8, 2
3, 4
5, 3
6, 4
2, 7
4, 6
0, 4
1, 5
1, 3
1, 6
3, 4
3, 5
1, 5
5, 2
4, 1
7, 3
4, 5
5, 4
5, 2
3, 1
0, 3
0, 2
3, 4
1, 5
1, 2
0, 1
3, 6
0, 1
3, 1
4, 2
1, 6
4, 3
1, 3
1, 0
2, 1
2, 3
1, 3
1, 1
0, 0
1, 0
0, 3
0, 2
2, 0
0, 2
4, 1
0, 0
1, 1
1, 0
1, 1
1, 2
0, 0
0, 0
1, 1
1, 2
0, 2
0, 0
2, 2
2, 0
2, 2
0, 0
0, 0
1, 0
0, 0
1, 0
1, 0
0, 0
0, 0
0, 0
0, 1
0, 0
0, 0
0, 0
0, 0
1, 0
2, 1
0, 1
0, 0
0, 1
1, 0
0, 0
0, 0
1, 0
0, 1
1, 1
2, 0
0, 2
1, 0
0, 0
0, 0
0, 0
0, 0
0, 1
0, 0
0, 0
0, 0
0, 1
0, 0
0, 1
0, 0
0, 0
0, 0
0, 0
0, 0
0, 0
0, 0
0, 0
0, 0
0, 0
0, 0
0, 0
0, 0
0, 0
0, 0
0, 0
0, 0
0, 0
0, 0
0, 0
0, 0
0, 0
0, 0
0, 0
0, 0
0, 0
0, 0
0, 0
0, 0
0, 0
0, 0
0, 0
0, 0
0, 0
0, 0
0, 0
0, 0
0, 0
0, 0
0, 0
0, 0
0, 0
0, 0
0, 0
0, 0
0, 0
0, 0
0, 0
0, 0
0, 0
0, 0
0, 0
0, 0
0, 0
0, 0
0, 0
0, 0
0, 0
0, 0
0, 0
0, 0
0, 0
0, 0
0, 0
0, 0
0, 0
0, 0
0, 0
0, 0
0, 0
0, 0
0, 0
0, 0
0, 0
0, 0
0, 0
0, 0
0, 0
0, 0
0, 0
0, 0
0, 0
0, 0
0, 0
0, 0
0, 0
0, 0
0, 0
0, 0
0, 0
0, 0
0, 0
0, 0
0, 0
0, 0
0, 0
0, 0
0, 0
0, 0
0, 0
0, 0
0, 0
0, 0
0, 0
0, 0
0, 0
0, 0
0, 0
0, 0
0, 0
#ENDOFDATA     end of spectrum data