File: host_upload/02-11-2024/rqc/uplink1/ps__0567_0717304816_000rfs_shot_128.msa
#FORMAT      : EMSA/MAS spectral data file
#VERSION     : TC202v2.0 PIXL
#TITLE       : Novarupta (sol567) subset1
#DATE        : 02-11-2024      Date in the format DD-MMM-YYYY, for example 07-JUL-2010
#TIME        :             The time of day at which the spectrum was recorded, in 24-hour format
#OWNER       : PIXL Flight Model       (PIXL will use this to indicate which instrument took the data.)
#NPOINTS     : 4096     Number of data points in the spectrum (This can be zero for configuration only files)
#NCOLUMNS    : 2     Number of data columns in the spectrum (This can be zero for configuration only files)
#XUNITS      : eV
#YUNITS      : COUNTS
#DATATYPE    : YY
#XPERCHAN    : 7.862, 7.881   eV per channel (separate by commas if more than one detector)
#OFFSET      : 18.5, -22.4         eV of first channel  (separate by commas if more than one detector
#SIGNALTYPE  : XRF
#YP_TEMP     : -0.459
#LIVETIME    : 8.84066, 8.81151   seconds (separate by commas if more than one detector)
#REALTIME    : 10, 10.0   seconds (separate by commas if more than one detector)
#SPECTRUM    : start of spectrum data
0, 0
0, 0
0, 0
0, 0
0, 0
0, 0
0, 0
0, 0
2, 1
2, 5
2, 6
9, 11
9, 6
23, 22
45, 39
119, 139
485, 555
120, 116
13, 38
20, 24
44, 54
261, 343
107, 107
72, 84
201, 245
105, 102
60, 61
22, 32
10, 8
8, 14
28, 25
18, 17
16, 27
202, 271
300, 355
38, 41
34, 56
40, 41
21, 14
12, 10
23, 41
53, 57
22, 33
13, 20
7, 13
26, 16
13, 18
10, 6
6, 13
23, 33
22, 24
18, 14
14, 12
29, 35
56, 57
14, 23
30, 44
391, 540
1509, 1891
958, 964
123, 87
24, 18
16, 21
93, 110
230, 302
143, 148
20, 22
8, 14
11, 16
10, 6
3, 5
6, 5
6, 3
6, 10
3, 6
9, 8
11, 12
5, 7
8, 15
11, 11
7, 7
4, 7
6, 9
6, 5
4, 8
5, 4
7, 7
4, 7
4, 6
3, 3
8, 5
3, 3
2, 5
2, 5
3, 7
6, 5
1, 2
5, 7
2, 4
2, 3
5, 4
3, 1
1, 6
4, 2
1, 4
3, 2
1, 1
3, 3
4, 3
4, 3
4, 2
3, 2
1, 2
0, 2
5, 2
6, 4
2, 4
3, 6
2, 1
1, 1
0, 3
0, 2
1, 1
1, 1
1, 0
0, 1
0, 3
1, 0
2, 0
2, 2
3, 0
0, 0
2, 2
1, 3
1, 0
0, 0
1, 1
1, 1
2, 0
2, 0
0, 1
1, 1
1, 0
1, 1
2, 0
0, 1
0, 0
0, 0
0, 0
0, 0
0, 0
0, 0
1, 1
1, 0
0, 0
0, 0
0, 0
0, 0
0, 1
1, 1
0, 0
1, 0
1, 0
0, 0
0, 0
0, 0
0, 0
0, 1
0, 0
0, 0
0, 0
0, 0
0, 1
0, 0
0, 0
0, 1
0, 0
0, 0
1, 2
0, 0
1, 0
1, 0
0, 0
0, 0
0, 0
0, 0
0, 0
0, 0
0, 0
0, 0
0, 0
0, 0
0, 0
0, 0
0, 0
0, 0
0, 0
0, 0
1, 0
0, 0
0, 0
0, 0
0, 0
0, 0
0, 0
0, 0
0, 0
0, 0
0, 1
0, 1
0, 0
0, 0
0, 0
0, 0
0, 0
0, 0
0, 0
0, 0
0, 0
0, 0
0, 0
0, 0
0, 0
0, 0
0, 0
0, 0
0, 0
0, 0
0, 0
0, 0
0, 0
0, 0
0, 0
0, 0
0, 0
0, 0
0, 0
0, 0
0, 0
0, 0
0, 0
0, 0
0, 0
0, 0
0, 0
0, 0
0, 0
0, 0
0, 0
0, 0
0, 0
0, 0
0, 0
0, 0
0, 0
0, 0
0, 0
0, 0
0, 0
0, 0
0, 0
0, 0
0, 0
0, 0
0, 0
0, 0
0, 0
0, 0
0, 0
0, 0
0, 0
0, 0
0, 0
0, 0
0, 0
0, 0
0, 0
0, 0
0, 0
0, 0
0, 0
0, 0
0, 0
0, 0
0, 0
0, 0
0, 0
0, 0
0, 0
0, 0
0, 0
0, 0
0, 0
0, 0
#ENDOFDATA     end of spectrum data