File: host_upload/02-11-2024/rqc/uplink1/ps__0567_0717304816_000rfs_shot_107.msa
#FORMAT      : EMSA/MAS spectral data file
#VERSION     : TC202v2.0 PIXL
#TITLE       : Novarupta (sol567) subset1
#DATE        : 02-11-2024      Date in the format DD-MMM-YYYY, for example 07-JUL-2010
#TIME        :             The time of day at which the spectrum was recorded, in 24-hour format
#OWNER       : PIXL Flight Model       (PIXL will use this to indicate which instrument took the data.)
#NPOINTS     : 4096     Number of data points in the spectrum (This can be zero for configuration only files)
#NCOLUMNS    : 2     Number of data columns in the spectrum (This can be zero for configuration only files)
#XUNITS      : eV
#YUNITS      : COUNTS
#DATATYPE    : YY
#XPERCHAN    : 7.862, 7.881   eV per channel (separate by commas if more than one detector)
#OFFSET      : 18.5, -22.4         eV of first channel  (separate by commas if more than one detector
#SIGNALTYPE  : XRF
#YP_TEMP     : -0.683
#LIVETIME    : 8.836, 8.83232   seconds (separate by commas if more than one detector)
#REALTIME    : 10, 10.0   seconds (separate by commas if more than one detector)
#SPECTRUM    : start of spectrum data
0, 0
0, 0
0, 0
0, 0
0, 0
0, 0
0, 0
0, 0
3, 1
2, 2
3, 2
9, 7
11, 12
20, 23
50, 53
110, 150
474, 521
125, 101
34, 37
24, 24
76, 64
290, 351
124, 119
78, 72
230, 230
97, 117
77, 67
38, 23
9, 8
7, 12
22, 36
12, 14
16, 20
173, 213
324, 298
40, 48
30, 43
46, 36
7, 10
5, 7
17, 31
60, 76
37, 35
17, 12
9, 17
20, 23
10, 18
17, 9
20, 15
32, 26
23, 20
10, 7
9, 16
31, 40
36, 41
20, 23
37, 42
439, 509
1634, 1788
963, 911
103, 83
15, 13
22, 25
98, 122
257, 282
133, 119
22, 16
11, 7
18, 14
8, 6
4, 8
4, 9
3, 5
5, 5
10, 9
7, 11
3, 4
7, 8
6, 18
9, 11
5, 7
8, 3
6, 3
6, 7
3, 6
4, 2
5, 4
2, 6
2, 3
4, 2
7, 7
5, 7
3, 4
6, 4
3, 5
2, 3
3, 5
3, 2
3, 6
0, 1
1, 4
2, 1
3, 1
3, 6
3, 1
2, 2
3, 1
4, 5
1, 2
3, 4
1, 3
2, 2
3, 3
3, 2
0, 2
1, 2
4, 3
1, 0
1, 2
0, 1
0, 1
2, 0
2, 1
4, 3
0, 1
2, 0
1, 2
3, 0
1, 0
1, 3
1, 0
0, 0
1, 0
1, 0
0, 2
1, 0
2, 2
0, 1
1, 0
1, 0
0, 1
0, 1
0, 1
1, 1
2, 0
1, 1
0, 0
1, 1
1, 1
0, 0
1, 0
0, 1
0, 0
0, 1
1, 0
0, 2
0, 1
0, 0
0, 0
1, 0
0, 1
0, 0
0, 0
0, 0
0, 0
2, 1
0, 0
0, 0
1, 0
0, 0
0, 1
0, 0
0, 0
1, 1
0, 0
0, 1
0, 0
0, 0
0, 1
0, 0
0, 0
0, 0
1, 1
0, 0
0, 1
0, 0
0, 0
0, 0
0, 0
0, 1
0, 0
0, 0
0, 0
0, 0
0, 0
0, 0
0, 0
0, 0
0, 1
0, 0
1, 0
0, 0
0, 0
0, 0
0, 0
0, 0
0, 0
0, 0
0, 0
0, 0
0, 0
0, 0
0, 0
0, 0
0, 0
0, 0
0, 0
0, 0
0, 0
0, 0
0, 0
0, 0
0, 0
0, 0
0, 0
0, 0
0, 0
0, 0
0, 0
0, 0
0, 0
0, 0
0, 0
0, 0
0, 0
0, 0
0, 0
0, 0
0, 0
0, 0
0, 0
0, 0
0, 0
0, 0
0, 0
0, 0
0, 0
0, 0
0, 0
0, 0
0, 0
0, 0
0, 0
0, 0
0, 0
0, 0
0, 0
0, 0
0, 0
0, 0
0, 0
0, 0
0, 0
0, 0
0, 0
0, 0
0, 0
0, 0
0, 0
0, 0
0, 0
0, 0
0, 0
0, 0
0, 0
0, 0
0, 0
0, 0
0, 0
0, 0
0, 0
0, 0
0, 0
0, 0
0, 0
0, 0
0, 0
0, 0
0, 0
0, 0
0, 0
0, 0
0, 0
0, 0
#ENDOFDATA     end of spectrum data