File: host_upload/02-11-2024/rqc/uplink1/ps__0567_0717304816_000rfs_shot_344.msa
#FORMAT      : EMSA/MAS spectral data file
#VERSION     : TC202v2.0 PIXL
#TITLE       : Novarupta (sol567) subset1
#DATE        : 02-11-2024      Date in the format DD-MMM-YYYY, for example 07-JUL-2010
#TIME        :             The time of day at which the spectrum was recorded, in 24-hour format
#OWNER       : PIXL Flight Model       (PIXL will use this to indicate which instrument took the data.)
#NPOINTS     : 4096     Number of data points in the spectrum (This can be zero for configuration only files)
#NCOLUMNS    : 2     Number of data columns in the spectrum (This can be zero for configuration only files)
#XUNITS      : eV
#YUNITS      : COUNTS
#DATATYPE    : YY
#XPERCHAN    : 7.862, 7.881   eV per channel (separate by commas if more than one detector)
#OFFSET      : 18.5, -22.4         eV of first channel  (separate by commas if more than one detector
#SIGNALTYPE  : XRF
#YP_TEMP     : 1.273
#LIVETIME    : 8.83782, 8.82105   seconds (separate by commas if more than one detector)
#REALTIME    : 10, 10.0   seconds (separate by commas if more than one detector)
#SPECTRUM    : start of spectrum data
0, 0
0, 0
0, 0
0, 0
0, 0
0, 0
0, 0
1, 1
2, 4
1, 3
3, 4
10, 10
10, 17
26, 24
44, 45
111, 105
508, 494
122, 113
35, 26
18, 25
56, 71
345, 386
150, 150
52, 77
197, 248
109, 119
51, 62
30, 37
8, 5
6, 6
28, 34
16, 22
22, 24
196, 217
323, 310
51, 57
36, 30
50, 53
11, 12
7, 10
28, 24
63, 71
40, 52
18, 14
7, 15
17, 25
15, 13
9, 12
13, 11
21, 42
19, 17
11, 14
7, 15
27, 52
51, 58
30, 22
33, 44
359, 444
1581, 1690
1069, 1094
105, 121
19, 27
19, 30
104, 97
263, 264
179, 162
29, 16
5, 14
17, 16
8, 7
3, 6
5, 5
4, 5
3, 6
8, 6
7, 11
6, 9
11, 11
9, 13
9, 22
11, 6
10, 5
6, 8
5, 6
6, 5
6, 5
5, 7
5, 8
9, 5
6, 5
5, 3
7, 7
4, 3
3, 4
5, 4
1, 3
2, 4
2, 3
3, 6
4, 1
3, 7
2, 1
2, 2
2, 3
0, 2
1, 2
4, 1
0, 1
3, 2
2, 2
3, 1
2, 2
1, 5
0, 0
0, 1
2, 0
4, 4
3, 4
1, 1
3, 5
2, 3
1, 2
1, 2
1, 1
1, 2
1, 1
2, 2
0, 1
2, 3
1, 1
1, 1
1, 2
2, 0
1, 0
0, 0
0, 0
0, 1
0, 1
0, 0
3, 0
0, 2
3, 0
1, 0
0, 0
2, 2
0, 0
0, 0
0, 0
0, 0
0, 2
0, 0
3, 0
0, 0
0, 0
0, 0
0, 1
0, 1
0, 0
0, 0
0, 2
0, 0
0, 0
0, 0
0, 0
1, 0
0, 2
0, 0
0, 0
0, 0
0, 0
1, 0
0, 0
2, 1
0, 0
0, 0
2, 0
0, 0
0, 0
0, 1
0, 0
0, 0
0, 0
0, 0
0, 1
0, 0
0, 0
0, 0
0, 0
0, 0
0, 0
0, 0
0, 0
0, 0
0, 0
0, 0
0, 0
0, 0
0, 0
0, 0
0, 0
0, 0
1, 0
0, 0
0, 0
0, 0
0, 0
0, 0
0, 0
0, 0
0, 0
0, 0
0, 0
0, 0
0, 0
0, 0
0, 0
0, 0
0, 0
0, 0
0, 0
0, 0
0, 0
0, 0
0, 0
0, 0
0, 0
0, 0
0, 0
0, 0
0, 0
0, 0
0, 0
0, 0
0, 0
0, 0
0, 0
0, 0
0, 0
0, 0
0, 0
0, 0
0, 0
0, 0
0, 0
0, 0
0, 0
0, 0
0, 0
0, 0
0, 0
0, 0
0, 0
0, 0
0, 0
0, 0
0, 0
0, 0
0, 0
0, 0
0, 0
0, 0
0, 0
0, 0
0, 0
0, 0
0, 0
0, 0
0, 0
0, 0
0, 0
0, 0
0, 0
0, 0
0, 0
0, 0
0, 0
0, 0
0, 0
0, 0
0, 0
0, 0
0, 0
0, 0
0, 0
0, 0
0, 0
0, 0
0, 0
0, 0
0, 0
0, 0
0, 0
0, 0
0, 0
#ENDOFDATA     end of spectrum data