File: host_upload/02-11-2024/rqc/uplink1/ps__0567_0717304816_000rfs_shot_144.msa
#FORMAT      : EMSA/MAS spectral data file
#VERSION     : TC202v2.0 PIXL
#TITLE       : Novarupta (sol567) subset1
#DATE        : 02-11-2024      Date in the format DD-MMM-YYYY, for example 07-JUL-2010
#TIME        :             The time of day at which the spectrum was recorded, in 24-hour format
#OWNER       : PIXL Flight Model       (PIXL will use this to indicate which instrument took the data.)
#NPOINTS     : 4096     Number of data points in the spectrum (This can be zero for configuration only files)
#NCOLUMNS    : 2     Number of data columns in the spectrum (This can be zero for configuration only files)
#XUNITS      : eV
#YUNITS      : COUNTS
#DATATYPE    : YY
#XPERCHAN    : 7.862, 7.881   eV per channel (separate by commas if more than one detector)
#OFFSET      : 18.5, -22.4         eV of first channel  (separate by commas if more than one detector
#SIGNALTYPE  : XRF
#YP_TEMP     : 0.022
#LIVETIME    : 8.82856, 8.82613   seconds (separate by commas if more than one detector)
#REALTIME    : 10, 10.0   seconds (separate by commas if more than one detector)
#SPECTRUM    : start of spectrum data
0, 0
0, 0
0, 0
0, 0
0, 0
0, 0
0, 0
0, 0
3, 4
5, 3
3, 6
12, 8
12, 17
16, 29
44, 36
93, 125
470, 537
129, 130
41, 28
29, 25
54, 67
295, 324
111, 138
58, 82
244, 270
104, 116
65, 71
38, 23
11, 5
13, 10
29, 31
17, 20
12, 25
217, 279
297, 320
62, 54
43, 46
52, 58
12, 13
13, 12
16, 22
60, 66
33, 20
10, 13
8, 9
18, 19
11, 16
4, 8
12, 21
38, 31
26, 28
11, 13
6, 12
27, 38
44, 50
23, 19
36, 34
388, 471
1563, 1810
1006, 1042
95, 83
16, 21
30, 22
86, 120
240, 291
156, 138
21, 21
7, 2
10, 14
7, 8
4, 5
8, 4
4, 6
8, 5
5, 7
7, 12
5, 4
3, 7
12, 14
6, 13
7, 6
5, 7
4, 4
5, 10
5, 3
2, 6
10, 5
4, 4
8, 4
2, 3
6, 6
3, 5
1, 5
7, 9
3, 3
5, 4
4, 0
1, 1
3, 4
3, 6
8, 3
5, 1
2, 4
5, 4
1, 1
0, 1
2, 2
3, 2
1, 4
3, 5
2, 1
6, 1
1, 3
2, 3
1, 1
2, 2
4, 4
5, 0
2, 1
1, 1
0, 1
0, 1
2, 2
2, 1
1, 1
0, 2
2, 0
1, 2
2, 1
1, 0
2, 0
0, 1
2, 1
0, 1
0, 0
0, 0
0, 1
1, 2
1, 0
2, 1
1, 0
2, 1
1, 1
0, 1
1, 0
0, 1
0, 0
0, 1
0, 0
1, 0
1, 0
1, 0
1, 0
1, 0
0, 0
0, 1
0, 0
0, 0
0, 0
1, 0
0, 2
0, 1
0, 0
0, 0
1, 0
0, 1
0, 0
0, 0
0, 0
1, 0
0, 0
0, 0
0, 1
0, 0
0, 0
0, 0
0, 0
1, 0
0, 0
0, 0
0, 0
2, 0
0, 0
0, 0
0, 1
1, 0
0, 0
0, 0
0, 0
0, 0
0, 0
0, 0
0, 0
0, 0
0, 0
0, 0
0, 0
0, 0
0, 0
0, 0
0, 0
0, 0
0, 0
0, 0
0, 0
0, 0
0, 0
0, 0
0, 0
0, 0
0, 0
0, 0
0, 0
0, 0
0, 0
0, 0
0, 0
0, 0
0, 0
1, 0
0, 0
0, 0
0, 0
0, 0
0, 0
0, 0
0, 0
0, 0
0, 0
0, 0
0, 0
0, 0
0, 0
0, 0
0, 0
0, 0
0, 0
0, 0
0, 0
0, 0
0, 0
0, 0
0, 0
0, 0
0, 0
0, 0
0, 0
0, 0
0, 0
0, 0
0, 0
0, 0
0, 0
0, 0
0, 0
0, 0
0, 0
0, 0
0, 0
0, 0
0, 0
0, 0
0, 0
0, 0
0, 0
0, 0
0, 0
0, 0
0, 0
0, 0
0, 0
0, 0
0, 0
0, 0
0, 0
0, 0
0, 0
0, 0
0, 0
0, 0
0, 0
0, 0
0, 0
0, 0
0, 0
0, 0
0, 0
0, 0
0, 0
0, 0
0, 0
0, 0
0, 0
0, 0
#ENDOFDATA     end of spectrum data