File: host_upload/02-11-2024/rqc/uplink1/ps__0567_0717304816_000rfs_shot_13.msa
#FORMAT      : EMSA/MAS spectral data file
#VERSION     : TC202v2.0 PIXL
#TITLE       : Novarupta (sol567) subset1
#DATE        : 02-11-2024      Date in the format DD-MMM-YYYY, for example 07-JUL-2010
#TIME        :             The time of day at which the spectrum was recorded, in 24-hour format
#OWNER       : PIXL Flight Model       (PIXL will use this to indicate which instrument took the data.)
#NPOINTS     : 4096     Number of data points in the spectrum (This can be zero for configuration only files)
#NCOLUMNS    : 2     Number of data columns in the spectrum (This can be zero for configuration only files)
#XUNITS      : eV
#YUNITS      : COUNTS
#DATATYPE    : YY
#XPERCHAN    : 7.862, 7.881   eV per channel (separate by commas if more than one detector)
#OFFSET      : 18.5, -22.4         eV of first channel  (separate by commas if more than one detector
#SIGNALTYPE  : XRF
#YP_TEMP     : -4.404
#LIVETIME    : 8.84251, 8.83392   seconds (separate by commas if more than one detector)
#REALTIME    : 10, 10.0   seconds (separate by commas if more than one detector)
#SPECTRUM    : start of spectrum data
0, 0
0, 0
0, 0
0, 0
0, 0
0, 0
0, 0
0, 0
1, 4
3, 4
2, 3
11, 17
13, 12
22, 31
42, 41
134, 153
439, 446
108, 111
27, 35
18, 19
67, 79
285, 286
105, 99
87, 97
181, 203
118, 83
68, 66
27, 23
13, 7
5, 15
37, 37
13, 21
42, 44
245, 275
248, 275
37, 44
39, 53
44, 41
14, 17
8, 8
31, 27
50, 74
32, 21
12, 20
20, 9
17, 22
11, 26
7, 16
13, 24
18, 25
19, 14
14, 11
14, 17
36, 52
36, 52
21, 23
63, 75
649, 799
1705, 1815
652, 658
57, 66
17, 19
17, 27
138, 147
265, 274
93, 96
17, 16
7, 14
11, 8
11, 8
3, 6
8, 7
10, 2
7, 6
5, 6
2, 6
6, 5
8, 12
18, 13
12, 8
7, 5
4, 3
6, 5
3, 4
2, 7
1, 7
3, 2
6, 3
2, 2
7, 7
5, 6
4, 5
3, 2
4, 3
6, 3
5, 7
4, 7
2, 0
3, 5
0, 3
2, 3
1, 3
2, 3
3, 3
2, 2
3, 0
2, 2
1, 1
4, 0
0, 2
0, 7
4, 4
2, 1
1, 0
0, 3
5, 1
1, 3
0, 2
2, 1
3, 5
3, 1
2, 3
3, 3
1, 1
1, 5
2, 1
1, 1
0, 3
1, 0
1, 3
0, 1
1, 0
0, 2
0, 1
0, 0
0, 0
0, 0
1, 0
0, 0
2, 0
1, 0
1, 1
1, 1
1, 1
0, 0
0, 0
0, 1
0, 0
0, 0
0, 3
0, 0
0, 0
1, 0
0, 0
0, 0
0, 0
2, 1
1, 0
1, 0
0, 0
0, 0
0, 0
0, 1
0, 1
0, 0
0, 0
0, 0
1, 0
1, 0
0, 2
0, 2
0, 0
0, 0
0, 0
0, 0
0, 0
0, 0
0, 0
0, 0
0, 0
0, 0
0, 1
0, 1
0, 0
0, 0
0, 0
0, 0
0, 1
0, 0
0, 0
0, 0
0, 0
0, 0
0, 0
0, 0
0, 0
0, 0
0, 0
0, 0
0, 0
0, 0
0, 0
0, 0
0, 1
0, 0
0, 0
0, 0
0, 0
0, 0
0, 0
0, 0
0, 0
0, 0
0, 0
1, 0
0, 0
0, 0
0, 0
0, 0
0, 0
0, 0
0, 0
0, 0
0, 0
0, 0
0, 0
0, 0
0, 0
0, 0
0, 0
0, 0
0, 0
0, 0
0, 0
0, 0
0, 0
0, 0
0, 0
0, 0
0, 0
0, 0
0, 0
0, 0
0, 0
0, 0
0, 0
0, 0
0, 0
0, 0
0, 0
0, 0
0, 0
0, 0
0, 0
0, 0
0, 0
0, 0
0, 0
0, 0
0, 0
0, 0
0, 0
0, 0
0, 0
0, 0
0, 0
0, 0
0, 0
0, 0
0, 0
0, 0
0, 0
0, 0
0, 0
0, 0
0, 0
0, 0
0, 0
0, 0
0, 0
0, 0
0, 0
0, 0
0, 0
0, 0
0, 0
0, 0
0, 0
0, 0
0, 0
0, 0
0, 0
0, 0
0, 0
#ENDOFDATA     end of spectrum data