File: host_upload/02-11-2024/rqc/uplink1/ps__0567_0717304816_000rfs_shot_213.msa
#FORMAT      : EMSA/MAS spectral data file
#VERSION     : TC202v2.0 PIXL
#TITLE       : Novarupta (sol567) subset1
#DATE        : 02-11-2024      Date in the format DD-MMM-YYYY, for example 07-JUL-2010
#TIME        :             The time of day at which the spectrum was recorded, in 24-hour format
#OWNER       : PIXL Flight Model       (PIXL will use this to indicate which instrument took the data.)
#NPOINTS     : 4096     Number of data points in the spectrum (This can be zero for configuration only files)
#NCOLUMNS    : 2     Number of data columns in the spectrum (This can be zero for configuration only files)
#XUNITS      : eV
#YUNITS      : COUNTS
#DATATYPE    : YY
#XPERCHAN    : 7.862, 7.881   eV per channel (separate by commas if more than one detector)
#OFFSET      : 18.5, -22.4         eV of first channel  (separate by commas if more than one detector
#SIGNALTYPE  : XRF
#YP_TEMP     : 0.728
#LIVETIME    : 8.84833, 8.81997   seconds (separate by commas if more than one detector)
#REALTIME    : 10, 10.0   seconds (separate by commas if more than one detector)
#SPECTRUM    : start of spectrum data
0, 0
0, 0
0, 0
0, 0
0, 0
0, 0
0, 0
1, 0
4, 2
2, 6
1, 4
7, 11
16, 21
18, 32
37, 40
95, 126
475, 529
115, 127
29, 32
23, 27
51, 63
293, 357
124, 121
59, 64
194, 230
90, 117
75, 60
38, 41
3, 7
11, 11
29, 31
15, 28
18, 29
189, 268
317, 353
45, 54
37, 46
47, 54
13, 10
5, 5
16, 14
50, 64
25, 43
13, 20
13, 13
19, 20
13, 20
4, 13
12, 25
23, 24
14, 20
13, 11
15, 13
28, 45
44, 47
27, 19
25, 22
341, 464
1483, 1818
1011, 1009
110, 93
12, 12
23, 26
77, 87
222, 308
140, 139
24, 17
7, 10
9, 15
6, 14
3, 6
8, 6
4, 5
6, 10
9, 5
5, 10
3, 8
4, 6
3, 11
10, 8
8, 6
4, 4
3, 9
10, 4
2, 9
7, 5
4, 7
11, 5
2, 4
1, 4
2, 4
3, 7
2, 2
3, 3
2, 6
10, 4
3, 4
1, 3
6, 3
2, 2
3, 5
1, 4
2, 4
1, 2
2, 2
5, 1
5, 3
3, 2
4, 3
4, 3
3, 4
2, 2
0, 4
2, 3
1, 2
1, 3
3, 3
1, 2
1, 4
0, 3
1, 1
0, 3
2, 1
2, 4
1, 2
3, 1
0, 3
2, 1
0, 2
0, 0
2, 0
1, 3
0, 0
0, 1
1, 0
2, 0
2, 0
0, 0
0, 0
0, 1
0, 3
0, 1
0, 0
1, 1
1, 1
0, 0
1, 0
0, 0
0, 0
2, 0
1, 0
1, 1
1, 0
1, 0
1, 1
0, 0
0, 0
0, 0
0, 0
0, 0
0, 1
1, 0
0, 0
0, 1
0, 0
1, 0
0, 0
0, 0
0, 0
1, 1
0, 0
0, 0
0, 0
0, 0
0, 1
0, 0
0, 0
1, 0
0, 1
0, 0
1, 0
1, 0
0, 0
0, 0
0, 1
0, 0
0, 0
0, 0
0, 0
0, 0
0, 0
0, 0
0, 0
0, 1
0, 0
0, 0
0, 0
0, 0
0, 0
0, 0
0, 0
0, 0
0, 0
0, 1
0, 0
0, 0
0, 0
0, 0
0, 0
0, 0
0, 0
0, 0
0, 0
0, 0
0, 0
0, 0
0, 0
0, 0
0, 0
0, 0
0, 0
0, 0
0, 0
0, 0
0, 0
0, 0
0, 0
0, 0
0, 0
0, 0
0, 0
0, 0
0, 0
0, 0
0, 0
0, 0
0, 0
0, 0
0, 0
0, 0
0, 0
0, 0
0, 0
0, 0
0, 0
0, 0
0, 0
0, 0
0, 0
0, 0
0, 0
0, 0
0, 0
0, 0
0, 0
0, 0
0, 0
0, 0
0, 0
0, 0
0, 0
0, 0
0, 0
0, 0
0, 0
0, 0
0, 0
0, 0
0, 0
0, 0
0, 0
0, 0
0, 0
0, 0
0, 0
0, 0
0, 0
0, 0
0, 0
0, 0
0, 0
0, 0
0, 0
0, 0
0, 0
0, 0
0, 0
0, 0
0, 0
0, 0
0, 0
0, 0
0, 0
0, 0
#ENDOFDATA     end of spectrum data