File: host_upload/02-11-2024/rqc/uplink1/ps__0567_0717304816_000rfs_shot_84.msa
#FORMAT      : EMSA/MAS spectral data file
#VERSION     : TC202v2.0 PIXL
#TITLE       : Novarupta (sol567) subset1
#DATE        : 02-11-2024      Date in the format DD-MMM-YYYY, for example 07-JUL-2010
#TIME        :             The time of day at which the spectrum was recorded, in 24-hour format
#OWNER       : PIXL Flight Model       (PIXL will use this to indicate which instrument took the data.)
#NPOINTS     : 4096     Number of data points in the spectrum (This can be zero for configuration only files)
#NCOLUMNS    : 2     Number of data columns in the spectrum (This can be zero for configuration only files)
#XUNITS      : eV
#YUNITS      : COUNTS
#DATATYPE    : YY
#XPERCHAN    : 7.862, 7.881   eV per channel (separate by commas if more than one detector)
#OFFSET      : 18.5, -22.4         eV of first channel  (separate by commas if more than one detector
#SIGNALTYPE  : XRF
#YP_TEMP     : -1.26
#LIVETIME    : 8.84717, 8.82361   seconds (separate by commas if more than one detector)
#REALTIME    : 10, 10.0   seconds (separate by commas if more than one detector)
#SPECTRUM    : start of spectrum data
0, 0
0, 0
0, 0
0, 0
0, 0
0, 0
0, 0
0, 0
3, 2
2, 6
5, 3
12, 8
13, 16
21, 17
44, 47
109, 140
410, 480
118, 121
27, 26
24, 25
62, 50
273, 299
115, 123
76, 97
243, 227
109, 103
71, 58
26, 18
8, 8
7, 8
21, 30
19, 17
24, 21
205, 237
273, 310
37, 41
43, 43
40, 61
12, 12
12, 13
11, 24
66, 66
38, 26
13, 20
13, 14
16, 11
20, 12
9, 6
21, 14
22, 32
23, 26
9, 9
15, 14
35, 44
61, 49
19, 23
37, 44
446, 550
1591, 1710
935, 868
109, 83
14, 15
20, 27
102, 129
260, 279
141, 117
33, 10
2, 14
12, 11
6, 8
10, 12
2, 8
4, 4
10, 7
7, 7
7, 6
5, 4
7, 8
8, 15
11, 12
5, 4
8, 8
8, 8
5, 5
3, 3
5, 9
5, 1
6, 3
6, 4
3, 2
4, 3
4, 5
3, 5
5, 4
8, 3
1, 3
5, 4
3, 2
4, 4
4, 5
3, 7
3, 1
3, 0
2, 3
2, 0
5, 3
2, 2
4, 1
2, 2
2, 1
2, 3
0, 0
4, 0
0, 3
1, 2
2, 2
5, 2
2, 4
2, 3
1, 2
0, 0
1, 6
0, 0
3, 2
0, 0
0, 1
2, 0
1, 1
1, 3
1, 1
2, 0
2, 3
1, 1
1, 0
0, 1
0, 0
1, 1
0, 0
0, 2
0, 0
1, 0
0, 0
0, 0
0, 0
0, 0
1, 1
1, 0
3, 0
0, 0
0, 0
0, 0
0, 0
1, 0
0, 0
0, 0
1, 1
0, 0
1, 0
0, 0
1, 1
1, 0
0, 0
0, 0
0, 0
0, 0
0, 0
0, 0
0, 0
0, 0
0, 0
0, 1
0, 1
1, 0
0, 0
0, 0
0, 0
0, 1
0, 0
0, 0
0, 1
0, 0
0, 0
0, 1
0, 1
0, 0
0, 0
0, 0
0, 0
0, 1
1, 0
0, 0
0, 0
0, 0
0, 0
0, 0
0, 0
0, 0
0, 0
0, 0
1, 0
0, 0
0, 0
0, 0
0, 0
0, 0
0, 0
0, 0
0, 0
0, 0
0, 0
0, 0
0, 0
0, 0
0, 0
0, 0
0, 0
0, 0
0, 0
0, 0
0, 0
0, 0
0, 0
0, 0
0, 0
0, 0
0, 0
0, 0
0, 0
0, 0
0, 0
0, 0
0, 0
0, 0
0, 0
0, 0
0, 0
0, 0
0, 0
0, 0
0, 0
0, 0
0, 0
0, 0
0, 0
0, 0
0, 0
0, 0
0, 0
0, 0
0, 0
0, 0
0, 0
0, 0
0, 0
0, 0
0, 0
0, 0
0, 0
0, 0
0, 0
0, 0
0, 0
0, 0
0, 0
0, 0
0, 0
0, 0
0, 0
0, 0
0, 0
0, 0
0, 0
0, 0
0, 0
0, 0
0, 0
0, 0
0, 0
0, 0
0, 0
0, 0
0, 0
0, 0
0, 0
0, 0
0, 0
0, 0
0, 0
0, 0
0, 0
0, 0
0, 0
0, 0
0, 0
#ENDOFDATA     end of spectrum data