File: host_upload/02-11-2024/rqc/uplink1/ps__0567_0717304816_000rfs_shot_8.msa
#FORMAT      : EMSA/MAS spectral data file
#VERSION     : TC202v2.0 PIXL
#TITLE       : Novarupta (sol567) subset1
#DATE        : 02-11-2024      Date in the format DD-MMM-YYYY, for example 07-JUL-2010
#TIME        :             The time of day at which the spectrum was recorded, in 24-hour format
#OWNER       : PIXL Flight Model       (PIXL will use this to indicate which instrument took the data.)
#NPOINTS     : 4096     Number of data points in the spectrum (This can be zero for configuration only files)
#NCOLUMNS    : 2     Number of data columns in the spectrum (This can be zero for configuration only files)
#XUNITS      : eV
#YUNITS      : COUNTS
#DATATYPE    : YY
#XPERCHAN    : 7.862, 7.881   eV per channel (separate by commas if more than one detector)
#OFFSET      : 18.5, -22.4         eV of first channel  (separate by commas if more than one detector
#SIGNALTYPE  : XRF
#YP_TEMP     : -4.339
#LIVETIME    : 8.83459, 8.82571   seconds (separate by commas if more than one detector)
#REALTIME    : 10, 10.0   seconds (separate by commas if more than one detector)
#SPECTRUM    : start of spectrum data
0, 0
0, 0
0, 0
0, 0
0, 0
0, 0
0, 0
1, 0
2, 2
4, 2
2, 9
7, 13
8, 16
35, 25
30, 32
150, 172
439, 442
128, 105
27, 29
14, 15
83, 86
282, 304
106, 84
74, 80
215, 224
97, 105
49, 54
18, 24
9, 5
11, 15
22, 25
17, 17
27, 39
264, 300
236, 265
37, 54
43, 38
38, 42
13, 17
11, 6
30, 30
57, 73
27, 27
16, 7
12, 12
11, 17
10, 19
9, 11
20, 21
16, 32
16, 21
10, 12
22, 13
37, 48
49, 36
19, 20
75, 79
712, 814
1745, 1708
656, 650
60, 53
17, 18
29, 27
133, 165
260, 263
95, 85
10, 10
9, 13
12, 10
13, 7
5, 5
7, 6
7, 3
6, 7
3, 5
6, 11
9, 4
7, 9
19, 9
7, 6
8, 7
7, 3
7, 5
2, 6
6, 5
6, 9
4, 5
3, 10
5, 6
4, 4
8, 5
5, 3
2, 3
3, 6
3, 8
6, 4
4, 4
3, 3
2, 2
2, 1
4, 0
1, 1
3, 4
2, 3
5, 2
2, 1
0, 4
1, 3
6, 5
4, 3
1, 3
4, 1
2, 5
2, 5
1, 5
1, 0
4, 4
1, 2
1, 3
1, 3
2, 1
1, 3
1, 1
1, 1
2, 2
1, 0
0, 1
1, 0
2, 0
0, 0
3, 2
2, 1
0, 1
0, 0
1, 1
0, 1
2, 2
1, 1
1, 0
1, 0
1, 1
0, 0
0, 0
0, 2
0, 0
0, 1
1, 3
0, 0
0, 0
1, 0
0, 0
2, 0
1, 0
0, 0
0, 0
1, 0
0, 0
1, 0
1, 0
0, 1
0, 0
0, 0
0, 1
0, 0
0, 0
0, 0
0, 0
2, 0
0, 0
0, 0
2, 0
1, 1
0, 0
1, 0
0, 0
0, 0
0, 0
0, 0
0, 0
0, 0
0, 1
0, 1
1, 0
1, 0
0, 0
0, 0
0, 0
0, 0
0, 0
0, 0
0, 0
0, 0
0, 0
0, 0
0, 1
0, 0
0, 0
0, 0
0, 0
0, 0
0, 0
0, 0
0, 0
0, 0
0, 0
0, 0
0, 0
0, 0
0, 0
0, 0
0, 0
0, 0
0, 0
0, 0
0, 1
0, 0
0, 0
0, 0
0, 0
0, 0
0, 0
0, 0
0, 0
0, 0
0, 0
0, 0
0, 0
0, 0
0, 0
0, 0
0, 0
0, 0
0, 0
0, 0
0, 0
0, 0
0, 0
0, 0
0, 0
0, 0
0, 0
0, 0
0, 0
0, 0
0, 0
0, 0
0, 0
0, 0
0, 0
0, 0
0, 0
0, 0
0, 0
0, 0
0, 0
0, 0
0, 0
0, 0
0, 0
0, 0
0, 0
0, 0
0, 0
0, 0
0, 0
0, 0
0, 0
0, 0
0, 0
0, 0
0, 0
0, 0
0, 0
0, 0
0, 0
0, 0
0, 0
0, 0
0, 0
0, 0
0, 0
0, 0
0, 0
0, 0
0, 0
0, 0
0, 0
0, 0
0, 0
0, 0
0, 0
0, 0
0, 0
0, 0
#ENDOFDATA     end of spectrum data