File: host_upload/02-11-2024/rqc/uplink1/ps__0567_0717304816_000rfs_shot_308.msa
#FORMAT      : EMSA/MAS spectral data file
#VERSION     : TC202v2.0 PIXL
#TITLE       : Novarupta (sol567) subset1
#DATE        : 02-11-2024      Date in the format DD-MMM-YYYY, for example 07-JUL-2010
#TIME        :             The time of day at which the spectrum was recorded, in 24-hour format
#OWNER       : PIXL Flight Model       (PIXL will use this to indicate which instrument took the data.)
#NPOINTS     : 4096     Number of data points in the spectrum (This can be zero for configuration only files)
#NCOLUMNS    : 2     Number of data columns in the spectrum (This can be zero for configuration only files)
#XUNITS      : eV
#YUNITS      : COUNTS
#DATATYPE    : YY
#XPERCHAN    : 7.862, 7.881   eV per channel (separate by commas if more than one detector)
#OFFSET      : 18.5, -22.4         eV of first channel  (separate by commas if more than one detector
#SIGNALTYPE  : XRF
#YP_TEMP     : 1.402
#LIVETIME    : 8.8474, 8.81348   seconds (separate by commas if more than one detector)
#REALTIME    : 10, 10.0   seconds (separate by commas if more than one detector)
#SPECTRUM    : start of spectrum data
0, 0
0, 0
0, 0
0, 0
0, 0
0, 0
0, 0
0, 1
2, 7
1, 3
2, 3
9, 15
13, 16
21, 23
42, 47
80, 128
486, 539
107, 122
29, 34
17, 21
52, 58
272, 311
126, 129
73, 90
232, 259
111, 104
99, 98
32, 40
9, 10
11, 14
27, 24
12, 23
18, 23
186, 230
293, 337
44, 46
45, 43
54, 54
8, 16
14, 13
26, 21
72, 60
30, 37
15, 15
13, 20
22, 24
16, 12
17, 13
14, 14
24, 31
28, 34
12, 13
12, 13
39, 40
42, 50
19, 30
35, 38
340, 476
1527, 1775
1019, 1023
123, 105
20, 9
24, 26
79, 108
230, 286
151, 149
26, 22
2, 10
18, 12
10, 12
6, 7
9, 4
7, 7
5, 7
5, 9
9, 11
8, 9
3, 7
11, 6
3, 13
5, 3
8, 9
5, 3
3, 4
7, 5
1, 1
1, 3
4, 5
5, 8
3, 7
8, 5
7, 3
3, 5
6, 7
2, 4
5, 5
1, 5
1, 1
4, 1
3, 2
4, 4
3, 3
2, 9
4, 3
4, 5
3, 3
2, 2
3, 4
3, 2
1, 5
1, 1
0, 1
3, 1
2, 1
2, 0
4, 2
2, 5
1, 2
2, 0
1, 2
0, 2
1, 2
1, 3
0, 1
1, 1
3, 2
2, 0
1, 1
2, 1
2, 0
2, 0
0, 1
0, 1
2, 0
2, 0
0, 1
1, 0
0, 0
1, 0
2, 2
0, 1
0, 0
1, 1
0, 0
0, 0
0, 0
1, 0
0, 0
0, 0
0, 1
1, 0
0, 2
0, 2
0, 0
0, 1
0, 1
3, 0
1, 0
0, 0
0, 0
2, 0
0, 1
0, 0
0, 0
0, 0
0, 0
0, 0
0, 0
1, 0
2, 0
0, 1
0, 0
0, 0
0, 0
1, 0
1, 0
0, 0
0, 0
0, 0
0, 0
1, 0
1, 0
0, 0
0, 1
2, 0
0, 0
0, 0
0, 0
0, 0
0, 0
0, 0
0, 0
0, 0
0, 0
0, 0
0, 0
0, 0
0, 0
0, 0
0, 0
0, 0
0, 0
0, 0
0, 0
0, 0
0, 0
0, 0
0, 0
0, 0
0, 0
0, 0
0, 0
0, 0
0, 0
0, 0
0, 0
0, 0
0, 0
0, 0
0, 0
1, 0
0, 0
0, 0
0, 0
0, 0
0, 0
0, 0
0, 0
0, 0
0, 0
0, 0
0, 0
0, 0
0, 0
0, 0
0, 0
0, 0
0, 0
0, 0
0, 0
0, 0
0, 0
0, 0
0, 0
0, 0
0, 0
0, 0
0, 0
0, 0
0, 0
0, 0
0, 0
0, 0
0, 0
0, 0
0, 0
0, 0
0, 0
0, 0
0, 0
0, 0
0, 0
0, 0
0, 0
0, 0
0, 0
0, 0
0, 0
0, 0
0, 0
0, 0
0, 0
0, 0
0, 0
0, 0
0, 0
0, 0
0, 0
0, 0
0, 0
0, 0
0, 0
0, 0
0, 0
0, 0
0, 0
0, 0
0, 0
0, 0
0, 0
0, 0
0, 0
0, 0
0, 0
#ENDOFDATA     end of spectrum data