File: host_upload/02-11-2024/rqc/uplink1/ps__0567_0717304816_000rfs_shot_360.msa
#FORMAT      : EMSA/MAS spectral data file
#VERSION     : TC202v2.0 PIXL
#TITLE       : Novarupta (sol567) subset1
#DATE        : 02-11-2024      Date in the format DD-MMM-YYYY, for example 07-JUL-2010
#TIME        :             The time of day at which the spectrum was recorded, in 24-hour format
#OWNER       : PIXL Flight Model       (PIXL will use this to indicate which instrument took the data.)
#NPOINTS     : 4096     Number of data points in the spectrum (This can be zero for configuration only files)
#NCOLUMNS    : 2     Number of data columns in the spectrum (This can be zero for configuration only files)
#XUNITS      : eV
#YUNITS      : COUNTS
#DATATYPE    : YY
#XPERCHAN    : 7.862, 7.881   eV per channel (separate by commas if more than one detector)
#OFFSET      : 18.5, -22.4         eV of first channel  (separate by commas if more than one detector
#SIGNALTYPE  : XRF
#YP_TEMP     : 1.594
#LIVETIME    : 8.82209, 8.82346   seconds (separate by commas if more than one detector)
#REALTIME    : 10, 10.0   seconds (separate by commas if more than one detector)
#SPECTRUM    : start of spectrum data
0, 0
0, 0
0, 0
0, 0
0, 0
0, 0
0, 0
2, 1
1, 1
3, 3
2, 2
9, 10
14, 13
25, 21
34, 34
117, 121
509, 513
147, 107
40, 21
25, 26
64, 67
401, 403
159, 150
77, 71
232, 236
121, 101
76, 58
38, 30
6, 10
6, 6
27, 30
25, 15
16, 15
233, 222
351, 338
52, 24
41, 35
62, 41
10, 11
8, 8
17, 32
57, 61
35, 34
12, 10
11, 16
13, 26
16, 11
14, 9
9, 13
34, 38
27, 23
19, 18
18, 15
35, 45
70, 42
19, 21
25, 33
393, 481
1722, 1815
1182, 986
128, 102
20, 20
26, 17
95, 101
269, 264
174, 142
27, 18
5, 13
17, 11
13, 6
4, 5
3, 4
9, 3
7, 8
8, 4
7, 7
4, 7
7, 9
4, 17
15, 7
9, 6
7, 4
7, 5
1, 5
5, 3
7, 5
3, 4
4, 7
3, 6
3, 8
5, 3
6, 4
3, 6
3, 3
3, 10
3, 5
5, 5
6, 2
2, 1
2, 4
4, 6
3, 3
6, 1
3, 4
1, 6
2, 6
0, 3
2, 2
6, 4
5, 2
0, 1
3, 1
0, 0
2, 6
1, 1
0, 2
0, 3
4, 4
0, 1
3, 2
0, 1
0, 3
1, 1
3, 2
0, 2
1, 1
1, 0
0, 0
1, 0
0, 1
1, 1
2, 1
0, 2
4, 0
1, 1
0, 1
2, 1
1, 0
0, 0
0, 2
0, 0
0, 0
0, 0
1, 0
0, 0
0, 1
1, 1
0, 0
1, 0
0, 0
0, 0
1, 0
1, 0
0, 0
0, 0
0, 1
0, 0
0, 0
1, 0
1, 0
1, 1
0, 0
0, 0
1, 1
1, 0
0, 0
0, 0
0, 0
0, 1
0, 0
0, 0
0, 0
0, 0
0, 0
0, 0
0, 0
1, 0
0, 0
0, 0
0, 0
0, 0
0, 0
0, 0
0, 0
0, 0
0, 0
0, 0
0, 0
0, 0
0, 1
0, 1
0, 0
0, 0
0, 0
0, 0
0, 0
0, 0
0, 0
0, 0
0, 0
0, 0
0, 0
0, 0
0, 0
0, 0
0, 0
0, 0
0, 0
0, 0
0, 0
0, 0
0, 0
0, 0
0, 0
0, 0
0, 0
0, 0
0, 0
0, 0
0, 0
0, 0
0, 0
0, 0
0, 0
0, 0
0, 0
0, 0
0, 0
0, 0
0, 0
0, 0
0, 0
0, 0
0, 0
0, 0
0, 0
0, 0
0, 0
0, 0
0, 0
0, 0
0, 0
0, 0
0, 0
0, 0
0, 0
0, 0
0, 0
0, 0
0, 0
0, 0
0, 0
0, 0
0, 0
0, 0
0, 0
0, 0
0, 0
0, 0
0, 0
0, 0
0, 0
0, 0
0, 0
0, 0
0, 0
0, 0
0, 0
0, 0
0, 0
0, 0
0, 0
0, 0
0, 0
0, 0
0, 0
0, 0
0, 0
0, 0
0, 0
0, 0
0, 0
0, 0
0, 0
0, 0
0, 0
0, 0
0, 0
0, 0
0, 0
0, 0
0, 0
0, 0
0, 0
#ENDOFDATA     end of spectrum data