File: host_upload/02-11-2024/rqc/uplink1/ps__0567_0717304816_000rfs_shot_110.msa
#FORMAT      : EMSA/MAS spectral data file
#VERSION     : TC202v2.0 PIXL
#TITLE       : Novarupta (sol567) subset1
#DATE        : 02-11-2024      Date in the format DD-MMM-YYYY, for example 07-JUL-2010
#TIME        :             The time of day at which the spectrum was recorded, in 24-hour format
#OWNER       : PIXL Flight Model       (PIXL will use this to indicate which instrument took the data.)
#NPOINTS     : 4096     Number of data points in the spectrum (This can be zero for configuration only files)
#NCOLUMNS    : 2     Number of data columns in the spectrum (This can be zero for configuration only files)
#XUNITS      : eV
#YUNITS      : COUNTS
#DATATYPE    : YY
#XPERCHAN    : 7.862, 7.881   eV per channel (separate by commas if more than one detector)
#OFFSET      : 18.5, -22.4         eV of first channel  (separate by commas if more than one detector
#SIGNALTYPE  : XRF
#YP_TEMP     : -0.651
#LIVETIME    : 8.84086, 8.82779   seconds (separate by commas if more than one detector)
#REALTIME    : 10, 10.0   seconds (separate by commas if more than one detector)
#SPECTRUM    : start of spectrum data
0, 0
0, 0
0, 0
0, 0
0, 0
0, 0
0, 0
1, 0
0, 3
5, 3
6, 5
12, 11
11, 15
27, 21
36, 45
101, 129
501, 516
124, 103
36, 25
20, 23
57, 74
272, 312
123, 111
79, 70
234, 219
111, 116
74, 74
39, 38
12, 10
17, 6
32, 26
20, 9
26, 20
209, 233
341, 304
59, 48
43, 41
54, 45
12, 13
11, 13
18, 20
65, 54
34, 25
10, 14
7, 17
18, 28
13, 11
8, 11
8, 17
32, 34
21, 21
10, 12
12, 19
34, 39
46, 36
25, 23
46, 43
437, 459
1676, 1714
970, 901
86, 91
24, 17
17, 31
107, 101
226, 271
146, 128
17, 15
9, 10
17, 10
9, 4
5, 6
5, 9
1, 4
5, 6
8, 7
9, 4
8, 13
6, 12
15, 4
9, 12
8, 9
9, 7
7, 7
2, 10
5, 6
4, 6
12, 8
5, 5
6, 4
5, 4
8, 5
4, 7
6, 2
3, 3
3, 5
2, 4
0, 1
0, 3
3, 5
0, 2
0, 2
6, 1
4, 1
2, 3
2, 0
2, 1
5, 1
0, 1
4, 2
2, 2
4, 1
1, 1
1, 1
2, 2
0, 1
1, 3
1, 2
3, 4
2, 1
0, 1
0, 0
2, 2
2, 3
1, 0
1, 1
1, 2
0, 0
0, 0
3, 1
2, 0
1, 0
0, 1
0, 0
0, 3
1, 2
0, 1
0, 0
1, 0
0, 1
2, 0
1, 1
0, 0
2, 0
2, 0
0, 1
0, 0
0, 1
1, 1
1, 0
0, 0
1, 0
0, 0
1, 1
1, 1
0, 0
2, 1
0, 1
0, 0
0, 0
0, 0
0, 1
0, 0
0, 0
0, 1
0, 0
0, 0
1, 0
1, 0
0, 0
0, 0
0, 1
0, 0
1, 1
0, 0
0, 0
0, 0
0, 0
0, 0
0, 0
0, 0
0, 0
0, 0
0, 0
0, 1
1, 0
0, 0
0, 0
0, 0
0, 1
0, 0
0, 0
0, 0
0, 0
0, 0
0, 0
0, 0
0, 0
0, 0
0, 0
0, 0
0, 0
0, 0
0, 0
0, 0
0, 0
0, 0
0, 0
0, 0
0, 0
0, 0
0, 0
0, 0
0, 0
0, 0
0, 0
0, 0
0, 0
0, 0
0, 0
0, 0
0, 0
0, 0
0, 0
0, 0
0, 0
0, 0
0, 0
0, 0
0, 0
0, 0
0, 0
0, 0
0, 0
0, 0
0, 0
0, 0
0, 0
0, 0
0, 0
0, 0
0, 0
0, 0
0, 0
0, 0
0, 0
0, 0
0, 0
0, 0
0, 0
0, 0
0, 0
0, 0
0, 0
0, 0
0, 0
0, 0
0, 0
0, 0
0, 0
0, 0
0, 0
0, 0
0, 0
0, 0
0, 0
0, 0
0, 0
0, 0
0, 0
0, 0
0, 0
0, 0
0, 0
0, 0
0, 0
0, 0
0, 0
0, 0
0, 0
0, 0
0, 0
0, 0
0, 0
0, 0
0, 0
0, 0
0, 0
0, 0
0, 0
0, 0
0, 0
0, 0
0, 0
0, 0
#ENDOFDATA     end of spectrum data