File: host_upload/02-11-2024/rqc/uplink1/ps__0567_0717304816_000rfs_shot_199.msa
#FORMAT      : EMSA/MAS spectral data file
#VERSION     : TC202v2.0 PIXL
#TITLE       : Novarupta (sol567) subset1
#DATE        : 02-11-2024      Date in the format DD-MMM-YYYY, for example 07-JUL-2010
#TIME        :             The time of day at which the spectrum was recorded, in 24-hour format
#OWNER       : PIXL Flight Model       (PIXL will use this to indicate which instrument took the data.)
#NPOINTS     : 4096     Number of data points in the spectrum (This can be zero for configuration only files)
#NCOLUMNS    : 2     Number of data columns in the spectrum (This can be zero for configuration only files)
#XUNITS      : eV
#YUNITS      : COUNTS
#DATATYPE    : YY
#XPERCHAN    : 7.862, 7.881   eV per channel (separate by commas if more than one detector)
#OFFSET      : 18.5, -22.4         eV of first channel  (separate by commas if more than one detector
#SIGNALTYPE  : XRF
#YP_TEMP     : 0.664
#LIVETIME    : 8.83935, 8.83   seconds (separate by commas if more than one detector)
#REALTIME    : 10, 10.0   seconds (separate by commas if more than one detector)
#SPECTRUM    : start of spectrum data
0, 0
0, 0
0, 0
0, 0
0, 0
0, 0
0, 0
0, 1
3, 2
3, 6
5, 4
13, 11
10, 7
18, 29
42, 50
100, 110
495, 497
115, 114
31, 41
27, 16
49, 65
293, 324
109, 121
66, 85
233, 223
116, 114
72, 45
28, 28
9, 11
10, 12
27, 27
18, 19
14, 22
210, 251
331, 370
44, 51
53, 36
52, 61
10, 8
9, 11
20, 23
75, 67
37, 36
9, 17
15, 12
17, 23
12, 17
4, 11
16, 21
27, 26
18, 25
15, 14
9, 11
35, 36
46, 43
13, 19
33, 49
395, 469
1536, 1771
1012, 1004
95, 92
16, 16
12, 18
58, 109
247, 280
158, 148
25, 17
8, 4
11, 17
14, 8
6, 6
6, 0
6, 4
7, 11
11, 9
7, 8
5, 10
6, 13
7, 9
15, 7
5, 8
7, 8
12, 1
8, 1
2, 6
2, 5
4, 6
9, 9
2, 5
3, 3
8, 5
3, 3
5, 4
3, 9
3, 6
4, 4
0, 2
2, 2
2, 1
3, 3
0, 2
2, 4
5, 3
5, 3
2, 2
0, 3
2, 2
4, 1
2, 5
0, 3
2, 1
2, 2
0, 4
2, 2
1, 1
0, 1
2, 2
2, 1
1, 2
2, 2
1, 2
0, 1
1, 3
2, 0
0, 2
2, 1
1, 3
0, 0
1, 1
1, 2
0, 1
2, 0
0, 2
3, 1
2, 1
1, 0
0, 0
1, 1
0, 1
0, 1
0, 1
1, 0
0, 0
0, 0
0, 0
1, 0
0, 1
0, 0
0, 1
3, 1
0, 1
1, 0
0, 1
1, 0
0, 0
1, 0
0, 0
0, 0
0, 0
1, 0
0, 0
0, 0
0, 1
0, 2
0, 0
0, 0
0, 1
0, 0
0, 1
0, 0
0, 0
1, 0
0, 0
0, 0
1, 1
1, 0
0, 0
0, 1
1, 0
1, 0
0, 0
0, 1
1, 0
0, 0
0, 0
0, 0
0, 0
0, 0
0, 0
0, 0
0, 0
1, 0
0, 1
0, 0
0, 0
0, 0
0, 0
0, 0
0, 0
0, 0
0, 0
0, 0
0, 0
0, 0
0, 0
0, 0
0, 0
0, 0
0, 0
1, 0
0, 0
0, 0
0, 0
0, 0
0, 0
0, 0
0, 0
0, 0
0, 0
0, 0
0, 0
0, 0
0, 0
0, 0
0, 0
0, 0
0, 0
0, 0
0, 0
0, 0
0, 0
0, 0
0, 0
0, 0
0, 0
0, 0
0, 0
0, 0
0, 0
0, 0
0, 0
0, 0
0, 0
0, 0
0, 0
0, 0
0, 0
0, 0
0, 0
0, 0
0, 0
0, 0
0, 0
0, 0
0, 0
0, 0
0, 0
0, 0
0, 0
0, 0
0, 0
0, 0
0, 0
0, 0
0, 0
0, 0
0, 0
0, 0
0, 0
0, 0
0, 0
0, 0
0, 0
0, 0
0, 0
0, 0
0, 0
0, 0
0, 0
0, 0
0, 0
0, 0
0, 0
0, 0
0, 0
0, 0
0, 0
0, 0
0, 0
0, 0
0, 0
0, 0
0, 0
0, 0
#ENDOFDATA     end of spectrum data