File: host_upload/02-11-2024/rqc/uplink1/ps__0567_0717304816_000rfs_shot_277.msa
#FORMAT      : EMSA/MAS spectral data file
#VERSION     : TC202v2.0 PIXL
#TITLE       : Novarupta (sol567) subset1
#DATE        : 02-11-2024      Date in the format DD-MMM-YYYY, for example 07-JUL-2010
#TIME        :             The time of day at which the spectrum was recorded, in 24-hour format
#OWNER       : PIXL Flight Model       (PIXL will use this to indicate which instrument took the data.)
#NPOINTS     : 4096     Number of data points in the spectrum (This can be zero for configuration only files)
#NCOLUMNS    : 2     Number of data columns in the spectrum (This can be zero for configuration only files)
#XUNITS      : eV
#YUNITS      : COUNTS
#DATATYPE    : YY
#XPERCHAN    : 7.862, 7.881   eV per channel (separate by commas if more than one detector)
#OFFSET      : 18.5, -22.4         eV of first channel  (separate by commas if more than one detector
#SIGNALTYPE  : XRF
#YP_TEMP     : 1.498
#LIVETIME    : 8.79926, 8.80006   seconds (separate by commas if more than one detector)
#REALTIME    : 10, 10.0   seconds (separate by commas if more than one detector)
#SPECTRUM    : start of spectrum data
0, 0
0, 0
0, 0
0, 0
0, 0
0, 0
0, 0
0, 0
3, 1
5, 4
5, 5
10, 15
4, 11
26, 23
36, 29
112, 117
485, 506
109, 109
35, 39
28, 22
60, 62
285, 286
104, 115
81, 67
230, 223
122, 121
61, 67
29, 24
10, 15
7, 8
26, 30
14, 22
11, 22
206, 218
323, 335
58, 50
36, 47
42, 45
29, 19
19, 11
25, 22
51, 71
27, 44
17, 18
12, 15
15, 34
13, 14
10, 6
14, 13
40, 46
20, 30
10, 18
10, 14
17, 43
43, 54
18, 23
29, 38
382, 461
1866, 2017
1196, 1119
158, 107
15, 20
19, 24
102, 128
293, 300
162, 157
17, 28
8, 8
8, 7
10, 8
8, 4
5, 4
7, 5
6, 9
8, 5
10, 5
4, 7
6, 3
5, 11
9, 9
3, 2
7, 3
2, 3
7, 3
9, 6
3, 6
7, 11
4, 6
6, 1
8, 5
4, 1
6, 2
8, 6
0, 1
2, 5
2, 2
2, 2
1, 5
5, 5
7, 6
1, 0
4, 4
5, 5
2, 5
4, 1
2, 3
1, 2
4, 5
4, 1
0, 2
5, 2
2, 1
6, 1
1, 3
1, 0
0, 3
1, 3
3, 3
1, 1
2, 2
0, 1
5, 3
6, 2
0, 2
0, 1
0, 2
2, 1
2, 1
0, 1
0, 0
1, 0
0, 1
0, 0
0, 0
0, 1
1, 1
1, 2
0, 1
1, 0
2, 1
1, 1
1, 0
1, 0
1, 0
0, 0
0, 0
0, 0
0, 2
0, 0
0, 0
0, 1
0, 1
1, 0
0, 0
0, 0
0, 1
1, 0
0, 0
0, 0
0, 0
0, 1
0, 0
0, 0
0, 0
0, 0
1, 0
0, 1
0, 0
1, 0
0, 0
0, 0
1, 1
0, 1
0, 0
0, 0
0, 1
1, 0
0, 0
0, 0
0, 0
0, 0
1, 0
0, 0
0, 0
0, 0
0, 1
0, 0
0, 0
0, 0
0, 0
0, 0
0, 0
0, 0
0, 0
1, 0
0, 0
0, 0
0, 0
0, 0
0, 0
0, 0
0, 0
0, 0
0, 0
0, 0
0, 0
0, 0
0, 0
0, 0
0, 0
0, 0
0, 1
0, 0
0, 0
0, 0
0, 0
0, 0
0, 0
0, 0
0, 0
0, 0
0, 0
0, 0
0, 0
0, 0
0, 0
0, 0
0, 0
0, 0
0, 1
0, 0
0, 0
0, 0
0, 0
0, 0
0, 0
0, 0
0, 0
0, 0
0, 0
0, 0
0, 0
0, 0
0, 0
0, 0
0, 0
0, 0
0, 0
0, 0
0, 0
0, 0
0, 0
0, 0
0, 0
0, 0
0, 0
0, 0
0, 0
0, 0
0, 0
0, 0
0, 0
0, 0
0, 0
0, 0
0, 0
0, 0
0, 0
0, 0
0, 0
0, 0
0, 0
0, 0
0, 0
0, 0
0, 0
0, 0
0, 0
0, 0
0, 0
0, 0
0, 0
0, 0
0, 0
0, 0
0, 0
0, 0
0, 0
0, 0
0, 0
0, 0
0, 0
0, 0
0, 0
#ENDOFDATA     end of spectrum data