File: host_upload/02-11-2024/rqc/uplink1/ps__0567_0717304816_000rfs_shot_28.msa
#FORMAT      : EMSA/MAS spectral data file
#VERSION     : TC202v2.0 PIXL
#TITLE       : Novarupta (sol567) subset1
#DATE        : 02-11-2024      Date in the format DD-MMM-YYYY, for example 07-JUL-2010
#TIME        :             The time of day at which the spectrum was recorded, in 24-hour format
#OWNER       : PIXL Flight Model       (PIXL will use this to indicate which instrument took the data.)
#NPOINTS     : 4096     Number of data points in the spectrum (This can be zero for configuration only files)
#NCOLUMNS    : 2     Number of data columns in the spectrum (This can be zero for configuration only files)
#XUNITS      : eV
#YUNITS      : COUNTS
#DATATYPE    : YY
#XPERCHAN    : 7.862, 7.881   eV per channel (separate by commas if more than one detector)
#OFFSET      : 18.5, -22.4         eV of first channel  (separate by commas if more than one detector
#SIGNALTYPE  : XRF
#YP_TEMP     : -4.147
#LIVETIME    : 8.84026, 8.831   seconds (separate by commas if more than one detector)
#REALTIME    : 10, 10.0   seconds (separate by commas if more than one detector)
#SPECTRUM    : start of spectrum data
0, 0
0, 0
0, 0
0, 0
0, 0
0, 0
0, 0
0, 1
1, 3
2, 4
1, 5
9, 14
13, 17
26, 33
28, 43
135, 135
487, 510
125, 105
30, 36
18, 17
60, 89
289, 325
106, 109
97, 88
234, 220
99, 110
69, 59
26, 18
6, 8
9, 9
24, 34
20, 18
27, 42
241, 312
289, 290
54, 42
56, 42
34, 45
8, 13
4, 11
28, 29
67, 73
23, 34
19, 9
11, 14
14, 20
15, 10
12, 10
7, 22
29, 31
20, 25
16, 9
16, 12
37, 42
43, 48
20, 23
49, 56
577, 671
1747, 1782
846, 748
84, 61
19, 16
27, 29
134, 135
259, 268
129, 95
13, 16
12, 8
15, 12
5, 7
8, 6
3, 9
4, 6
3, 6
6, 9
4, 5
4, 6
4, 6
13, 17
10, 10
6, 2
4, 9
6, 4
3, 2
1, 4
7, 7
4, 6
2, 7
6, 6
4, 2
8, 5
3, 3
5, 1
0, 7
2, 6
2, 2
3, 2
2, 6
3, 3
3, 6
3, 4
2, 4
1, 0
4, 5
1, 2
5, 2
3, 3
1, 4
5, 1
2, 5
3, 5
1, 3
3, 1
4, 3
3, 1
2, 3
2, 3
2, 1
1, 7
2, 0
2, 3
2, 1
1, 2
2, 0
0, 2
2, 1
1, 2
0, 3
1, 1
0, 1
0, 0
0, 0
0, 1
0, 0
1, 1
2, 1
1, 0
0, 0
1, 1
0, 0
1, 2
1, 0
0, 0
1, 1
1, 0
1, 0
0, 0
0, 1
2, 0
0, 0
2, 0
0, 0
1, 1
0, 0
1, 0
1, 0
0, 1
0, 0
0, 0
0, 0
0, 0
0, 0
1, 0
1, 0
1, 0
0, 0
0, 0
0, 0
0, 1
0, 0
0, 0
0, 1
0, 1
0, 0
0, 0
0, 0
0, 1
0, 0
1, 0
0, 0
0, 0
0, 0
0, 0
0, 0
0, 1
0, 0
0, 0
0, 0
0, 1
0, 0
0, 0
0, 0
0, 0
0, 0
0, 0
1, 0
0, 0
0, 1
0, 0
0, 0
0, 0
0, 0
0, 0
0, 0
0, 0
0, 0
0, 0
0, 0
0, 0
0, 0
0, 0
0, 0
0, 0
0, 0
0, 0
0, 0
0, 0
0, 0
0, 0
0, 0
0, 0
0, 0
0, 0
0, 0
0, 0
0, 0
0, 0
0, 0
0, 0
0, 0
0, 0
0, 0
0, 0
0, 0
0, 0
0, 0
1, 0
0, 0
0, 0
0, 0
0, 0
0, 0
0, 0
0, 0
0, 0
0, 0
0, 0
0, 0
0, 0
0, 0
0, 0
0, 0
0, 0
0, 0
0, 0
0, 0
0, 0
0, 0
0, 0
0, 0
0, 0
0, 0
0, 0
0, 0
0, 0
0, 0
0, 0
0, 0
0, 0
0, 0
0, 0
0, 0
0, 0
0, 0
0, 0
0, 0
0, 0
0, 0
0, 0
0, 0
0, 0
0, 0
0, 0
0, 0
0, 0
0, 0
0, 0
0, 0
0, 0
0, 0
0, 0
0, 0
0, 0
0, 0
#ENDOFDATA     end of spectrum data