File: host_upload/02-11-2024/rqc/uplink1/ps__0567_0717304816_000rfs_shot_292.msa
#FORMAT      : EMSA/MAS spectral data file
#VERSION     : TC202v2.0 PIXL
#TITLE       : Novarupta (sol567) subset1
#DATE        : 02-11-2024      Date in the format DD-MMM-YYYY, for example 07-JUL-2010
#TIME        :             The time of day at which the spectrum was recorded, in 24-hour format
#OWNER       : PIXL Flight Model       (PIXL will use this to indicate which instrument took the data.)
#NPOINTS     : 4096     Number of data points in the spectrum (This can be zero for configuration only files)
#NCOLUMNS    : 2     Number of data columns in the spectrum (This can be zero for configuration only files)
#XUNITS      : eV
#YUNITS      : COUNTS
#DATATYPE    : YY
#XPERCHAN    : 7.862, 7.881   eV per channel (separate by commas if more than one detector)
#OFFSET      : 18.5, -22.4         eV of first channel  (separate by commas if more than one detector
#SIGNALTYPE  : XRF
#YP_TEMP     : 1.241
#LIVETIME    : 8.81256, 8.80767   seconds (separate by commas if more than one detector)
#REALTIME    : 10, 10.0   seconds (separate by commas if more than one detector)
#SPECTRUM    : start of spectrum data
0, 0
0, 0
0, 0
0, 0
0, 0
0, 0
0, 0
1, 0
1, 4
1, 2
3, 7
6, 10
15, 11
31, 22
45, 46
98, 130
518, 575
117, 146
36, 25
17, 21
55, 63
292, 323
120, 142
68, 74
217, 230
107, 116
77, 73
34, 29
12, 10
7, 7
28, 35
31, 23
9, 22
218, 255
369, 361
65, 53
39, 44
54, 60
9, 17
8, 4
31, 27
49, 73
38, 38
20, 12
5, 17
21, 15
18, 8
8, 12
11, 11
27, 29
20, 23
15, 16
16, 13
29, 45
49, 62
18, 29
27, 53
376, 476
1655, 1832
1110, 1114
115, 101
20, 15
20, 20
84, 103
250, 284
147, 136
22, 11
10, 6
15, 15
9, 5
7, 8
4, 7
6, 14
6, 4
6, 5
1, 8
9, 6
12, 8
13, 10
20, 14
3, 7
5, 2
2, 11
5, 5
4, 6
2, 6
2, 5
5, 6
8, 5
4, 6
6, 4
2, 7
5, 0
2, 5
7, 1
3, 4
7, 5
10, 5
6, 7
3, 4
2, 7
4, 0
5, 6
2, 5
2, 3
1, 3
2, 3
3, 2
1, 1
3, 2
3, 3
4, 1
1, 3
1, 3
2, 1
1, 2
3, 2
4, 4
1, 2
4, 1
2, 2
1, 2
0, 0
2, 4
2, 0
0, 1
1, 1
2, 1
1, 2
1, 3
1, 2
0, 1
2, 1
1, 1
1, 1
1, 0
0, 0
0, 1
0, 1
1, 0
1, 1
0, 0
2, 1
1, 0
0, 0
0, 0
2, 1
0, 0
0, 1
0, 0
0, 0
1, 0
0, 1
1, 3
0, 2
2, 0
0, 0
0, 1
1, 0
0, 0
0, 1
1, 0
0, 0
0, 0
0, 0
0, 0
0, 2
0, 0
1, 0
0, 0
0, 2
0, 0
0, 0
0, 0
0, 0
0, 0
0, 1
0, 0
0, 0
0, 0
0, 0
0, 1
0, 0
0, 0
0, 0
0, 0
0, 0
0, 0
1, 0
1, 0
0, 0
0, 0
0, 0
1, 0
0, 0
0, 0
0, 0
0, 0
0, 0
0, 0
0, 0
0, 0
0, 0
0, 0
0, 0
0, 0
0, 0
0, 0
0, 0
0, 0
0, 0
0, 0
0, 0
0, 0
0, 0
0, 0
0, 0
0, 0
0, 0
0, 0
0, 0
0, 0
0, 0
0, 0
0, 0
0, 0
0, 0
0, 0
0, 0
0, 0
0, 0
0, 0
0, 0
0, 0
0, 0
0, 0
0, 0
0, 0
0, 0
0, 0
0, 0
0, 0
0, 0
0, 0
0, 0
0, 0
0, 0
0, 0
0, 0
0, 0
0, 0
0, 0
0, 0
0, 0
0, 0
0, 0
0, 0
0, 0
0, 0
0, 0
0, 0
0, 0
0, 0
0, 0
0, 0
0, 0
0, 0
0, 0
0, 0
0, 0
0, 0
0, 0
0, 0
0, 0
0, 0
0, 0
0, 0
0, 0
0, 0
0, 0
0, 0
0, 0
0, 0
0, 0
0, 0
0, 0
0, 0
0, 0
0, 0
0, 0
0, 0
0, 0
0, 0
0, 0
#ENDOFDATA     end of spectrum data