File: host_upload/02-11-2024/rqc/uplink1/ps__0567_0717304816_000rfs_shot_83.msa
#FORMAT      : EMSA/MAS spectral data file
#VERSION     : TC202v2.0 PIXL
#TITLE       : Novarupta (sol567) subset1
#DATE        : 02-11-2024      Date in the format DD-MMM-YYYY, for example 07-JUL-2010
#TIME        :             The time of day at which the spectrum was recorded, in 24-hour format
#OWNER       : PIXL Flight Model       (PIXL will use this to indicate which instrument took the data.)
#NPOINTS     : 4096     Number of data points in the spectrum (This can be zero for configuration only files)
#NCOLUMNS    : 2     Number of data columns in the spectrum (This can be zero for configuration only files)
#XUNITS      : eV
#YUNITS      : COUNTS
#DATATYPE    : YY
#XPERCHAN    : 7.862, 7.881   eV per channel (separate by commas if more than one detector)
#OFFSET      : 18.5, -22.4         eV of first channel  (separate by commas if more than one detector
#SIGNALTYPE  : XRF
#YP_TEMP     : -1.164
#LIVETIME    : 8.84133, 8.8265   seconds (separate by commas if more than one detector)
#REALTIME    : 10, 10.0   seconds (separate by commas if more than one detector)
#SPECTRUM    : start of spectrum data
0, 0
0, 0
0, 0
0, 0
0, 0
0, 0
0, 0
0, 1
2, 2
4, 4
4, 1
3, 6
16, 9
26, 32
36, 41
122, 121
464, 510
117, 103
33, 34
14, 21
57, 73
292, 297
109, 115
75, 72
211, 255
104, 116
63, 75
24, 31
13, 7
5, 11
29, 31
10, 14
20, 32
198, 260
314, 307
47, 40
47, 50
44, 46
11, 20
5, 9
18, 19
62, 56
37, 31
16, 15
18, 14
20, 24
12, 15
9, 9
18, 28
39, 37
16, 25
11, 14
20, 10
48, 37
42, 50
22, 22
36, 33
430, 564
1656, 1796
935, 900
106, 83
23, 11
18, 19
92, 121
245, 301
148, 105
18, 19
10, 9
13, 11
7, 6
2, 6
9, 5
10, 2
11, 11
1, 6
3, 5
10, 10
1, 6
8, 15
7, 7
7, 8
5, 6
3, 13
7, 4
7, 6
4, 5
8, 4
6, 10
8, 4
3, 3
4, 4
6, 7
7, 1
3, 2
3, 3
3, 2
2, 3
4, 2
4, 5
1, 3
6, 6
1, 0
2, 2
5, 4
3, 3
3, 3
1, 1
3, 3
0, 3
2, 2
1, 4
3, 2
3, 4
3, 4
3, 3
3, 4
1, 1
2, 2
4, 0
0, 1
2, 0
0, 0
1, 1
4, 1
0, 2
0, 1
0, 1
1, 0
2, 2
1, 0
0, 0
2, 0
0, 2
3, 2
1, 0
1, 0
1, 0
0, 1
1, 1
0, 2
2, 1
0, 0
0, 0
2, 1
0, 0
1, 1
0, 0
1, 0
0, 0
0, 0
0, 0
0, 1
0, 1
0, 0
1, 0
0, 0
0, 0
0, 1
1, 0
1, 0
0, 0
0, 0
1, 0
1, 0
0, 0
0, 1
0, 0
0, 0
1, 0
0, 0
0, 0
0, 0
0, 0
0, 0
0, 1
0, 0
0, 0
0, 0
0, 0
1, 0
0, 0
0, 0
0, 0
0, 0
0, 0
0, 0
0, 0
0, 0
0, 0
0, 0
0, 0
0, 0
0, 0
0, 0
0, 0
0, 0
0, 0
0, 0
0, 0
0, 0
0, 0
0, 0
0, 0
0, 0
0, 0
0, 0
0, 0
0, 0
0, 0
0, 0
0, 0
0, 0
0, 0
0, 0
0, 0
0, 0
0, 0
0, 0
0, 0
0, 0
0, 0
0, 0
0, 0
0, 0
0, 0
0, 0
0, 0
0, 0
0, 0
0, 0
0, 0
0, 0
0, 0
0, 0
0, 0
0, 0
0, 0
0, 0
0, 0
0, 0
0, 0
0, 0
0, 0
0, 0
0, 0
0, 0
0, 0
0, 0
0, 0
0, 0
0, 0
0, 0
0, 0
0, 0
0, 0
0, 0
0, 0
0, 0
0, 0
0, 0
0, 0
0, 0
0, 0
0, 0
0, 0
0, 0
0, 0
0, 0
0, 0
0, 0
0, 0
0, 0
0, 0
0, 0
0, 0
0, 0
0, 0
0, 0
0, 0
0, 0
0, 0
0, 0
0, 0
0, 0
0, 0
0, 0
0, 0
0, 0
0, 0
0, 0
0, 0
0, 0
0, 0
0, 0
#ENDOFDATA     end of spectrum data