File: host_upload/02-11-2024/rqc/uplink1/ps__0567_0717304816_000rfs_shot_88.msa
#FORMAT      : EMSA/MAS spectral data file
#VERSION     : TC202v2.0 PIXL
#TITLE       : Novarupta (sol567) subset1
#DATE        : 02-11-2024      Date in the format DD-MMM-YYYY, for example 07-JUL-2010
#TIME        :             The time of day at which the spectrum was recorded, in 24-hour format
#OWNER       : PIXL Flight Model       (PIXL will use this to indicate which instrument took the data.)
#NPOINTS     : 4096     Number of data points in the spectrum (This can be zero for configuration only files)
#NCOLUMNS    : 2     Number of data columns in the spectrum (This can be zero for configuration only files)
#XUNITS      : eV
#YUNITS      : COUNTS
#DATATYPE    : YY
#XPERCHAN    : 7.862, 7.881   eV per channel (separate by commas if more than one detector)
#OFFSET      : 18.5, -22.4         eV of first channel  (separate by commas if more than one detector
#SIGNALTYPE  : XRF
#YP_TEMP     : -1.26
#LIVETIME    : 8.84433, 8.63896   seconds (separate by commas if more than one detector)
#REALTIME    : 10, 10.0   seconds (separate by commas if more than one detector)
#SPECTRUM    : start of spectrum data
0, 0
0, 0
0, 0
0, 0
0, 0
0, 0
0, 0
0, 1
1, 5
2, 0
8, 1
13, 8
11, 17
18, 22
36, 56
105, 140
444, 538
118, 125
36, 35
22, 20
66, 79
297, 320
99, 111
94, 93
217, 231
117, 124
66, 74
28, 31
11, 6
12, 8
24, 32
18, 13
20, 28
192, 219
316, 311
36, 57
46, 52
55, 65
19, 12
6, 8
22, 19
57, 71
29, 41
12, 22
11, 13
16, 16
12, 6
13, 12
10, 10
23, 43
28, 31
8, 17
13, 8
33, 31
53, 55
23, 24
31, 42
402, 563
1589, 1747
933, 921
95, 85
14, 9
26, 18
115, 100
227, 271
127, 138
27, 12
5, 6
4, 13
5, 8
6, 9
10, 5
1, 8
6, 5
6, 4
8, 4
9, 7
8, 6
3, 12
8, 11
2, 4
5, 2
9, 5
4, 10
5, 2
7, 5
4, 3
4, 6
2, 5
6, 5
7, 3
3, 5
9, 4
4, 0
3, 3
1, 10
3, 4
3, 5
4, 3
2, 4
5, 5
4, 7
1, 7
2, 2
0, 3
0, 2
1, 2
1, 3
2, 1
1, 2
2, 3
2, 1
1, 3
2, 1
2, 4
3, 2
5, 4
3, 3
2, 4
0, 1
0, 2
4, 1
2, 4
3, 2
0, 0
2, 1
0, 1
0, 1
0, 1
2, 1
0, 2
0, 2
0, 3
1, 4
0, 0
0, 2
2, 1
2, 1
0, 1
1, 0
0, 1
0, 1
1, 0
0, 0
0, 0
0, 0
2, 0
0, 1
0, 1
1, 0
0, 0
0, 0
0, 1
0, 1
2, 0
0, 0
0, 0
0, 0
0, 0
0, 0
0, 0
1, 0
0, 1
0, 0
0, 1
0, 0
0, 0
0, 0
1, 0
0, 0
1, 1
0, 1
0, 0
0, 0
0, 1
0, 0
0, 0
0, 0
0, 0
0, 1
0, 0
0, 0
0, 1
0, 0
0, 0
0, 0
0, 0
1, 0
0, 0
0, 0
0, 0
1, 0
0, 0
0, 0
1, 1
1, 0
0, 0
0, 0
0, 0
0, 0
0, 0
0, 0
0, 0
0, 0
0, 0
0, 0
0, 0
0, 0
0, 0
0, 0
0, 0
0, 0
0, 0
0, 0
0, 0
0, 0
0, 0
0, 0
0, 0
0, 0
0, 0
0, 0
0, 0
0, 0
0, 0
0, 0
0, 0
0, 0
0, 0
0, 0
0, 0
0, 0
0, 0
0, 0
0, 0
0, 0
0, 0
0, 0
0, 0
0, 0
0, 0
0, 0
0, 0
0, 0
0, 0
0, 0
0, 0
0, 0
0, 0
0, 0
0, 0
0, 0
0, 0
0, 0
0, 0
0, 0
0, 0
0, 0
0, 0
0, 0
0, 0
0, 0
0, 0
0, 0
0, 0
0, 0
0, 0
0, 0
0, 0
0, 0
0, 0
0, 0
0, 0
0, 0
0, 0
0, 0
0, 0
0, 0
0, 0
0, 0
0, 0
0, 0
0, 0
0, 0
0, 0
0, 0
0, 0
0, 0
0, 0
0, 0
0, 0
0, 0
0, 0
0, 0
#ENDOFDATA     end of spectrum data