File: host_upload/02-11-2024/rqc/uplink1/ps__0567_0717304816_000rfs_shot_252.msa
#FORMAT      : EMSA/MAS spectral data file
#VERSION     : TC202v2.0 PIXL
#TITLE       : Novarupta (sol567) subset1
#DATE        : 02-11-2024      Date in the format DD-MMM-YYYY, for example 07-JUL-2010
#TIME        :             The time of day at which the spectrum was recorded, in 24-hour format
#OWNER       : PIXL Flight Model       (PIXL will use this to indicate which instrument took the data.)
#NPOINTS     : 4096     Number of data points in the spectrum (This can be zero for configuration only files)
#NCOLUMNS    : 2     Number of data columns in the spectrum (This can be zero for configuration only files)
#XUNITS      : eV
#YUNITS      : COUNTS
#DATATYPE    : YY
#XPERCHAN    : 7.862, 7.881   eV per channel (separate by commas if more than one detector)
#OFFSET      : 18.5, -22.4         eV of first channel  (separate by commas if more than one detector
#SIGNALTYPE  : XRF
#YP_TEMP     : 1.177
#LIVETIME    : 8.82313, 8.82171   seconds (separate by commas if more than one detector)
#REALTIME    : 10, 10.0   seconds (separate by commas if more than one detector)
#SPECTRUM    : start of spectrum data
0, 0
0, 0
0, 0
0, 0
0, 0
0, 0
0, 0
0, 1
7, 1
4, 1
4, 3
8, 14
16, 11
24, 19
33, 42
99, 117
528, 553
134, 107
34, 37
23, 23
50, 40
257, 305
127, 114
69, 66
238, 225
108, 134
72, 66
25, 29
11, 0
9, 12
22, 26
18, 14
12, 26
195, 229
340, 309
57, 56
37, 49
65, 56
17, 10
13, 7
26, 20
81, 64
29, 32
16, 14
16, 15
25, 15
12, 15
8, 12
16, 13
21, 36
31, 33
9, 8
8, 10
24, 37
48, 58
17, 23
33, 34
370, 509
1641, 1795
1093, 1007
126, 95
13, 17
24, 16
75, 122
243, 275
176, 176
21, 23
10, 14
12, 15
6, 5
4, 3
8, 7
7, 4
4, 8
10, 7
8, 10
3, 13
4, 5
13, 9
6, 11
4, 7
4, 5
5, 6
3, 8
4, 5
5, 5
2, 4
3, 7
6, 5
5, 1
5, 8
6, 7
5, 3
4, 3
3, 4
3, 1
3, 8
7, 5
6, 6
3, 2
2, 4
4, 2
4, 4
5, 1
1, 0
5, 0
5, 3
3, 1
1, 1
1, 2
4, 0
1, 2
1, 0
2, 3
2, 4
2, 3
1, 2
5, 4
2, 1
3, 2
0, 1
1, 3
0, 2
0, 1
1, 0
2, 0
2, 2
0, 4
1, 2
0, 1
0, 0
2, 0
0, 1
1, 1
1, 0
2, 0
0, 0
0, 0
2, 3
3, 0
4, 0
1, 2
0, 1
0, 0
0, 0
1, 1
0, 1
1, 0
1, 0
0, 0
0, 1
0, 0
0, 0
0, 1
0, 0
0, 0
1, 0
0, 0
1, 0
1, 0
0, 0
0, 1
2, 0
0, 0
0, 0
0, 0
0, 0
0, 0
0, 1
0, 1
2, 0
0, 0
0, 1
1, 0
1, 1
1, 0
0, 0
0, 0
1, 0
0, 0
0, 0
0, 1
1, 0
0, 0
0, 0
0, 1
0, 0
0, 0
0, 0
0, 0
0, 0
1, 0
0, 0
0, 0
0, 0
0, 1
0, 0
0, 0
0, 0
0, 1
0, 0
0, 0
0, 0
0, 0
0, 0
0, 0
0, 0
0, 0
0, 0
0, 0
0, 0
0, 0
1, 0
0, 0
0, 0
0, 0
0, 0
0, 0
0, 0
0, 0
0, 0
0, 0
0, 0
0, 0
0, 0
0, 0
0, 0
0, 0
0, 0
0, 0
0, 0
0, 0
0, 0
0, 0
0, 0
0, 0
0, 0
0, 0
0, 0
0, 0
0, 0
0, 0
0, 0
0, 0
0, 0
0, 0
0, 0
0, 0
0, 0
0, 0
0, 0
0, 0
0, 0
0, 0
0, 0
0, 0
0, 0
0, 0
0, 0
0, 0
0, 0
0, 0
0, 0
0, 0
0, 0
0, 0
0, 0
0, 0
0, 0
0, 0
0, 0
0, 0
0, 0
0, 0
0, 0
0, 0
0, 0
0, 0
0, 0
0, 0
0, 0
0, 0
0, 0
0, 0
0, 0
0, 0
0, 0
0, 0
0, 0
0, 0
0, 0
0, 0
0, 0
0, 0
#ENDOFDATA     end of spectrum data