File: host_upload/02-11-2024/rqc/uplink1/ps__0567_0717304816_000rfs_shot_114.msa
#FORMAT      : EMSA/MAS spectral data file
#VERSION     : TC202v2.0 PIXL
#TITLE       : Novarupta (sol567) subset1
#DATE        : 02-11-2024      Date in the format DD-MMM-YYYY, for example 07-JUL-2010
#TIME        :             The time of day at which the spectrum was recorded, in 24-hour format
#OWNER       : PIXL Flight Model       (PIXL will use this to indicate which instrument took the data.)
#NPOINTS     : 4096     Number of data points in the spectrum (This can be zero for configuration only files)
#NCOLUMNS    : 2     Number of data columns in the spectrum (This can be zero for configuration only files)
#XUNITS      : eV
#YUNITS      : COUNTS
#DATATYPE    : YY
#XPERCHAN    : 7.862, 7.881   eV per channel (separate by commas if more than one detector)
#OFFSET      : 18.5, -22.4         eV of first channel  (separate by commas if more than one detector
#SIGNALTYPE  : XRF
#YP_TEMP     : -0.362
#LIVETIME    : 8.83828, 8.83293   seconds (separate by commas if more than one detector)
#REALTIME    : 10, 10.0   seconds (separate by commas if more than one detector)
#SPECTRUM    : start of spectrum data
0, 0
0, 0
0, 0
0, 0
0, 0
0, 0
0, 0
0, 1
3, 2
1, 1
4, 6
11, 8
7, 11
25, 21
41, 50
129, 122
475, 490
122, 95
27, 35
20, 32
54, 64
293, 312
122, 127
85, 68
190, 212
108, 114
69, 61
33, 29
8, 7
9, 6
32, 23
11, 24
27, 28
221, 259
311, 324
51, 30
46, 54
45, 60
6, 7
13, 8
30, 22
50, 46
26, 33
19, 16
10, 10
14, 20
15, 13
13, 15
6, 10
24, 26
18, 24
18, 8
12, 18
38, 36
38, 44
23, 22
38, 38
428, 518
1573, 1746
945, 888
108, 98
20, 13
25, 30
88, 88
241, 265
171, 128
25, 11
9, 8
6, 19
5, 7
10, 3
6, 8
5, 8
5, 8
6, 8
9, 3
5, 8
6, 6
10, 11
7, 9
5, 7
5, 1
9, 4
4, 7
6, 5
7, 4
6, 7
4, 9
7, 4
11, 4
7, 6
3, 5
3, 2
4, 3
6, 5
7, 6
2, 2
4, 2
1, 3
4, 3
3, 5
4, 4
2, 3
3, 3
3, 4
6, 2
2, 2
0, 4
3, 3
3, 1
2, 1
0, 0
3, 2
2, 3
3, 1
4, 3
4, 2
1, 1
3, 0
2, 1
1, 0
1, 0
3, 1
0, 0
2, 2
0, 0
2, 0
1, 2
0, 2
1, 0
1, 2
0, 0
2, 1
0, 0
0, 1
0, 1
1, 0
1, 2
0, 0
1, 0
1, 0
1, 1
0, 0
1, 1
0, 1
0, 0
0, 1
0, 0
1, 1
0, 0
0, 0
0, 0
0, 0
0, 0
0, 1
1, 0
0, 0
0, 0
0, 0
0, 0
0, 0
0, 0
1, 1
0, 0
1, 0
0, 0
0, 1
0, 0
0, 0
0, 1
1, 1
1, 0
1, 0
1, 0
0, 0
0, 0
0, 0
0, 0
0, 0
0, 0
0, 1
0, 1
0, 0
0, 0
1, 0
0, 0
0, 0
0, 0
0, 0
0, 1
0, 0
0, 0
0, 0
0, 0
0, 0
0, 0
0, 0
0, 0
1, 0
0, 0
0, 0
1, 0
0, 0
0, 0
0, 0
1, 0
0, 0
0, 0
0, 0
0, 0
0, 0
0, 0
0, 0
0, 0
0, 0
0, 0
0, 0
0, 0
0, 0
0, 0
0, 0
0, 0
0, 0
0, 0
0, 0
0, 0
0, 0
0, 0
0, 0
0, 0
0, 0
0, 0
0, 0
0, 0
0, 0
0, 0
0, 0
0, 0
0, 0
0, 0
0, 0
0, 0
0, 0
0, 0
0, 0
0, 0
0, 0
0, 0
0, 0
0, 0
0, 0
0, 0
0, 0
0, 0
0, 0
0, 0
0, 0
0, 0
0, 0
0, 0
0, 0
0, 0
0, 0
0, 0
0, 0
0, 0
0, 0
0, 0
0, 0
0, 0
0, 0
0, 0
0, 0
0, 0
0, 0
0, 0
0, 0
0, 0
0, 0
0, 0
0, 0
0, 0
0, 0
0, 0
0, 0
0, 0
0, 0
0, 0
0, 0
0, 0
0, 0
0, 0
0, 0
0, 0
#ENDOFDATA     end of spectrum data