File: host_upload/02-11-2024/rqc/uplink1/ps__0567_0717304816_000rfs_shot_430.msa
#FORMAT      : EMSA/MAS spectral data file
#VERSION     : TC202v2.0 PIXL
#TITLE       : Novarupta (sol567) subset1
#DATE        : 02-11-2024      Date in the format DD-MMM-YYYY, for example 07-JUL-2010
#TIME        :             The time of day at which the spectrum was recorded, in 24-hour format
#OWNER       : PIXL Flight Model       (PIXL will use this to indicate which instrument took the data.)
#NPOINTS     : 4096     Number of data points in the spectrum (This can be zero for configuration only files)
#NCOLUMNS    : 2     Number of data columns in the spectrum (This can be zero for configuration only files)
#XUNITS      : eV
#YUNITS      : COUNTS
#DATATYPE    : YY
#XPERCHAN    : 7.862, 7.881   eV per channel (separate by commas if more than one detector)
#OFFSET      : 18.5, -22.4         eV of first channel  (separate by commas if more than one detector
#SIGNALTYPE  : XRF
#YP_TEMP     : 1.754
#LIVETIME    : 8.83249, 8.81901   seconds (separate by commas if more than one detector)
#REALTIME    : 10, 10.0   seconds (separate by commas if more than one detector)
#SPECTRUM    : start of spectrum data
0, 0
0, 0
0, 0
0, 0
0, 0
0, 0
0, 0
0, 0
0, 5
5, 2
6, 5
10, 11
9, 10
18, 18
44, 35
112, 128
512, 543
118, 116
29, 33
19, 26
53, 50
287, 283
130, 108
57, 70
223, 214
125, 95
67, 77
22, 28
17, 7
6, 11
21, 29
24, 12
14, 18
212, 221
315, 313
48, 47
40, 39
51, 53
14, 11
7, 9
22, 20
55, 72
31, 31
11, 12
14, 12
20, 26
8, 8
14, 5
11, 24
29, 32
19, 22
18, 10
14, 14
30, 38
50, 39
26, 19
29, 21
372, 446
1530, 1800
1129, 1009
129, 108
18, 15
18, 18
91, 104
264, 290
155, 129
21, 19
6, 6
9, 12
7, 4
5, 5
8, 6
5, 3
8, 6
2, 9
8, 4
8, 8
4, 8
8, 16
7, 15
9, 7
3, 2
6, 4
3, 4
6, 2
3, 8
4, 7
4, 3
4, 6
9, 2
5, 3
4, 5
4, 3
5, 5
2, 3
4, 4
4, 2
1, 6
3, 5
1, 2
2, 0
5, 3
0, 5
2, 1
2, 3
4, 1
2, 4
2, 2
4, 5
3, 1
3, 0
3, 1
1, 1
4, 3
0, 3
2, 2
6, 1
2, 5
1, 1
0, 0
2, 2
5, 2
3, 1
1, 1
3, 0
1, 0
1, 1
2, 1
3, 1
1, 3
2, 0
2, 0
0, 3
3, 2
0, 3
0, 1
1, 1
1, 1
0, 1
0, 3
1, 0
1, 0
1, 0
0, 0
0, 0
1, 0
1, 0
0, 0
0, 1
0, 1
0, 0
0, 0
1, 0
2, 1
0, 0
0, 0
0, 1
0, 1
0, 0
0, 1
0, 0
2, 0
1, 0
0, 0
1, 1
0, 0
0, 1
0, 0
0, 0
0, 0
0, 0
0, 0
0, 1
0, 0
0, 0
0, 1
1, 0
1, 0
0, 0
0, 1
1, 0
0, 0
0, 0
0, 0
0, 0
0, 0
0, 0
0, 0
0, 0
0, 0
0, 0
0, 0
0, 0
0, 0
0, 0
0, 0
0, 0
0, 0
0, 0
0, 0
0, 0
0, 0
0, 0
1, 0
0, 0
0, 0
0, 0
0, 0
0, 0
0, 0
0, 0
0, 0
0, 0
0, 0
0, 0
0, 0
0, 0
0, 0
0, 0
0, 0
0, 0
0, 0
0, 0
0, 0
0, 0
0, 0
0, 0
0, 0
0, 0
0, 0
0, 0
0, 0
0, 0
0, 0
0, 0
0, 0
0, 0
0, 0
0, 0
0, 0
0, 0
0, 0
0, 0
0, 0
0, 0
0, 0
0, 0
0, 0
0, 0
0, 0
0, 0
0, 0
0, 0
0, 0
0, 0
0, 0
0, 0
0, 0
0, 0
0, 0
0, 0
0, 0
0, 0
0, 0
0, 0
0, 0
0, 0
0, 0
0, 0
0, 0
0, 0
0, 0
0, 0
0, 0
0, 0
0, 0
0, 0
0, 0
0, 0
0, 0
0, 0
0, 0
0, 0
0, 0
0, 0
0, 0
0, 0
0, 0
0, 0
0, 0
0, 0
0, 0
0, 0
0, 0
#ENDOFDATA     end of spectrum data