File: host_upload/02-11-2024/rqc/uplink1/ps__0567_0717304816_000rfs_shot_240.msa
#FORMAT      : EMSA/MAS spectral data file
#VERSION     : TC202v2.0 PIXL
#TITLE       : Novarupta (sol567) subset1
#DATE        : 02-11-2024      Date in the format DD-MMM-YYYY, for example 07-JUL-2010
#TIME        :             The time of day at which the spectrum was recorded, in 24-hour format
#OWNER       : PIXL Flight Model       (PIXL will use this to indicate which instrument took the data.)
#NPOINTS     : 4096     Number of data points in the spectrum (This can be zero for configuration only files)
#NCOLUMNS    : 2     Number of data columns in the spectrum (This can be zero for configuration only files)
#XUNITS      : eV
#YUNITS      : COUNTS
#DATATYPE    : YY
#XPERCHAN    : 7.862, 7.881   eV per channel (separate by commas if more than one detector)
#OFFSET      : 18.5, -22.4         eV of first channel  (separate by commas if more than one detector
#SIGNALTYPE  : XRF
#YP_TEMP     : 1.145
#LIVETIME    : 8.8455, 8.80854   seconds (separate by commas if more than one detector)
#REALTIME    : 10, 10.0   seconds (separate by commas if more than one detector)
#SPECTRUM    : start of spectrum data
0, 0
0, 0
0, 0
0, 0
0, 0
0, 0
0, 0
0, 1
2, 1
1, 2
5, 3
12, 9
18, 9
19, 17
37, 48
97, 110
438, 531
123, 134
32, 37
20, 27
54, 55
264, 311
106, 120
61, 75
201, 224
117, 116
54, 75
21, 37
6, 12
8, 6
14, 34
13, 14
14, 19
171, 235
298, 330
53, 52
36, 48
51, 57
7, 16
11, 9
17, 21
44, 68
40, 40
12, 17
13, 12
11, 13
13, 17
10, 15
9, 20
18, 31
17, 14
8, 12
9, 16
31, 44
43, 52
27, 23
23, 29
377, 486
1538, 1929
1029, 988
101, 117
27, 14
18, 16
85, 97
252, 291
165, 149
13, 12
5, 11
16, 18
10, 9
8, 6
4, 7
5, 8
6, 6
8, 5
7, 4
11, 10
6, 6
11, 11
6, 12
9, 5
8, 7
5, 2
3, 8
5, 11
3, 5
5, 4
0, 6
8, 8
2, 8
11, 7
7, 2
8, 5
3, 4
4, 5
3, 4
9, 3
1, 5
6, 5
6, 0
2, 1
2, 2
2, 1
1, 4
1, 5
1, 2
3, 2
3, 1
3, 3
3, 3
2, 1
2, 2
4, 2
1, 6
0, 2
3, 3
2, 4
1, 2
2, 2
0, 2
1, 3
1, 2
3, 1
1, 2
0, 2
0, 4
0, 1
0, 2
0, 3
1, 0
0, 0
2, 0
0, 1
1, 3
2, 1
2, 1
0, 0
1, 0
0, 0
0, 0
1, 0
0, 1
0, 0
0, 1
0, 0
0, 0
0, 2
0, 0
0, 0
0, 0
1, 0
0, 0
1, 0
0, 1
0, 0
0, 0
0, 0
0, 0
0, 0
1, 0
0, 0
0, 0
0, 0
0, 1
0, 0
0, 0
0, 0
1, 1
0, 1
0, 0
0, 2
0, 0
0, 1
0, 0
1, 0
0, 0
0, 0
0, 0
0, 0
0, 1
1, 0
0, 1
1, 0
0, 0
0, 0
0, 0
1, 0
0, 0
0, 0
0, 0
0, 1
0, 0
0, 0
0, 1
0, 0
0, 0
0, 0
0, 0
0, 0
0, 0
0, 0
0, 0
0, 0
0, 0
0, 0
0, 0
0, 0
0, 0
0, 0
0, 0
0, 0
0, 0
0, 0
0, 0
0, 0
0, 0
0, 0
0, 0
0, 0
0, 0
0, 0
0, 0
0, 0
0, 0
0, 0
0, 0
0, 0
0, 0
0, 0
0, 0
0, 0
0, 0
0, 0
0, 0
0, 0
0, 0
0, 0
0, 0
0, 0
0, 0
0, 0
0, 0
0, 0
0, 0
0, 0
0, 0
0, 0
0, 0
0, 0
0, 0
0, 0
0, 0
0, 0
0, 0
0, 0
0, 0
0, 0
0, 0
0, 0
0, 0
0, 0
0, 0
0, 0
0, 0
0, 0
0, 0
0, 0
0, 0
0, 0
0, 0
0, 0
0, 0
0, 0
0, 0
0, 0
0, 0
0, 0
0, 0
0, 0
0, 0
0, 0
0, 0
0, 0
0, 0
0, 0
0, 0
0, 0
0, 0
0, 0
0, 0
0, 0
0, 0
0, 0
0, 0
#ENDOFDATA     end of spectrum data