File: host_upload/02-11-2024/rqc/uplink1/ps__0567_0717304816_000rfs_shot_131.msa
#FORMAT      : EMSA/MAS spectral data file
#VERSION     : TC202v2.0 PIXL
#TITLE       : Novarupta (sol567) subset1
#DATE        : 02-11-2024      Date in the format DD-MMM-YYYY, for example 07-JUL-2010
#TIME        :             The time of day at which the spectrum was recorded, in 24-hour format
#OWNER       : PIXL Flight Model       (PIXL will use this to indicate which instrument took the data.)
#NPOINTS     : 4096     Number of data points in the spectrum (This can be zero for configuration only files)
#NCOLUMNS    : 2     Number of data columns in the spectrum (This can be zero for configuration only files)
#XUNITS      : eV
#YUNITS      : COUNTS
#DATATYPE    : YY
#XPERCHAN    : 7.862, 7.881   eV per channel (separate by commas if more than one detector)
#OFFSET      : 18.5, -22.4         eV of first channel  (separate by commas if more than one detector
#SIGNALTYPE  : XRF
#YP_TEMP     : -0.266
#LIVETIME    : 8.82552, 8.82506   seconds (separate by commas if more than one detector)
#REALTIME    : 10, 10.0   seconds (separate by commas if more than one detector)
#SPECTRUM    : start of spectrum data
0, 0
0, 0
0, 0
0, 0
0, 0
0, 0
0, 0
0, 0
6, 3
3, 4
1, 2
10, 9
19, 11
34, 23
42, 43
109, 131
458, 504
111, 105
38, 40
26, 30
63, 45
302, 329
129, 121
74, 84
237, 233
117, 104
64, 79
36, 31
7, 9
11, 6
26, 31
15, 18
21, 25
256, 245
344, 326
52, 46
36, 43
43, 43
16, 11
6, 7
21, 26
49, 56
32, 29
15, 15
14, 17
23, 23
6, 13
15, 10
19, 16
20, 31
26, 17
13, 19
11, 12
24, 41
43, 52
20, 21
25, 36
422, 479
1583, 1792
992, 923
123, 99
21, 14
20, 18
104, 104
266, 286
148, 114
21, 21
12, 14
13, 16
5, 13
7, 1
1, 8
6, 11
4, 10
8, 8
6, 5
9, 9
8, 5
9, 13
10, 12
8, 4
5, 10
5, 6
7, 7
5, 5
5, 5
6, 7
7, 4
4, 7
6, 1
9, 7
6, 5
1, 7
4, 2
3, 4
6, 4
3, 0
6, 1
5, 0
2, 1
2, 1
2, 3
4, 4
2, 2
2, 1
1, 3
3, 3
2, 1
6, 2
2, 2
3, 2
3, 1
5, 2
4, 0
0, 2
0, 1
2, 2
3, 4
1, 1
3, 2
1, 1
2, 0
3, 4
0, 2
1, 2
0, 1
1, 0
0, 3
0, 2
4, 0
1, 1
0, 1
1, 0
1, 1
1, 0
3, 1
1, 1
1, 0
2, 0
0, 0
2, 3
1, 0
1, 0
0, 0
0, 0
0, 1
2, 2
1, 1
0, 0
0, 1
1, 0
0, 0
1, 0
1, 0
0, 1
0, 0
1, 0
0, 0
1, 0
1, 0
0, 0
0, 0
0, 0
0, 0
0, 0
1, 0
0, 0
2, 0
0, 1
0, 0
0, 1
0, 0
0, 1
1, 0
0, 0
0, 0
0, 0
0, 0
1, 0
0, 0
1, 0
0, 0
0, 0
0, 0
0, 0
0, 0
0, 0
0, 0
0, 0
0, 0
0, 0
0, 1
0, 0
0, 0
0, 0
0, 0
0, 0
0, 0
0, 0
0, 0
0, 1
0, 0
0, 0
0, 0
0, 0
0, 1
0, 0
0, 0
0, 0
0, 0
0, 0
0, 0
0, 0
0, 0
0, 0
0, 0
0, 0
0, 0
0, 0
0, 0
0, 0
0, 0
0, 0
0, 0
0, 0
0, 0
0, 0
0, 0
0, 0
0, 0
0, 0
0, 0
0, 0
0, 0
0, 0
0, 0
0, 0
0, 0
0, 0
0, 0
0, 0
0, 0
0, 0
0, 0
0, 0
0, 0
0, 0
0, 0
0, 0
0, 0
0, 0
0, 0
0, 0
0, 0
0, 0
0, 0
0, 0
0, 0
0, 0
0, 0
0, 0
0, 0
0, 0
0, 0
0, 0
0, 0
0, 0
0, 0
0, 0
0, 0
0, 0
0, 0
0, 0
0, 0
0, 0
0, 0
0, 0
0, 0
0, 0
0, 0
0, 0
0, 0
0, 0
0, 0
0, 0
0, 0
0, 0
0, 0
0, 0
0, 0
0, 0
0, 0
0, 0
0, 0
#ENDOFDATA     end of spectrum data