File: host_upload/02-11-2024/rqc/uplink1/ps__0567_0717304816_000rfs_shot_260.msa
#FORMAT      : EMSA/MAS spectral data file
#VERSION     : TC202v2.0 PIXL
#TITLE       : Novarupta (sol567) subset1
#DATE        : 02-11-2024      Date in the format DD-MMM-YYYY, for example 07-JUL-2010
#TIME        :             The time of day at which the spectrum was recorded, in 24-hour format
#OWNER       : PIXL Flight Model       (PIXL will use this to indicate which instrument took the data.)
#NPOINTS     : 4096     Number of data points in the spectrum (This can be zero for configuration only files)
#NCOLUMNS    : 2     Number of data columns in the spectrum (This can be zero for configuration only files)
#XUNITS      : eV
#YUNITS      : COUNTS
#DATATYPE    : YY
#XPERCHAN    : 7.862, 7.881   eV per channel (separate by commas if more than one detector)
#OFFSET      : 18.5, -22.4         eV of first channel  (separate by commas if more than one detector
#SIGNALTYPE  : XRF
#YP_TEMP     : 1.049
#LIVETIME    : 8.84021, 8.81759   seconds (separate by commas if more than one detector)
#REALTIME    : 10, 10.0   seconds (separate by commas if more than one detector)
#SPECTRUM    : start of spectrum data
0, 0
0, 0
0, 0
0, 0
0, 0
0, 0
0, 0
0, 0
2, 2
6, 1
6, 6
10, 16
13, 15
24, 23
40, 46
105, 130
461, 538
119, 117
30, 29
21, 24
48, 60
274, 310
91, 125
78, 79
215, 217
107, 101
57, 76
23, 22
5, 2
9, 3
26, 31
18, 19
22, 16
198, 247
291, 301
56, 33
30, 45
34, 49
10, 21
7, 10
25, 20
68, 76
31, 27
17, 17
17, 15
17, 19
13, 26
12, 11
12, 12
24, 24
22, 23
10, 15
5, 13
35, 37
51, 58
22, 21
34, 35
360, 487
1653, 1874
1077, 1000
127, 100
14, 16
22, 27
76, 98
231, 259
148, 165
21, 14
6, 5
5, 13
10, 10
4, 4
7, 3
3, 7
10, 3
2, 7
11, 9
6, 8
10, 9
15, 11
13, 17
4, 6
8, 7
4, 6
8, 6
3, 5
4, 12
9, 7
4, 5
7, 5
5, 5
0, 6
3, 6
2, 4
8, 3
4, 3
4, 3
5, 3
5, 4
3, 1
3, 1
3, 6
0, 0
4, 3
3, 4
2, 4
2, 2
3, 0
3, 4
2, 4
0, 2
2, 1
1, 1
2, 2
1, 3
1, 2
0, 4
3, 2
2, 3
4, 2
5, 0
4, 4
1, 2
2, 2
2, 0
3, 1
0, 1
1, 0
3, 1
0, 0
0, 0
1, 2
0, 0
1, 0
1, 1
0, 1
0, 1
3, 0
0, 0
2, 1
1, 1
0, 1
0, 0
0, 0
2, 0
0, 0
0, 2
0, 1
0, 0
0, 2
0, 0
1, 0
2, 0
0, 2
0, 0
0, 1
0, 0
0, 0
1, 1
0, 0
0, 2
0, 0
0, 1
1, 1
0, 0
0, 0
0, 0
0, 0
1, 0
0, 0
0, 0
0, 1
0, 1
0, 0
0, 0
0, 0
0, 0
0, 0
0, 1
0, 0
0, 0
0, 1
0, 1
1, 0
0, 0
1, 0
0, 0
0, 0
0, 0
0, 0
0, 0
0, 0
0, 0
0, 0
0, 0
0, 0
0, 0
0, 0
0, 0
0, 0
0, 0
0, 0
0, 0
0, 1
0, 0
0, 0
0, 0
0, 0
0, 0
0, 0
0, 0
0, 0
0, 0
0, 0
0, 0
0, 0
0, 0
0, 0
0, 0
0, 0
0, 0
0, 0
0, 0
0, 0
0, 0
0, 0
0, 0
0, 0
0, 0
0, 0
0, 0
0, 0
0, 0
0, 0
0, 0
0, 0
0, 0
0, 0
0, 0
0, 0
0, 0
0, 0
0, 0
0, 0
0, 1
0, 0
0, 0
0, 0
0, 0
0, 0
0, 0
0, 0
0, 0
0, 0
0, 0
0, 0
0, 0
0, 0
0, 0
0, 0
0, 0
0, 0
0, 0
0, 0
0, 0
0, 0
0, 0
0, 0
0, 0
0, 0
0, 0
0, 0
0, 0
0, 0
0, 0
0, 0
0, 0
0, 0
0, 0
0, 0
0, 0
0, 0
0, 0
0, 0
0, 0
0, 0
0, 0
0, 0
0, 0
0, 0
0, 0
0, 0
0, 0
0, 0
0, 0
#ENDOFDATA     end of spectrum data