File: host_upload/02-11-2024/rqc/uplink1/ps__0567_0717304816_000rfs_shot_218.msa
#FORMAT      : EMSA/MAS spectral data file
#VERSION     : TC202v2.0 PIXL
#TITLE       : Novarupta (sol567) subset1
#DATE        : 02-11-2024      Date in the format DD-MMM-YYYY, for example 07-JUL-2010
#TIME        :             The time of day at which the spectrum was recorded, in 24-hour format
#OWNER       : PIXL Flight Model       (PIXL will use this to indicate which instrument took the data.)
#NPOINTS     : 4096     Number of data points in the spectrum (This can be zero for configuration only files)
#NCOLUMNS    : 2     Number of data columns in the spectrum (This can be zero for configuration only files)
#XUNITS      : eV
#YUNITS      : COUNTS
#DATATYPE    : YY
#XPERCHAN    : 7.862, 7.881   eV per channel (separate by commas if more than one detector)
#OFFSET      : 18.5, -22.4         eV of first channel  (separate by commas if more than one detector
#SIGNALTYPE  : XRF
#YP_TEMP     : 0.664
#LIVETIME    : 8.84076, 8.83219   seconds (separate by commas if more than one detector)
#REALTIME    : 10, 10.0   seconds (separate by commas if more than one detector)
#SPECTRUM    : start of spectrum data
0, 0
0, 0
0, 0
0, 0
0, 0
0, 0
0, 0
1, 2
4, 1
3, 1
3, 2
5, 6
17, 11
21, 21
36, 43
116, 128
479, 516
108, 99
26, 36
21, 25
45, 55
236, 283
108, 97
69, 77
207, 225
105, 105
66, 70
31, 28
5, 10
9, 11
29, 29
11, 15
11, 17
188, 212
326, 310
40, 48
37, 38
49, 52
11, 10
13, 14
23, 28
57, 68
38, 30
12, 12
13, 15
13, 21
13, 19
6, 13
13, 14
30, 37
17, 25
4, 17
10, 18
36, 39
47, 54
20, 20
33, 33
373, 463
1550, 1715
977, 957
119, 81
12, 17
18, 27
64, 112
217, 273
165, 126
29, 21
6, 10
10, 6
6, 5
6, 5
4, 12
9, 6
9, 5
4, 7
0, 10
9, 3
6, 8
12, 8
11, 14
5, 5
7, 5
3, 5
8, 3
7, 5
3, 4
5, 3
3, 3
2, 4
1, 1
3, 8
4, 5
1, 3
1, 4
3, 8
3, 3
5, 2
3, 7
3, 1
2, 2
6, 2
2, 2
2, 4
3, 3
5, 3
1, 3
4, 2
0, 1
2, 3
5, 0
4, 1
1, 4
1, 0
2, 3
0, 4
3, 1
1, 3
0, 2
3, 3
2, 3
3, 2
0, 2
2, 2
0, 1
0, 1
1, 0
1, 2
0, 1
0, 3
0, 1
0, 1
0, 0
1, 2
1, 0
0, 1
1, 1
0, 1
1, 0
0, 1
1, 0
1, 0
0, 2
0, 0
0, 2
0, 0
1, 0
0, 1
1, 0
1, 0
0, 1
0, 0
0, 0
0, 0
0, 1
0, 1
0, 0
0, 1
0, 0
0, 1
0, 1
0, 0
1, 1
0, 0
0, 0
0, 0
1, 2
1, 0
0, 0
0, 1
0, 1
0, 1
0, 0
0, 0
0, 0
0, 0
1, 0
0, 0
0, 0
0, 0
0, 1
0, 0
0, 0
0, 0
0, 0
0, 0
0, 0
0, 0
0, 0
0, 0
0, 0
0, 0
0, 0
0, 0
0, 0
0, 0
0, 0
0, 0
0, 0
0, 0
1, 0
0, 0
0, 0
0, 0
0, 0
0, 0
0, 0
0, 0
0, 0
0, 0
0, 0
0, 0
0, 0
0, 0
0, 0
0, 0
0, 0
0, 0
0, 0
0, 0
0, 0
0, 0
0, 0
0, 0
0, 0
0, 0
0, 0
0, 0
0, 0
0, 0
0, 0
0, 0
0, 0
0, 0
0, 0
0, 0
0, 0
0, 0
0, 0
0, 0
0, 0
0, 0
0, 0
0, 0
0, 0
0, 0
0, 0
0, 0
0, 0
0, 0
0, 0
0, 0
0, 0
0, 0
0, 0
0, 0
0, 0
0, 0
0, 0
0, 0
0, 0
0, 0
0, 0
0, 0
0, 0
0, 0
0, 0
0, 0
0, 0
0, 0
0, 0
0, 0
0, 0
0, 0
0, 0
0, 0
0, 0
0, 0
0, 0
0, 0
0, 0
0, 0
0, 0
0, 0
0, 0
0, 0
0, 0
0, 0
0, 0
0, 0
0, 0
0, 0
0, 0
0, 0
0, 0
#ENDOFDATA     end of spectrum data