File: host_upload/02-11-2024/rqc/uplink1/ps__0567_0717304816_000rfs_shot_77.msa
#FORMAT      : EMSA/MAS spectral data file
#VERSION     : TC202v2.0 PIXL
#TITLE       : Novarupta (sol567) subset1
#DATE        : 02-11-2024      Date in the format DD-MMM-YYYY, for example 07-JUL-2010
#TIME        :             The time of day at which the spectrum was recorded, in 24-hour format
#OWNER       : PIXL Flight Model       (PIXL will use this to indicate which instrument took the data.)
#NPOINTS     : 4096     Number of data points in the spectrum (This can be zero for configuration only files)
#NCOLUMNS    : 2     Number of data columns in the spectrum (This can be zero for configuration only files)
#XUNITS      : eV
#YUNITS      : COUNTS
#DATATYPE    : YY
#XPERCHAN    : 7.862, 7.881   eV per channel (separate by commas if more than one detector)
#OFFSET      : 18.5, -22.4         eV of first channel  (separate by commas if more than one detector
#SIGNALTYPE  : XRF
#YP_TEMP     : -1.517
#LIVETIME    : 8.86051, 8.82647   seconds (separate by commas if more than one detector)
#REALTIME    : 10, 10.0   seconds (separate by commas if more than one detector)
#SPECTRUM    : start of spectrum data
0, 0
0, 0
0, 0
0, 0
0, 0
0, 0
0, 0
0, 2
3, 6
3, 5
3, 0
10, 16
13, 10
22, 37
33, 59
104, 145
410, 520
113, 124
25, 33
33, 26
59, 73
287, 378
105, 149
59, 97
208, 229
91, 127
68, 79
22, 31
7, 9
1, 7
26, 38
14, 19
22, 29
206, 298
287, 376
49, 48
42, 59
32, 58
12, 11
12, 9
15, 29
63, 61
41, 38
18, 16
11, 20
22, 27
9, 9
14, 9
9, 19
28, 25
20, 24
12, 17
11, 11
30, 42
29, 61
21, 21
37, 31
393, 561
1451, 1852
761, 956
91, 99
12, 19
20, 28
93, 113
228, 275
125, 121
20, 19
9, 11
13, 15
7, 10
7, 8
6, 7
4, 8
6, 7
5, 6
5, 5
5, 5
8, 5
8, 13
4, 9
8, 5
2, 11
2, 3
3, 8
3, 2
3, 5
3, 6
3, 5
7, 6
11, 5
6, 9
1, 2
3, 3
0, 6
3, 3
2, 2
6, 3
3, 3
5, 3
4, 4
2, 1
4, 3
5, 4
3, 0
3, 0
2, 5
1, 1
3, 4
3, 1
5, 2
3, 1
5, 0
2, 3
4, 3
2, 1
1, 4
2, 3
4, 3
2, 1
1, 2
0, 3
0, 1
1, 1
3, 1
0, 1
2, 0
0, 2
2, 1
0, 0
1, 1
1, 1
1, 1
1, 0
0, 1
0, 1
0, 1
0, 1
1, 0
0, 3
0, 1
1, 1
1, 0
0, 1
1, 0
1, 0
2, 1
0, 1
0, 0
0, 0
1, 0
0, 1
0, 1
0, 1
0, 0
0, 0
0, 0
0, 0
0, 1
1, 1
0, 0
0, 0
1, 0
0, 0
0, 0
0, 0
0, 2
0, 1
0, 1
1, 0
0, 1
0, 0
1, 0
0, 2
1, 0
0, 0
0, 0
0, 0
0, 1
0, 0
0, 0
0, 0
0, 0
0, 0
0, 0
0, 1
0, 0
0, 0
0, 0
0, 0
0, 0
0, 0
0, 0
0, 0
0, 0
0, 0
0, 0
0, 2
1, 0
0, 0
0, 0
0, 0
0, 0
0, 0
0, 0
0, 0
0, 0
0, 0
0, 0
0, 0
0, 0
0, 0
0, 0
0, 0
0, 0
0, 0
0, 0
0, 0
0, 0
0, 0
0, 0
0, 0
0, 0
0, 0
0, 0
0, 0
0, 0
0, 0
0, 0
0, 0
0, 0
0, 0
0, 0
0, 0
0, 0
0, 0
0, 0
0, 0
0, 0
0, 0
0, 0
0, 0
0, 0
0, 0
0, 0
0, 0
0, 0
0, 0
0, 0
0, 0
0, 0
0, 0
0, 0
0, 0
0, 0
0, 0
0, 0
0, 0
0, 0
0, 0
0, 0
0, 0
0, 0
0, 0
0, 0
0, 0
0, 0
0, 0
0, 0
0, 0
0, 0
0, 0
0, 0
0, 0
0, 0
0, 0
0, 0
0, 0
0, 0
0, 0
0, 0
0, 0
0, 0
0, 0
0, 0
0, 0
0, 0
0, 0
0, 0
0, 0
0, 0
0, 0
0, 0
0, 0
0, 0
#ENDOFDATA     end of spectrum data