File: host_upload/02-11-2024/rqc/uplink1/ps__0567_0717304816_000rfs_shot_492.msa
#FORMAT      : EMSA/MAS spectral data file
#VERSION     : TC202v2.0 PIXL
#TITLE       : Novarupta (sol567) subset1
#DATE        : 02-11-2024      Date in the format DD-MMM-YYYY, for example 07-JUL-2010
#TIME        :             The time of day at which the spectrum was recorded, in 24-hour format
#OWNER       : PIXL Flight Model       (PIXL will use this to indicate which instrument took the data.)
#NPOINTS     : 4096     Number of data points in the spectrum (This can be zero for configuration only files)
#NCOLUMNS    : 2     Number of data columns in the spectrum (This can be zero for configuration only files)
#XUNITS      : eV
#YUNITS      : COUNTS
#DATATYPE    : YY
#XPERCHAN    : 7.862, 7.881   eV per channel (separate by commas if more than one detector)
#OFFSET      : 18.5, -22.4         eV of first channel  (separate by commas if more than one detector
#SIGNALTYPE  : XRF
#YP_TEMP     : 2.171
#LIVETIME    : 8.81287, 8.80406   seconds (separate by commas if more than one detector)
#REALTIME    : 10, 10.0   seconds (separate by commas if more than one detector)
#SPECTRUM    : start of spectrum data
0, 0
0, 0
0, 0
0, 0
0, 0
0, 0
0, 0
1, 0
5, 2
6, 4
1, 4
9, 10
8, 13
18, 22
40, 48
97, 126
479, 548
124, 111
48, 37
28, 28
56, 61
312, 349
130, 123
64, 100
209, 227
94, 111
65, 59
34, 23
3, 15
7, 15
25, 28
15, 26
20, 27
246, 237
350, 382
62, 67
35, 50
51, 51
14, 9
7, 10
21, 26
61, 65
42, 45
21, 14
20, 14
19, 23
14, 19
11, 11
11, 17
28, 31
39, 24
19, 11
17, 16
28, 35
43, 51
28, 19
32, 33
379, 467
1648, 1962
1105, 1117
123, 107
19, 15
15, 32
91, 115
283, 268
149, 177
27, 19
8, 20
8, 7
13, 10
4, 5
5, 8
7, 7
4, 9
9, 5
7, 5
2, 3
8, 7
9, 13
8, 17
5, 2
5, 3
9, 4
9, 10
5, 6
4, 6
5, 3
7, 5
5, 2
5, 6
4, 4
7, 4
0, 7
7, 7
7, 1
2, 2
2, 3
4, 4
7, 4
2, 4
3, 3
2, 2
8, 5
1, 3
2, 5
0, 6
1, 3
2, 1
2, 3
2, 2
2, 4
2, 2
2, 2
0, 6
3, 2
4, 0
3, 3
4, 2
1, 2
2, 3
2, 1
1, 0
2, 3
1, 0
2, 0
1, 1
1, 3
0, 2
0, 0
0, 1
2, 1
1, 1
0, 0
0, 0
2, 1
0, 0
1, 1
2, 0
0, 1
1, 0
0, 0
1, 1
0, 2
1, 0
1, 1
0, 0
2, 0
0, 2
1, 0
0, 1
0, 0
2, 0
0, 0
0, 0
1, 0
0, 0
0, 0
0, 1
0, 0
0, 1
0, 0
0, 1
1, 0
0, 0
0, 0
0, 0
0, 0
0, 2
0, 1
0, 0
1, 0
0, 0
0, 1
0, 1
1, 0
0, 0
0, 0
0, 0
0, 0
0, 0
0, 0
0, 0
0, 0
0, 0
0, 0
0, 0
0, 0
0, 0
0, 0
0, 0
0, 0
0, 0
0, 0
0, 0
0, 0
0, 0
0, 0
0, 0
0, 0
0, 0
0, 0
0, 0
0, 0
0, 0
0, 0
0, 0
0, 0
0, 0
0, 0
0, 0
0, 0
0, 0
0, 0
0, 0
0, 0
0, 0
0, 0
0, 0
0, 0
0, 0
0, 0
0, 0
0, 0
0, 0
0, 0
0, 0
0, 0
0, 0
0, 0
0, 0
0, 0
0, 0
0, 0
0, 0
0, 0
0, 0
0, 0
0, 0
0, 0
0, 0
0, 0
0, 0
0, 0
0, 0
0, 0
0, 0
0, 0
0, 0
0, 0
0, 0
0, 0
0, 0
0, 0
0, 0
0, 0
0, 0
0, 0
0, 0
0, 0
0, 0
0, 0
0, 0
0, 0
0, 0
0, 0
0, 0
0, 0
0, 0
0, 0
0, 0
0, 0
0, 0
0, 0
0, 0
0, 0
0, 0
0, 0
0, 0
0, 0
0, 0
0, 0
0, 0
0, 0
0, 0
0, 0
0, 0
0, 0
0, 0
0, 0
0, 0
0, 0
0, 0
0, 0
0, 0
#ENDOFDATA     end of spectrum data