File: host_upload/02-11-2024/rqc/uplink1/ps__0567_0717304816_000rfs_shot_329.msa
#FORMAT      : EMSA/MAS spectral data file
#VERSION     : TC202v2.0 PIXL
#TITLE       : Novarupta (sol567) subset1
#DATE        : 02-11-2024      Date in the format DD-MMM-YYYY, for example 07-JUL-2010
#TIME        :             The time of day at which the spectrum was recorded, in 24-hour format
#OWNER       : PIXL Flight Model       (PIXL will use this to indicate which instrument took the data.)
#NPOINTS     : 4096     Number of data points in the spectrum (This can be zero for configuration only files)
#NCOLUMNS    : 2     Number of data columns in the spectrum (This can be zero for configuration only files)
#XUNITS      : eV
#YUNITS      : COUNTS
#DATATYPE    : YY
#XPERCHAN    : 7.862, 7.881   eV per channel (separate by commas if more than one detector)
#OFFSET      : 18.5, -22.4         eV of first channel  (separate by commas if more than one detector
#SIGNALTYPE  : XRF
#YP_TEMP     : 1.369
#LIVETIME    : 8.84615, 8.82383   seconds (separate by commas if more than one detector)
#REALTIME    : 10, 10.0   seconds (separate by commas if more than one detector)
#SPECTRUM    : start of spectrum data
0, 0
0, 0
0, 0
0, 0
0, 0
0, 0
0, 0
2, 0
4, 4
4, 3
3, 3
14, 10
13, 10
24, 34
46, 44
100, 102
423, 542
103, 121
17, 34
16, 25
49, 56
262, 349
105, 100
68, 60
211, 215
113, 109
69, 75
17, 31
6, 9
7, 3
23, 48
19, 16
15, 21
185, 229
308, 309
57, 39
31, 40
45, 52
11, 14
7, 11
18, 22
43, 47
29, 29
18, 11
20, 12
17, 19
17, 10
5, 10
12, 18
31, 28
19, 20
14, 17
12, 19
34, 33
35, 49
17, 21
25, 31
388, 457
1606, 1805
1051, 1009
108, 93
14, 13
31, 19
79, 99
257, 279
147, 171
25, 15
14, 4
5, 17
7, 11
5, 8
3, 6
5, 5
1, 2
7, 8
9, 9
8, 6
8, 8
8, 12
9, 8
6, 6
7, 7
5, 6
2, 2
9, 2
5, 5
3, 3
10, 3
4, 9
6, 6
5, 5
5, 4
2, 8
2, 4
5, 5
4, 5
4, 2
4, 2
5, 4
3, 2
2, 3
0, 2
3, 3
2, 1
0, 1
4, 1
2, 1
2, 3
2, 3
5, 3
2, 1
0, 3
1, 3
2, 0
5, 3
2, 5
5, 1
4, 2
4, 2
1, 1
1, 4
2, 3
2, 1
3, 1
3, 1
3, 1
1, 1
4, 2
0, 1
1, 3
1, 1
1, 0
0, 0
0, 0
0, 1
0, 2
2, 0
0, 0
0, 0
0, 1
3, 0
0, 1
0, 1
0, 1
0, 2
1, 1
0, 1
1, 1
0, 1
0, 0
0, 1
0, 1
1, 0
0, 0
0, 0
1, 0
0, 0
0, 1
1, 0
0, 0
0, 0
0, 0
0, 1
0, 0
0, 0
0, 0
0, 0
0, 0
0, 0
0, 1
0, 0
0, 0
0, 0
0, 0
0, 0
0, 0
0, 0
0, 0
0, 0
0, 0
0, 0
0, 0
0, 0
2, 0
0, 1
0, 0
0, 0
0, 0
0, 0
0, 0
0, 0
0, 0
0, 0
1, 0
0, 0
0, 0
0, 0
0, 0
0, 0
0, 0
1, 0
0, 0
0, 0
0, 0
0, 0
1, 0
0, 0
0, 0
0, 0
0, 0
0, 0
0, 0
0, 0
0, 0
0, 0
0, 0
0, 0
0, 0
0, 0
0, 0
0, 0
0, 0
0, 0
0, 0
0, 0
0, 0
0, 0
0, 0
0, 0
0, 0
0, 0
0, 0
0, 0
0, 0
0, 0
0, 0
0, 0
0, 0
0, 0
0, 0
0, 0
0, 0
0, 0
0, 0
0, 0
0, 0
0, 0
0, 0
0, 0
0, 0
0, 0
0, 0
0, 0
0, 0
0, 0
0, 0
0, 0
0, 0
0, 0
0, 0
0, 0
0, 0
0, 0
0, 0
0, 0
0, 0
0, 0
0, 0
0, 0
0, 0
0, 0
0, 0
0, 0
0, 0
0, 0
0, 0
0, 0
0, 0
0, 0
0, 0
0, 0
0, 0
0, 0
0, 0
0, 0
0, 0
0, 0
0, 0
0, 0
0, 0
0, 0
0, 0
0, 0
0, 0
#ENDOFDATA     end of spectrum data