File: host_upload/02-11-2024/rqc/uplink1/ps__0567_0717304816_000rfs_shot_89.msa
#FORMAT      : EMSA/MAS spectral data file
#VERSION     : TC202v2.0 PIXL
#TITLE       : Novarupta (sol567) subset1
#DATE        : 02-11-2024      Date in the format DD-MMM-YYYY, for example 07-JUL-2010
#TIME        :             The time of day at which the spectrum was recorded, in 24-hour format
#OWNER       : PIXL Flight Model       (PIXL will use this to indicate which instrument took the data.)
#NPOINTS     : 4096     Number of data points in the spectrum (This can be zero for configuration only files)
#NCOLUMNS    : 2     Number of data columns in the spectrum (This can be zero for configuration only files)
#XUNITS      : eV
#YUNITS      : COUNTS
#DATATYPE    : YY
#XPERCHAN    : 7.862, 7.881   eV per channel (separate by commas if more than one detector)
#OFFSET      : 18.5, -22.4         eV of first channel  (separate by commas if more than one detector
#SIGNALTYPE  : XRF
#YP_TEMP     : -1.26
#LIVETIME    : 8.84439, 8.83056   seconds (separate by commas if more than one detector)
#REALTIME    : 10, 10.0   seconds (separate by commas if more than one detector)
#SPECTRUM    : start of spectrum data
0, 0
0, 0
0, 0
0, 0
0, 0
0, 0
0, 0
0, 0
1, 10
3, 6
2, 3
3, 8
8, 20
23, 18
38, 34
124, 131
423, 509
105, 109
27, 31
31, 28
53, 52
278, 368
108, 124
69, 77
221, 238
112, 112
66, 59
27, 24
7, 14
8, 9
28, 31
10, 24
24, 23
195, 255
293, 344
50, 44
46, 45
43, 56
19, 14
3, 3
17, 24
73, 57
30, 43
12, 16
14, 17
21, 27
8, 14
10, 12
12, 15
30, 40
22, 17
9, 10
18, 19
30, 61
39, 54
23, 20
32, 43
425, 521
1549, 1743
929, 854
82, 73
13, 17
16, 23
96, 109
239, 273
120, 131
25, 12
13, 8
6, 17
4, 8
6, 5
0, 5
7, 4
6, 4
9, 12
5, 11
4, 3
7, 9
7, 9
10, 8
7, 6
7, 8
6, 6
0, 4
2, 3
2, 4
3, 8
5, 3
5, 2
5, 2
5, 3
2, 7
6, 5
4, 4
3, 3
4, 3
5, 4
1, 3
3, 5
3, 3
4, 4
3, 3
1, 3
3, 2
3, 2
4, 4
2, 2
4, 0
2, 1
2, 1
1, 2
1, 3
0, 2
5, 2
1, 6
2, 2
2, 6
2, 3
1, 2
2, 1
1, 3
0, 2
1, 0
0, 3
2, 0
1, 2
1, 0
1, 4
0, 0
1, 1
0, 0
1, 1
1, 0
1, 1
2, 0
1, 0
2, 0
0, 0
1, 1
0, 2
0, 0
0, 0
0, 0
1, 0
0, 2
1, 0
0, 0
0, 0
2, 0
1, 0
0, 1
1, 0
0, 0
0, 1
0, 0
0, 0
0, 0
1, 0
0, 0
0, 0
1, 1
0, 1
0, 0
0, 0
0, 1
2, 1
0, 0
0, 0
0, 0
0, 0
0, 0
0, 0
1, 1
0, 0
0, 0
0, 0
0, 0
0, 0
0, 1
0, 0
0, 0
0, 0
0, 0
0, 0
0, 0
0, 0
0, 0
0, 0
0, 0
0, 0
0, 0
0, 0
0, 0
0, 0
0, 0
0, 0
0, 0
0, 1
0, 0
0, 0
0, 0
0, 0
0, 0
0, 0
0, 0
0, 0
0, 0
0, 0
0, 0
0, 0
0, 0
0, 0
0, 0
0, 0
0, 0
0, 0
0, 0
0, 0
0, 0
0, 0
0, 0
0, 0
0, 0
0, 0
0, 0
0, 0
0, 0
0, 0
0, 0
0, 0
0, 0
0, 0
0, 0
0, 0
0, 0
0, 0
0, 0
0, 0
0, 0
0, 0
0, 0
0, 0
0, 0
0, 0
0, 0
0, 0
0, 0
0, 0
0, 0
0, 0
0, 0
0, 0
0, 0
0, 0
0, 0
0, 0
0, 0
0, 0
0, 0
0, 0
0, 0
0, 0
0, 0
0, 0
0, 0
0, 0
0, 0
0, 0
0, 0
0, 0
0, 0
0, 0
0, 0
0, 0
0, 0
0, 0
0, 0
0, 0
0, 0
0, 0
0, 0
0, 0
0, 0
0, 0
0, 0
0, 0
0, 0
0, 0
0, 0
0, 0
0, 0
0, 0
0, 0
0, 0
#ENDOFDATA     end of spectrum data