File: host_upload/02-11-2024/rqc/uplink1/ps__0567_0717304816_000rfs_shot_365.msa
#FORMAT      : EMSA/MAS spectral data file
#VERSION     : TC202v2.0 PIXL
#TITLE       : Novarupta (sol567) subset1
#DATE        : 02-11-2024      Date in the format DD-MMM-YYYY, for example 07-JUL-2010
#TIME        :             The time of day at which the spectrum was recorded, in 24-hour format
#OWNER       : PIXL Flight Model       (PIXL will use this to indicate which instrument took the data.)
#NPOINTS     : 4096     Number of data points in the spectrum (This can be zero for configuration only files)
#NCOLUMNS    : 2     Number of data columns in the spectrum (This can be zero for configuration only files)
#XUNITS      : eV
#YUNITS      : COUNTS
#DATATYPE    : YY
#XPERCHAN    : 7.862, 7.881   eV per channel (separate by commas if more than one detector)
#OFFSET      : 18.5, -22.4         eV of first channel  (separate by commas if more than one detector
#SIGNALTYPE  : XRF
#YP_TEMP     : 1.69
#LIVETIME    : 8.83702, 8.82422   seconds (separate by commas if more than one detector)
#REALTIME    : 10, 10.0   seconds (separate by commas if more than one detector)
#SPECTRUM    : start of spectrum data
0, 0
0, 0
0, 0
0, 0
0, 0
0, 0
0, 0
1, 1
2, 2
2, 4
1, 3
9, 8
15, 17
25, 24
50, 57
104, 113
536, 540
110, 116
20, 37
29, 23
55, 41
275, 281
109, 106
80, 80
232, 225
112, 105
73, 81
34, 22
8, 12
8, 12
23, 19
17, 12
17, 26
207, 207
349, 357
60, 41
43, 49
56, 52
6, 16
9, 12
18, 26
60, 55
38, 44
17, 17
12, 16
22, 31
12, 16
6, 10
14, 19
37, 28
12, 16
13, 8
13, 15
45, 37
41, 51
15, 18
29, 28
342, 434
1556, 1754
1061, 1024
133, 87
16, 25
18, 21
62, 93
260, 262
186, 147
22, 16
10, 14
20, 10
5, 9
10, 10
4, 7
2, 5
8, 4
7, 5
12, 8
9, 7
10, 4
13, 13
10, 14
7, 8
2, 1
10, 5
6, 6
4, 9
5, 10
5, 11
2, 11
8, 4
3, 4
3, 4
3, 5
6, 6
3, 4
4, 2
3, 4
3, 2
5, 3
3, 6
2, 3
3, 3
0, 5
1, 4
1, 1
1, 1
1, 3
1, 2
2, 3
1, 1
3, 3
0, 2
0, 1
2, 0
1, 1
0, 2
0, 3
3, 4
4, 1
3, 1
1, 0
3, 1
1, 4
3, 3
0, 1
0, 0
1, 0
1, 0
1, 1
0, 2
1, 0
0, 1
0, 0
2, 0
0, 3
1, 0
0, 1
1, 2
1, 1
0, 0
0, 1
0, 2
0, 1
0, 0
0, 1
0, 2
0, 1
1, 1
0, 0
0, 1
0, 0
0, 0
0, 0
0, 0
1, 1
0, 0
0, 0
0, 1
0, 0
0, 0
0, 0
0, 0
1, 0
1, 2
0, 0
0, 0
0, 0
1, 0
1, 0
1, 0
0, 1
0, 0
0, 0
1, 0
0, 0
0, 0
0, 0
0, 0
0, 1
0, 0
0, 0
0, 0
0, 0
0, 0
0, 0
0, 0
0, 0
1, 0
0, 0
0, 0
0, 0
0, 0
0, 0
0, 0
0, 0
0, 0
0, 0
0, 0
0, 0
0, 0
0, 0
0, 0
0, 0
0, 0
0, 0
0, 0
0, 0
0, 0
1, 0
0, 0
0, 0
0, 0
0, 0
0, 0
0, 0
0, 0
0, 0
0, 0
0, 0
0, 0
0, 0
0, 0
0, 0
0, 0
0, 0
0, 0
0, 0
0, 0
0, 0
0, 0
0, 0
0, 0
0, 0
0, 0
0, 0
0, 0
0, 0
0, 0
0, 0
0, 0
0, 0
0, 0
0, 0
0, 0
0, 0
0, 0
0, 0
0, 0
0, 0
0, 0
0, 0
0, 0
0, 0
0, 0
0, 0
0, 0
0, 0
0, 0
0, 0
0, 0
0, 0
0, 0
0, 0
0, 0
0, 0
0, 0
0, 0
0, 0
0, 0
0, 0
0, 0
0, 0
0, 0
0, 0
0, 0
0, 0
0, 0
0, 0
0, 0
0, 0
0, 0
0, 0
0, 0
0, 0
0, 0
0, 0
0, 0
0, 0
0, 0
0, 0
0, 0
0, 0
0, 0
0, 0
0, 0
#ENDOFDATA     end of spectrum data