File: host_upload/02-11-2024/rqc/uplink1/ps__0567_0717304816_000rfs_shot_11.msa
#FORMAT      : EMSA/MAS spectral data file
#VERSION     : TC202v2.0 PIXL
#TITLE       : Novarupta (sol567) subset1
#DATE        : 02-11-2024      Date in the format DD-MMM-YYYY, for example 07-JUL-2010
#TIME        :             The time of day at which the spectrum was recorded, in 24-hour format
#OWNER       : PIXL Flight Model       (PIXL will use this to indicate which instrument took the data.)
#NPOINTS     : 4096     Number of data points in the spectrum (This can be zero for configuration only files)
#NCOLUMNS    : 2     Number of data columns in the spectrum (This can be zero for configuration only files)
#XUNITS      : eV
#YUNITS      : COUNTS
#DATATYPE    : YY
#XPERCHAN    : 7.862, 7.881   eV per channel (separate by commas if more than one detector)
#OFFSET      : 18.5, -22.4         eV of first channel  (separate by commas if more than one detector
#SIGNALTYPE  : XRF
#YP_TEMP     : -4.404
#LIVETIME    : 8.84501, 8.82805   seconds (separate by commas if more than one detector)
#REALTIME    : 10, 10.0   seconds (separate by commas if more than one detector)
#SPECTRUM    : start of spectrum data
0, 0
0, 0
0, 0
0, 0
0, 0
0, 0
0, 0
0, 1
3, 5
2, 1
5, 1
13, 9
11, 14
19, 26
46, 49
158, 183
425, 483
107, 106
31, 45
16, 23
81, 71
282, 273
92, 77
77, 94
185, 203
93, 105
50, 67
21, 27
10, 9
13, 18
21, 30
14, 11
31, 34
245, 298
247, 239
40, 50
38, 47
38, 56
14, 7
12, 8
32, 28
58, 80
30, 43
13, 16
19, 14
14, 19
16, 14
3, 7
17, 25
19, 32
21, 19
13, 6
14, 15
39, 55
31, 40
16, 21
68, 65
620, 867
1594, 1781
705, 636
58, 45
16, 19
24, 38
118, 153
259, 249
89, 91
20, 14
8, 8
10, 9
8, 9
7, 9
8, 7
5, 6
5, 3
3, 15
5, 5
7, 5
7, 4
12, 9
9, 5
4, 2
5, 7
4, 6
2, 5
4, 2
7, 4
3, 8
6, 4
3, 5
4, 1
6, 2
2, 6
5, 4
3, 2
1, 6
4, 5
1, 4
1, 2
4, 3
1, 5
1, 3
3, 2
2, 4
3, 4
1, 1
2, 6
1, 0
2, 1
3, 5
4, 2
2, 5
0, 2
3, 2
1, 1
0, 0
1, 3
1, 3
0, 1
1, 1
2, 1
1, 3
0, 2
4, 2
3, 0
1, 4
3, 2
1, 2
0, 2
1, 1
0, 3
0, 0
0, 0
2, 0
1, 2
0, 1
0, 0
0, 1
1, 0
1, 0
1, 0
1, 0
0, 0
1, 2
0, 0
0, 0
0, 0
0, 0
0, 0
0, 1
0, 0
0, 0
0, 1
1, 0
0, 0
2, 1
0, 0
0, 0
0, 1
0, 0
0, 0
0, 0
0, 0
1, 0
0, 1
0, 0
1, 0
0, 1
0, 1
0, 0
0, 0
1, 0
1, 0
1, 1
0, 0
0, 1
0, 0
0, 1
0, 1
0, 0
0, 0
0, 0
0, 0
0, 1
0, 0
0, 0
0, 0
0, 0
0, 0
0, 0
0, 0
0, 0
0, 0
0, 0
0, 0
1, 0
1, 0
0, 0
0, 0
0, 0
0, 0
0, 0
0, 0
0, 0
0, 0
0, 0
0, 0
0, 0
0, 0
0, 0
0, 0
0, 0
0, 0
0, 0
0, 0
0, 0
0, 0
0, 0
0, 0
0, 0
0, 0
0, 0
0, 0
0, 0
0, 0
0, 0
0, 0
0, 0
0, 0
0, 0
0, 0
0, 0
0, 0
0, 0
0, 0
0, 0
0, 0
0, 0
0, 0
0, 0
0, 0
0, 0
0, 0
0, 0
0, 0
0, 0
0, 0
0, 0
0, 0
0, 0
0, 0
0, 0
0, 0
0, 0
0, 0
0, 0
0, 0
0, 0
0, 0
0, 0
0, 0
0, 0
0, 0
0, 0
0, 0
0, 0
0, 0
0, 0
0, 0
0, 0
0, 0
0, 0
0, 0
0, 0
0, 0
0, 0
0, 0
0, 0
0, 0
0, 0
0, 0
0, 0
0, 0
0, 0
0, 0
0, 0
0, 0
0, 0
0, 0
0, 0
0, 0
0, 0
0, 0
0, 0
0, 0
#ENDOFDATA     end of spectrum data