File: host_upload/02-11-2024/rqc/uplink1/ps__0567_0717304816_000rfs_shot_311.msa
#FORMAT      : EMSA/MAS spectral data file
#VERSION     : TC202v2.0 PIXL
#TITLE       : Novarupta (sol567) subset1
#DATE        : 02-11-2024      Date in the format DD-MMM-YYYY, for example 07-JUL-2010
#TIME        :             The time of day at which the spectrum was recorded, in 24-hour format
#OWNER       : PIXL Flight Model       (PIXL will use this to indicate which instrument took the data.)
#NPOINTS     : 4096     Number of data points in the spectrum (This can be zero for configuration only files)
#NCOLUMNS    : 2     Number of data columns in the spectrum (This can be zero for configuration only files)
#XUNITS      : eV
#YUNITS      : COUNTS
#DATATYPE    : YY
#XPERCHAN    : 7.862, 7.881   eV per channel (separate by commas if more than one detector)
#OFFSET      : 18.5, -22.4         eV of first channel  (separate by commas if more than one detector
#SIGNALTYPE  : XRF
#YP_TEMP     : 1.209
#LIVETIME    : 8.83986, 8.81894   seconds (separate by commas if more than one detector)
#REALTIME    : 10, 10.0   seconds (separate by commas if more than one detector)
#SPECTRUM    : start of spectrum data
0, 0
0, 0
0, 0
0, 0
0, 0
0, 0
0, 0
0, 0
0, 3
2, 6
0, 6
4, 13
16, 20
19, 19
59, 44
92, 130
449, 579
106, 103
26, 35
28, 26
44, 53
273, 348
110, 134
56, 66
182, 217
98, 109
73, 73
25, 31
6, 6
8, 9
15, 30
18, 21
15, 20
215, 238
297, 350
48, 46
36, 53
48, 47
12, 8
11, 10
19, 22
53, 60
38, 38
7, 14
7, 7
13, 27
22, 14
11, 9
15, 13
27, 46
26, 14
22, 20
25, 16
30, 36
47, 38
28, 27
21, 32
368, 506
1571, 1827
1106, 1079
125, 113
12, 23
31, 27
87, 94
256, 270
163, 155
26, 17
11, 12
15, 12
16, 6
4, 12
7, 10
7, 10
7, 7
5, 8
10, 7
8, 8
5, 8
10, 10
10, 7
7, 10
4, 6
5, 6
4, 7
5, 7
5, 3
4, 6
7, 7
5, 5
2, 3
7, 3
2, 3
4, 5
5, 5
2, 3
6, 4
3, 3
3, 2
1, 1
1, 7
3, 2
2, 2
2, 4
3, 2
5, 3
5, 5
0, 2
2, 2
2, 3
3, 4
2, 3
1, 2
3, 3
1, 1
2, 0
1, 3
3, 4
1, 2
3, 4
1, 2
2, 1
0, 4
4, 2
2, 2
1, 2
1, 0
3, 1
0, 0
0, 0
2, 2
0, 0
0, 2
0, 1
0, 0
0, 0
0, 1
4, 1
2, 0
2, 0
1, 0
1, 1
1, 1
1, 1
0, 0
0, 1
0, 1
1, 0
1, 1
1, 0
1, 0
1, 0
0, 2
0, 1
0, 1
0, 1
1, 0
0, 0
0, 0
1, 1
0, 0
0, 0
0, 1
0, 0
0, 1
1, 0
0, 0
0, 1
0, 0
2, 0
0, 0
0, 1
0, 0
0, 0
3, 0
0, 0
1, 1
0, 0
1, 0
0, 0
0, 0
0, 0
0, 0
0, 0
0, 0
0, 0
0, 0
0, 0
0, 0
0, 0
1, 0
0, 0
0, 0
0, 0
0, 0
0, 0
0, 0
0, 0
0, 0
0, 0
0, 0
0, 0
0, 0
0, 0
0, 0
0, 0
0, 0
0, 0
0, 0
0, 0
0, 0
0, 0
0, 0
0, 0
0, 0
0, 0
0, 0
0, 0
0, 0
0, 0
0, 0
0, 0
0, 0
0, 0
0, 0
0, 0
0, 0
0, 0
0, 0
0, 0
0, 0
0, 0
0, 0
0, 0
0, 0
0, 0
0, 0
0, 0
0, 0
0, 0
0, 0
0, 0
0, 0
0, 0
0, 0
0, 0
0, 0
0, 0
0, 0
0, 0
0, 0
0, 0
0, 0
0, 0
0, 0
0, 0
0, 0
0, 0
0, 0
0, 0
0, 0
0, 0
0, 0
0, 0
0, 0
0, 0
0, 0
0, 0
0, 0
0, 0
0, 0
0, 0
0, 0
0, 0
0, 0
0, 0
0, 0
0, 0
0, 0
0, 0
0, 0
0, 0
0, 0
0, 0
0, 0
0, 0
0, 0
0, 0
0, 0
0, 0
0, 0
0, 0
0, 0
0, 0
0, 0
#ENDOFDATA     end of spectrum data