File: host_upload/02-11-2024/rqc/uplink1/ps__0567_0717304816_000rfs_shot_158.msa
#FORMAT      : EMSA/MAS spectral data file
#VERSION     : TC202v2.0 PIXL
#TITLE       : Novarupta (sol567) subset1
#DATE        : 02-11-2024      Date in the format DD-MMM-YYYY, for example 07-JUL-2010
#TIME        :             The time of day at which the spectrum was recorded, in 24-hour format
#OWNER       : PIXL Flight Model       (PIXL will use this to indicate which instrument took the data.)
#NPOINTS     : 4096     Number of data points in the spectrum (This can be zero for configuration only files)
#NCOLUMNS    : 2     Number of data columns in the spectrum (This can be zero for configuration only files)
#XUNITS      : eV
#YUNITS      : COUNTS
#DATATYPE    : YY
#XPERCHAN    : 7.862, 7.881   eV per channel (separate by commas if more than one detector)
#OFFSET      : 18.5, -22.4         eV of first channel  (separate by commas if more than one detector
#SIGNALTYPE  : XRF
#YP_TEMP     : 0.151
#LIVETIME    : 8.82062, 8.80317   seconds (separate by commas if more than one detector)
#REALTIME    : 10, 10.0   seconds (separate by commas if more than one detector)
#SPECTRUM    : start of spectrum data
0, 0
0, 0
0, 0
0, 0
0, 0
0, 0
0, 0
0, 0
2, 7
3, 3
7, 1
11, 8
18, 10
27, 27
53, 48
107, 127
489, 556
109, 127
28, 42
17, 25
63, 81
317, 371
120, 128
83, 67
236, 245
89, 109
70, 74
24, 25
8, 10
8, 13
32, 30
22, 21
19, 30
253, 252
300, 367
69, 62
40, 49
57, 53
8, 13
11, 13
22, 23
71, 69
33, 36
9, 9
11, 17
21, 22
11, 16
9, 15
16, 22
33, 38
27, 22
11, 12
13, 19
41, 29
46, 43
25, 25
36, 34
424, 485
1604, 1768
1072, 1011
100, 94
18, 24
14, 32
83, 115
252, 305
151, 152
15, 11
12, 5
13, 9
16, 10
8, 5
7, 4
1, 4
6, 4
10, 9
7, 13
2, 4
6, 7
11, 12
7, 12
15, 4
5, 9
3, 5
7, 5
5, 5
4, 6
6, 3
4, 1
6, 7
2, 3
3, 5
4, 5
0, 3
4, 7
5, 5
4, 3
3, 3
5, 3
4, 2
2, 1
5, 5
1, 3
3, 2
2, 0
3, 3
3, 0
2, 1
5, 5
3, 2
9, 2
1, 0
2, 5
0, 5
4, 0
1, 1
1, 3
2, 3
4, 0
4, 6
3, 3
1, 1
1, 2
0, 3
2, 2
2, 1
3, 0
1, 1
0, 3
3, 1
1, 0
1, 0
2, 0
0, 1
1, 0
1, 1
1, 1
0, 1
0, 0
0, 0
0, 2
1, 0
1, 0
0, 0
0, 0
0, 1
1, 0
1, 0
0, 0
3, 0
0, 0
0, 1
0, 1
0, 0
0, 1
0, 0
0, 1
0, 0
1, 0
1, 0
0, 1
0, 1
0, 0
0, 0
0, 0
0, 0
0, 0
0, 0
0, 0
1, 0
0, 0
0, 0
0, 0
0, 0
0, 0
0, 0
0, 0
0, 0
0, 0
1, 0
0, 0
0, 0
0, 0
0, 0
0, 0
0, 0
0, 0
0, 0
0, 0
0, 0
0, 0
0, 0
0, 0
0, 0
0, 0
0, 0
0, 0
0, 0
0, 0
0, 0
0, 0
0, 0
0, 0
0, 0
0, 0
0, 0
0, 0
0, 0
0, 0
0, 0
0, 0
0, 0
0, 0
0, 0
0, 0
0, 0
0, 0
0, 0
0, 0
0, 0
0, 0
0, 0
0, 0
0, 0
0, 0
0, 0
0, 0
0, 0
0, 0
0, 0
0, 0
0, 0
0, 0
0, 0
0, 0
0, 0
0, 0
0, 0
0, 0
0, 0
0, 0
0, 0
0, 0
0, 0
0, 0
0, 0
0, 0
0, 0
0, 0
0, 0
0, 0
0, 0
0, 0
0, 0
0, 0
0, 0
0, 0
0, 0
0, 0
0, 0
0, 0
0, 0
0, 0
0, 0
0, 0
0, 0
0, 0
0, 0
0, 0
0, 0
0, 0
0, 0
0, 0
0, 0
0, 0
0, 0
0, 0
0, 0
0, 0
0, 0
0, 0
0, 0
0, 0
0, 0
0, 0
0, 0
0, 0
0, 0
0, 0
0, 0
0, 0
0, 0
0, 0
0, 0
0, 0
#ENDOFDATA     end of spectrum data