File: host_upload/02-11-2024/rqc/uplink1/ps__0567_0717304816_000rfs_shot_461.msa
#FORMAT      : EMSA/MAS spectral data file
#VERSION     : TC202v2.0 PIXL
#TITLE       : Novarupta (sol567) subset1
#DATE        : 02-11-2024      Date in the format DD-MMM-YYYY, for example 07-JUL-2010
#TIME        :             The time of day at which the spectrum was recorded, in 24-hour format
#OWNER       : PIXL Flight Model       (PIXL will use this to indicate which instrument took the data.)
#NPOINTS     : 4096     Number of data points in the spectrum (This can be zero for configuration only files)
#NCOLUMNS    : 2     Number of data columns in the spectrum (This can be zero for configuration only files)
#XUNITS      : eV
#YUNITS      : COUNTS
#DATATYPE    : YY
#XPERCHAN    : 7.862, 7.881   eV per channel (separate by commas if more than one detector)
#OFFSET      : 18.5, -22.4         eV of first channel  (separate by commas if more than one detector
#SIGNALTYPE  : XRF
#YP_TEMP     : 1.883
#LIVETIME    : 8.83128, 8.8212   seconds (separate by commas if more than one detector)
#REALTIME    : 10, 10.0   seconds (separate by commas if more than one detector)
#SPECTRUM    : start of spectrum data
0, 0
0, 0
0, 0
0, 0
0, 0
0, 0
0, 0
0, 2
4, 4
3, 3
3, 2
8, 9
11, 9
19, 24
36, 47
110, 112
507, 489
116, 125
17, 27
18, 21
52, 60
299, 317
112, 113
68, 61
187, 214
94, 124
75, 58
31, 31
12, 10
9, 9
34, 26
9, 16
15, 21
194, 216
313, 344
53, 47
35, 40
43, 60
12, 5
9, 6
17, 24
59, 65
40, 48
15, 9
18, 18
10, 17
16, 9
10, 14
15, 19
28, 36
34, 24
6, 11
14, 15
28, 36
46, 60
24, 16
24, 29
352, 412
1607, 1826
1114, 1040
127, 100
17, 24
18, 23
74, 109
259, 284
138, 145
27, 22
7, 10
17, 12
11, 9
5, 10
12, 7
10, 9
2, 9
11, 9
5, 4
6, 7
5, 7
12, 10
17, 10
9, 5
4, 4
8, 4
3, 6
2, 8
4, 2
6, 7
9, 7
1, 4
5, 2
3, 7
7, 2
7, 2
2, 6
1, 7
7, 4
2, 5
1, 3
5, 0
3, 4
7, 4
3, 0
3, 2
4, 3
2, 3
3, 1
4, 3
0, 4
4, 4
0, 4
1, 1
1, 3
4, 1
0, 2
3, 1
4, 3
0, 2
3, 3
1, 2
1, 3
0, 4
1, 2
1, 1
0, 2
1, 3
0, 1
2, 3
1, 1
3, 2
1, 3
1, 1
0, 0
0, 0
0, 0
0, 1
1, 0
0, 0
1, 0
0, 2
1, 0
0, 0
3, 1
0, 0
1, 3
0, 0
0, 0
0, 0
1, 0
1, 0
0, 1
1, 0
0, 1
1, 1
0, 2
0, 0
0, 0
0, 0
0, 0
0, 0
0, 1
1, 0
1, 0
0, 0
1, 0
0, 0
0, 0
2, 0
0, 0
1, 0
1, 0
1, 0
0, 1
1, 0
0, 1
0, 1
0, 0
1, 0
0, 1
0, 0
0, 0
0, 0
0, 0
0, 0
0, 0
0, 0
0, 0
0, 0
0, 0
0, 0
0, 0
0, 0
0, 0
0, 0
0, 0
0, 0
0, 0
0, 0
0, 0
0, 0
0, 1
0, 0
0, 0
0, 0
1, 0
0, 0
1, 0
0, 0
0, 0
0, 0
0, 0
0, 0
0, 0
0, 0
0, 0
0, 0
0, 0
0, 0
0, 0
0, 0
0, 0
0, 0
0, 0
0, 0
0, 0
0, 0
0, 0
0, 0
0, 0
0, 0
0, 0
0, 0
0, 0
0, 0
0, 0
0, 0
0, 0
0, 0
0, 0
0, 0
0, 0
0, 0
0, 0
0, 0
0, 0
0, 0
0, 0
0, 0
0, 0
0, 0
0, 0
0, 0
0, 0
0, 0
0, 0
0, 0
0, 0
0, 0
0, 0
0, 0
0, 0
0, 0
0, 0
0, 0
0, 0
0, 0
0, 0
0, 0
0, 0
0, 0
0, 0
0, 0
0, 0
0, 0
0, 0
0, 0
0, 0
0, 0
0, 0
0, 0
0, 0
0, 0
0, 0
0, 0
0, 0
0, 0
0, 0
0, 0
0, 0
0, 0
0, 0
0, 0
0, 0
0, 0
0, 0
#ENDOFDATA     end of spectrum data