File: host_upload/02-11-2024/rqc/uplink1/ps__0567_0717304816_000rfs_shot_388.msa
#FORMAT      : EMSA/MAS spectral data file
#VERSION     : TC202v2.0 PIXL
#TITLE       : Novarupta (sol567) subset1
#DATE        : 02-11-2024      Date in the format DD-MMM-YYYY, for example 07-JUL-2010
#TIME        :             The time of day at which the spectrum was recorded, in 24-hour format
#OWNER       : PIXL Flight Model       (PIXL will use this to indicate which instrument took the data.)
#NPOINTS     : 4096     Number of data points in the spectrum (This can be zero for configuration only files)
#NCOLUMNS    : 2     Number of data columns in the spectrum (This can be zero for configuration only files)
#XUNITS      : eV
#YUNITS      : COUNTS
#DATATYPE    : YY
#XPERCHAN    : 7.862, 7.881   eV per channel (separate by commas if more than one detector)
#OFFSET      : 18.5, -22.4         eV of first channel  (separate by commas if more than one detector
#SIGNALTYPE  : XRF
#YP_TEMP     : 1.658
#LIVETIME    : 8.8287, 8.81691   seconds (separate by commas if more than one detector)
#REALTIME    : 10, 10.0   seconds (separate by commas if more than one detector)
#SPECTRUM    : start of spectrum data
0, 0
0, 0
0, 0
0, 0
0, 0
0, 0
0, 0
1, 0
2, 6
3, 5
5, 1
6, 7
20, 17
30, 18
42, 45
110, 120
468, 574
127, 122
31, 26
23, 26
55, 49
317, 342
116, 127
65, 88
210, 256
117, 128
55, 73
30, 30
8, 12
13, 10
28, 23
22, 15
20, 26
222, 261
319, 402
61, 59
41, 50
54, 60
11, 11
16, 9
30, 17
49, 59
31, 35
17, 19
10, 9
16, 26
17, 21
10, 13
10, 22
28, 22
18, 20
21, 12
17, 15
22, 47
57, 55
14, 27
35, 22
313, 427
1589, 1833
1134, 1046
116, 118
11, 20
16, 23
81, 94
262, 293
171, 149
27, 22
9, 5
12, 12
5, 14
6, 2
9, 5
6, 6
5, 10
8, 7
14, 13
3, 7
6, 4
7, 5
10, 10
5, 6
6, 2
8, 9
5, 9
7, 6
1, 7
3, 3
5, 2
4, 7
3, 4
4, 6
2, 4
7, 5
9, 1
7, 4
2, 4
3, 3
3, 4
1, 5
3, 2
4, 1
1, 4
1, 8
4, 3
2, 3
2, 3
1, 2
1, 3
1, 1
1, 1
2, 2
1, 1
1, 3
0, 2
0, 2
1, 4
7, 6
3, 4
2, 5
2, 1
1, 1
1, 2
2, 1
0, 0
5, 1
0, 1
1, 4
1, 1
2, 1
1, 1
0, 0
1, 0
0, 2
0, 1
2, 3
0, 1
1, 0
0, 0
1, 1
1, 0
2, 0
2, 2
2, 1
1, 2
0, 0
0, 0
1, 0
0, 0
1, 1
1, 0
0, 0
0, 0
0, 0
1, 3
2, 0
0, 0
1, 0
0, 1
1, 0
0, 0
1, 0
0, 0
0, 1
0, 0
0, 0
0, 0
0, 0
0, 0
0, 0
1, 0
1, 0
0, 0
1, 0
0, 1
0, 0
0, 0
0, 2
0, 0
0, 0
0, 0
0, 0
0, 0
0, 0
0, 0
0, 0
0, 0
0, 0
0, 1
0, 0
0, 0
1, 0
0, 0
0, 0
0, 0
0, 0
0, 0
0, 0
0, 0
0, 0
0, 0
0, 0
0, 0
0, 0
0, 0
0, 0
0, 0
0, 0
0, 0
0, 0
0, 0
0, 0
0, 0
0, 0
0, 1
0, 0
0, 0
0, 0
0, 0
0, 0
0, 0
0, 0
0, 0
0, 0
0, 0
0, 0
0, 0
0, 0
0, 0
0, 0
0, 0
0, 0
0, 0
0, 0
0, 0
0, 0
0, 0
0, 0
0, 0
0, 0
0, 0
0, 0
0, 0
0, 0
0, 0
0, 0
0, 0
0, 0
0, 0
0, 0
0, 0
0, 0
0, 0
0, 0
0, 0
0, 0
0, 0
0, 0
0, 0
0, 0
0, 0
0, 0
0, 0
0, 0
0, 0
0, 0
0, 0
0, 0
0, 0
0, 0
0, 0
0, 0
0, 0
0, 0
0, 0
0, 0
0, 0
0, 0
0, 0
0, 0
0, 0
0, 0
0, 0
0, 0
0, 0
0, 0
0, 0
0, 0
0, 0
0, 0
0, 0
0, 0
0, 0
0, 0
0, 0
#ENDOFDATA     end of spectrum data