File: host_upload/02-11-2024/rqc/uplink1/ps__0567_0717304816_000rfs_shot_238.msa
#FORMAT      : EMSA/MAS spectral data file
#VERSION     : TC202v2.0 PIXL
#TITLE       : Novarupta (sol567) subset1
#DATE        : 02-11-2024      Date in the format DD-MMM-YYYY, for example 07-JUL-2010
#TIME        :             The time of day at which the spectrum was recorded, in 24-hour format
#OWNER       : PIXL Flight Model       (PIXL will use this to indicate which instrument took the data.)
#NPOINTS     : 4096     Number of data points in the spectrum (This can be zero for configuration only files)
#NCOLUMNS    : 2     Number of data columns in the spectrum (This can be zero for configuration only files)
#XUNITS      : eV
#YUNITS      : COUNTS
#DATATYPE    : YY
#XPERCHAN    : 7.862, 7.881   eV per channel (separate by commas if more than one detector)
#OFFSET      : 18.5, -22.4         eV of first channel  (separate by commas if more than one detector
#SIGNALTYPE  : XRF
#YP_TEMP     : 1.049
#LIVETIME    : 8.84038, 8.81105   seconds (separate by commas if more than one detector)
#REALTIME    : 10, 10.0   seconds (separate by commas if more than one detector)
#SPECTRUM    : start of spectrum data
0, 0
0, 0
0, 0
0, 0
0, 0
0, 0
0, 0
1, 1
4, 7
2, 2
0, 4
8, 15
13, 13
19, 28
38, 39
95, 147
505, 541
120, 124
27, 36
26, 28
42, 47
317, 357
100, 106
75, 81
196, 252
94, 114
53, 57
27, 35
10, 13
2, 10
26, 24
21, 18
15, 12
196, 218
320, 367
67, 44
38, 56
57, 48
11, 10
7, 8
15, 29
55, 66
33, 33
14, 13
14, 14
15, 26
14, 12
12, 21
5, 20
27, 25
26, 24
6, 13
27, 17
31, 56
39, 57
21, 28
28, 29
341, 494
1559, 1770
1041, 1010
130, 99
18, 16
20, 23
82, 105
224, 292
130, 142
17, 16
11, 10
7, 11
7, 8
9, 1
5, 7
6, 10
11, 10
5, 9
9, 6
7, 7
5, 11
8, 12
12, 18
7, 5
5, 4
3, 8
3, 5
6, 5
9, 2
1, 5
5, 6
2, 10
5, 7
1, 4
6, 5
1, 5
2, 0
6, 4
3, 6
9, 3
3, 6
1, 2
5, 1
1, 4
4, 3
4, 2
4, 5
5, 3
4, 2
3, 1
3, 2
2, 6
1, 3
3, 1
0, 1
1, 2
3, 5
0, 0
1, 1
4, 5
3, 3
2, 3
1, 2
1, 2
0, 2
1, 2
1, 1
1, 2
1, 3
1, 0
0, 1
0, 0
2, 2
0, 2
1, 0
1, 1
2, 0
0, 0
0, 0
0, 0
1, 2
2, 0
2, 0
0, 0
1, 0
0, 1
0, 0
0, 0
0, 1
0, 1
0, 0
1, 3
0, 1
1, 0
0, 0
1, 0
0, 1
0, 1
0, 1
0, 0
0, 0
0, 1
0, 0
0, 0
0, 1
0, 1
0, 0
1, 0
0, 0
0, 0
0, 0
0, 0
0, 0
0, 0
0, 0
1, 0
0, 0
0, 1
0, 0
0, 0
0, 1
0, 0
0, 0
0, 0
0, 0
0, 0
0, 0
0, 0
0, 0
0, 0
0, 1
1, 0
0, 0
0, 0
0, 0
0, 0
1, 0
0, 0
0, 0
0, 0
1, 0
0, 0
0, 0
0, 1
0, 0
0, 0
0, 0
0, 0
0, 0
0, 0
0, 0
0, 0
0, 0
0, 0
0, 0
0, 0
0, 0
0, 0
0, 0
0, 0
0, 0
0, 0
0, 0
0, 0
0, 0
0, 0
0, 0
0, 0
0, 0
0, 0
0, 0
0, 0
0, 0
0, 0
0, 0
0, 0
0, 0
0, 0
0, 0
0, 0
0, 0
0, 0
0, 0
0, 0
0, 0
0, 0
0, 0
0, 0
0, 0
0, 0
0, 0
0, 0
0, 0
0, 0
0, 0
0, 0
0, 0
0, 0
0, 0
0, 0
0, 0
0, 0
0, 0
0, 0
0, 0
0, 0
0, 0
0, 0
0, 0
0, 0
0, 0
0, 0
0, 0
0, 0
0, 0
0, 0
0, 0
0, 0
0, 0
0, 0
0, 0
0, 0
0, 0
0, 0
0, 0
0, 0
0, 0
0, 0
0, 0
0, 0
0, 0
0, 0
0, 0
0, 0
0, 0
0, 0
0, 0
#ENDOFDATA     end of spectrum data