File: host_upload/02-11-2024/rqc/uplink1/ps__0567_0717304816_000rfs_shot_236.msa
#FORMAT      : EMSA/MAS spectral data file
#VERSION     : TC202v2.0 PIXL
#TITLE       : Novarupta (sol567) subset1
#DATE        : 02-11-2024      Date in the format DD-MMM-YYYY, for example 07-JUL-2010
#TIME        :             The time of day at which the spectrum was recorded, in 24-hour format
#OWNER       : PIXL Flight Model       (PIXL will use this to indicate which instrument took the data.)
#NPOINTS     : 4096     Number of data points in the spectrum (This can be zero for configuration only files)
#NCOLUMNS    : 2     Number of data columns in the spectrum (This can be zero for configuration only files)
#XUNITS      : eV
#YUNITS      : COUNTS
#DATATYPE    : YY
#XPERCHAN    : 7.862, 7.881   eV per channel (separate by commas if more than one detector)
#OFFSET      : 18.5, -22.4         eV of first channel  (separate by commas if more than one detector
#SIGNALTYPE  : XRF
#YP_TEMP     : 1.017
#LIVETIME    : 8.83343, 8.81408   seconds (separate by commas if more than one detector)
#REALTIME    : 10, 10.0   seconds (separate by commas if more than one detector)
#SPECTRUM    : start of spectrum data
0, 0
0, 0
0, 0
0, 0
0, 0
0, 0
0, 0
0, 3
3, 5
3, 3
0, 3
7, 9
16, 11
23, 25
32, 59
89, 123
483, 531
135, 107
33, 46
31, 26
39, 61
264, 299
100, 117
69, 76
181, 233
101, 107
48, 52
26, 23
12, 12
8, 12
38, 22
21, 14
16, 16
189, 251
299, 311
51, 53
43, 47
60, 43
10, 16
7, 10
27, 18
49, 51
36, 35
18, 12
12, 14
17, 25
12, 16
6, 15
17, 20
19, 32
16, 19
13, 12
7, 10
21, 38
54, 47
23, 24
29, 42
362, 469
1530, 1875
1103, 1057
141, 99
14, 19
22, 24
83, 105
249, 276
151, 152
9, 17
9, 10
8, 8
9, 9
11, 3
9, 4
8, 5
10, 11
11, 6
6, 9
4, 12
7, 8
8, 14
11, 10
8, 5
5, 3
6, 6
6, 6
7, 4
6, 4
5, 6
5, 4
4, 4
6, 6
2, 7
5, 5
5, 2
4, 4
3, 2
2, 9
4, 3
3, 1
4, 3
4, 3
3, 4
4, 1
1, 3
4, 2
4, 4
3, 1
1, 0
2, 2
2, 2
3, 1
5, 0
0, 1
1, 3
0, 4
2, 5
1, 2
5, 5
1, 2
0, 0
2, 1
1, 1
0, 1
1, 1
0, 1
1, 0
2, 0
0, 2
3, 1
1, 3
3, 3
1, 3
0, 1
0, 2
0, 0
2, 1
1, 1
4, 0
1, 0
1, 1
0, 0
0, 1
0, 1
2, 1
1, 0
1, 0
0, 0
0, 1
1, 1
0, 0
0, 1
0, 0
1, 0
0, 0
1, 0
0, 0
0, 0
0, 0
1, 0
0, 1
0, 0
0, 0
0, 0
1, 1
0, 0
1, 0
0, 0
0, 0
1, 0
1, 0
0, 1
0, 0
0, 1
1, 0
2, 0
0, 0
0, 1
0, 0
1, 0
0, 0
0, 0
0, 0
0, 0
0, 0
1, 0
0, 0
1, 0
0, 0
0, 0
0, 0
0, 0
0, 0
0, 0
0, 0
0, 0
0, 0
0, 0
0, 0
0, 0
0, 0
0, 0
0, 0
0, 0
0, 0
0, 0
0, 1
0, 0
0, 1
0, 0
0, 0
0, 0
0, 0
0, 0
0, 0
0, 0
0, 0
0, 0
0, 0
0, 0
0, 0
0, 0
0, 0
0, 0
0, 0
0, 0
0, 0
0, 0
0, 0
0, 0
0, 0
0, 0
0, 0
0, 0
0, 0
0, 0
0, 0
0, 0
0, 0
0, 0
0, 0
0, 0
0, 0
0, 0
0, 0
0, 0
0, 0
0, 0
0, 0
0, 0
0, 0
0, 0
0, 0
0, 0
0, 0
0, 0
0, 0
0, 0
0, 0
0, 0
0, 0
0, 0
0, 0
0, 0
0, 0
0, 0
0, 0
0, 0
0, 0
0, 0
0, 0
0, 0
0, 0
0, 0
0, 0
0, 0
0, 0
0, 0
0, 0
0, 0
0, 0
0, 0
0, 0
0, 0
0, 0
0, 0
0, 0
0, 0
0, 0
0, 0
0, 0
0, 0
0, 0
0, 0
0, 0
0, 0
#ENDOFDATA     end of spectrum data