File: host_upload/02-11-2024/rqc/uplink1/ps__0567_0717304816_000rfs_shot_73.msa
#FORMAT      : EMSA/MAS spectral data file
#VERSION     : TC202v2.0 PIXL
#TITLE       : Novarupta (sol567) subset1
#DATE        : 02-11-2024      Date in the format DD-MMM-YYYY, for example 07-JUL-2010
#TIME        :             The time of day at which the spectrum was recorded, in 24-hour format
#OWNER       : PIXL Flight Model       (PIXL will use this to indicate which instrument took the data.)
#NPOINTS     : 4096     Number of data points in the spectrum (This can be zero for configuration only files)
#NCOLUMNS    : 2     Number of data columns in the spectrum (This can be zero for configuration only files)
#XUNITS      : eV
#YUNITS      : COUNTS
#DATATYPE    : YY
#XPERCHAN    : 7.862, 7.881   eV per channel (separate by commas if more than one detector)
#OFFSET      : 18.5, -22.4         eV of first channel  (separate by commas if more than one detector
#SIGNALTYPE  : XRF
#YP_TEMP     : -1.902
#LIVETIME    : 8.84426, 8.82397   seconds (separate by commas if more than one detector)
#REALTIME    : 10, 10.0   seconds (separate by commas if more than one detector)
#SPECTRUM    : start of spectrum data
0, 0
0, 0
0, 0
0, 0
0, 0
0, 0
0, 0
2, 0
3, 5
6, 1
1, 7
12, 7
16, 11
25, 23
36, 52
106, 128
475, 556
99, 114
25, 30
17, 23
58, 76
295, 321
98, 123
69, 82
202, 239
105, 109
74, 57
23, 25
6, 15
5, 9
19, 34
17, 19
27, 30
228, 280
331, 300
43, 48
41, 49
50, 57
15, 11
3, 6
23, 29
61, 61
26, 37
18, 16
11, 9
14, 18
22, 14
12, 9
12, 10
36, 45
16, 32
16, 16
10, 16
29, 46
45, 52
14, 21
44, 33
424, 550
1598, 1802
843, 916
104, 96
6, 13
24, 27
119, 107
236, 271
130, 112
18, 19
7, 7
11, 9
10, 10
6, 8
5, 5
7, 11
5, 9
7, 8
8, 8
7, 4
5, 8
8, 7
7, 7
4, 4
5, 9
3, 3
11, 7
6, 5
5, 5
3, 9
2, 5
6, 4
1, 4
3, 6
5, 4
2, 7
4, 3
3, 1
5, 3
4, 4
6, 4
2, 2
0, 3
1, 4
1, 2
4, 6
4, 3
0, 3
2, 0
0, 4
4, 2
2, 0
2, 2
3, 1
0, 4
2, 6
1, 1
2, 2
3, 3
3, 3
2, 0
1, 1
0, 0
2, 4
2, 3
0, 1
2, 4
1, 1
0, 3
2, 4
1, 3
2, 1
0, 0
1, 0
0, 3
0, 1
1, 1
1, 1
1, 0
0, 1
1, 1
2, 1
0, 1
1, 0
0, 3
0, 1
1, 0
1, 1
0, 0
0, 0
0, 1
3, 1
1, 0
0, 0
0, 2
1, 0
1, 0
1, 2
1, 0
0, 0
0, 0
1, 0
0, 0
0, 0
0, 0
0, 0
0, 1
0, 1
2, 0
0, 1
0, 0
0, 0
0, 1
0, 1
0, 1
0, 1
2, 0
0, 0
0, 0
0, 1
0, 1
0, 0
0, 0
0, 1
0, 0
0, 0
0, 1
0, 1
0, 0
0, 0
0, 0
0, 0
0, 0
0, 0
0, 0
0, 0
0, 0
0, 0
0, 0
0, 0
0, 0
0, 0
0, 0
0, 2
0, 0
0, 0
0, 0
0, 0
0, 0
0, 0
0, 0
0, 0
0, 0
0, 0
0, 0
0, 0
0, 0
0, 0
0, 0
0, 0
0, 0
0, 0
0, 0
0, 0
0, 0
0, 0
0, 0
0, 0
0, 0
0, 0
0, 0
0, 0
0, 0
0, 0
0, 0
0, 0
0, 0
0, 0
0, 0
0, 0
0, 0
0, 0
0, 0
0, 0
0, 0
0, 0
0, 0
0, 0
0, 0
0, 0
0, 0
0, 0
0, 0
0, 0
0, 0
0, 0
0, 0
0, 0
0, 0
0, 0
0, 0
0, 0
0, 0
0, 0
0, 0
0, 0
0, 0
0, 0
0, 0
0, 0
0, 0
0, 0
0, 0
0, 0
0, 0
0, 0
0, 0
0, 0
0, 0
0, 0
0, 0
0, 0
0, 0
0, 0
0, 0
0, 0
0, 0
0, 0
0, 0
0, 0
0, 0
0, 0
0, 0
0, 0
0, 0
0, 0
0, 0
#ENDOFDATA     end of spectrum data