File: host_upload/02-11-2024/rqc/uplink1/ps__0567_0717304816_000rfs_shot_268.msa
#FORMAT      : EMSA/MAS spectral data file
#VERSION     : TC202v2.0 PIXL
#TITLE       : Novarupta (sol567) subset1
#DATE        : 02-11-2024      Date in the format DD-MMM-YYYY, for example 07-JUL-2010
#TIME        :             The time of day at which the spectrum was recorded, in 24-hour format
#OWNER       : PIXL Flight Model       (PIXL will use this to indicate which instrument took the data.)
#NPOINTS     : 4096     Number of data points in the spectrum (This can be zero for configuration only files)
#NCOLUMNS    : 2     Number of data columns in the spectrum (This can be zero for configuration only files)
#XUNITS      : eV
#YUNITS      : COUNTS
#DATATYPE    : YY
#XPERCHAN    : 7.862, 7.881   eV per channel (separate by commas if more than one detector)
#OFFSET      : 18.5, -22.4         eV of first channel  (separate by commas if more than one detector
#SIGNALTYPE  : XRF
#YP_TEMP     : 1.113
#LIVETIME    : 8.83878, 8.80836   seconds (separate by commas if more than one detector)
#REALTIME    : 10, 10.0   seconds (separate by commas if more than one detector)
#SPECTRUM    : start of spectrum data
0, 0
0, 0
0, 0
0, 0
0, 0
0, 0
0, 0
1, 0
4, 3
2, 8
0, 3
5, 8
12, 12
21, 25
33, 51
89, 112
496, 560
128, 153
40, 31
22, 17
67, 67
313, 386
111, 138
79, 91
230, 225
128, 114
68, 69
28, 26
17, 6
9, 11
29, 41
21, 22
21, 23
205, 242
338, 382
59, 53
49, 45
37, 50
11, 17
9, 12
20, 17
62, 71
30, 40
17, 15
18, 11
24, 19
17, 14
16, 10
6, 19
24, 33
27, 15
9, 14
13, 21
34, 50
53, 50
30, 24
28, 33
322, 484
1578, 1710
1078, 1023
128, 87
14, 17
28, 25
73, 114
260, 272
162, 136
19, 12
7, 7
9, 17
14, 10
5, 5
7, 3
8, 1
4, 5
4, 11
9, 11
8, 6
5, 4
9, 12
10, 8
9, 7
3, 6
6, 6
5, 8
2, 9
7, 2
6, 6
2, 7
6, 4
4, 6
3, 1
9, 3
4, 7
7, 3
3, 5
2, 4
2, 1
7, 7
1, 3
4, 2
2, 2
4, 4
4, 3
6, 4
0, 2
0, 3
3, 1
3, 2
1, 1
3, 3
3, 4
1, 0
0, 2
4, 4
1, 1
1, 2
4, 4
0, 6
0, 0
1, 0
1, 5
1, 4
2, 0
1, 2
2, 0
0, 1
3, 1
0, 1
2, 0
0, 1
0, 1
0, 0
0, 1
0, 0
1, 0
3, 2
0, 0
0, 1
1, 1
0, 0
0, 0
2, 1
2, 0
1, 0
0, 1
0, 1
2, 0
0, 2
1, 3
0, 0
0, 3
0, 0
0, 1
0, 1
1, 0
0, 2
0, 0
0, 2
0, 0
0, 0
0, 0
2, 0
1, 0
0, 0
0, 1
0, 0
0, 0
0, 0
0, 1
2, 0
1, 0
1, 0
0, 0
0, 0
0, 0
0, 0
0, 0
0, 0
0, 0
1, 0
0, 0
0, 0
0, 0
0, 0
0, 0
1, 0
0, 0
0, 0
0, 0
0, 0
0, 0
0, 0
0, 0
0, 0
0, 0
0, 0
0, 0
0, 0
0, 0
0, 0
0, 0
0, 0
0, 0
1, 0
0, 1
0, 0
0, 0
0, 0
0, 0
0, 0
0, 0
0, 0
0, 0
0, 0
0, 0
0, 0
0, 0
0, 0
0, 0
0, 0
0, 0
0, 0
0, 0
0, 0
0, 0
0, 0
0, 0
0, 0
0, 0
0, 0
0, 0
0, 0
0, 0
0, 0
0, 0
0, 0
0, 0
0, 0
0, 0
0, 0
0, 0
0, 0
0, 0
0, 0
0, 0
0, 0
0, 0
0, 0
0, 0
0, 0
0, 0
0, 0
0, 0
0, 0
0, 0
0, 0
0, 0
0, 0
0, 0
0, 0
0, 0
0, 0
0, 0
0, 0
0, 0
0, 0
0, 0
0, 0
0, 0
0, 0
0, 0
0, 0
0, 0
0, 0
0, 0
0, 0
0, 0
0, 0
0, 0
0, 0
0, 0
0, 0
0, 0
0, 0
0, 0
0, 0
0, 0
0, 0
0, 0
0, 0
0, 0
0, 0
0, 0
0, 0
#ENDOFDATA     end of spectrum data