File: host_upload/02-11-2024/rqc/uplink1/ps__0567_0717304816_000rfs_shot_245.msa
#FORMAT      : EMSA/MAS spectral data file
#VERSION     : TC202v2.0 PIXL
#TITLE       : Novarupta (sol567) subset1
#DATE        : 02-11-2024      Date in the format DD-MMM-YYYY, for example 07-JUL-2010
#TIME        :             The time of day at which the spectrum was recorded, in 24-hour format
#OWNER       : PIXL Flight Model       (PIXL will use this to indicate which instrument took the data.)
#NPOINTS     : 4096     Number of data points in the spectrum (This can be zero for configuration only files)
#NCOLUMNS    : 2     Number of data columns in the spectrum (This can be zero for configuration only files)
#XUNITS      : eV
#YUNITS      : COUNTS
#DATATYPE    : YY
#XPERCHAN    : 7.862, 7.881   eV per channel (separate by commas if more than one detector)
#OFFSET      : 18.5, -22.4         eV of first channel  (separate by commas if more than one detector
#SIGNALTYPE  : XRF
#YP_TEMP     : 0.92
#LIVETIME    : 8.81698, 8.81465   seconds (separate by commas if more than one detector)
#REALTIME    : 10, 10.0   seconds (separate by commas if more than one detector)
#SPECTRUM    : start of spectrum data
0, 0
0, 0
0, 0
0, 0
0, 0
0, 0
0, 0
0, 0
3, 1
4, 4
1, 5
9, 6
22, 12
15, 12
41, 51
107, 131
480, 534
123, 123
23, 32
28, 27
60, 62
357, 330
118, 149
74, 70
202, 200
112, 98
62, 64
25, 30
12, 7
5, 8
20, 37
16, 19
15, 28
182, 222
333, 334
54, 58
45, 48
48, 41
12, 11
9, 4
19, 32
65, 57
31, 35
12, 13
14, 14
14, 15
6, 16
2, 9
13, 17
30, 29
28, 18
10, 8
18, 4
38, 25
44, 47
24, 17
32, 43
411, 482
1657, 1850
1103, 977
130, 96
25, 14
21, 24
73, 90
281, 282
185, 157
28, 22
6, 9
6, 14
6, 12
10, 4
6, 6
4, 9
10, 7
7, 8
6, 2
8, 8
8, 10
8, 17
10, 15
8, 6
8, 5
7, 7
6, 4
6, 5
8, 3
7, 7
9, 2
7, 13
6, 5
5, 5
2, 3
7, 5
1, 4
4, 9
4, 5
7, 4
3, 5
2, 2
2, 7
5, 5
2, 3
2, 3
6, 4
2, 3
4, 3
1, 1
2, 1
4, 2
3, 1
1, 0
2, 1
3, 4
1, 2
1, 3
4, 4
3, 4
3, 1
1, 2
2, 0
2, 1
5, 2
1, 1
3, 1
1, 2
0, 3
2, 2
1, 1
1, 1
1, 1
2, 0
1, 2
1, 0
1, 2
0, 1
1, 2
1, 3
1, 0
2, 1
0, 0
0, 0
0, 0
0, 2
0, 1
0, 0
0, 1
3, 1
0, 0
1, 1
1, 0
0, 0
0, 1
0, 1
0, 1
0, 0
0, 0
0, 0
0, 1
1, 0
1, 0
0, 0
0, 0
0, 0
1, 0
0, 0
0, 0
0, 0
0, 1
0, 0
0, 1
0, 0
0, 1
1, 0
0, 0
1, 0
0, 0
0, 0
0, 0
1, 0
0, 0
0, 0
0, 0
1, 1
0, 0
0, 0
0, 0
0, 0
0, 0
0, 0
0, 0
0, 0
0, 0
0, 0
0, 0
0, 0
0, 0
0, 0
0, 0
0, 0
0, 0
0, 0
0, 0
0, 0
1, 0
0, 0
0, 1
0, 0
0, 0
0, 0
0, 0
0, 0
0, 0
0, 0
0, 0
0, 0
0, 0
0, 0
0, 0
0, 0
0, 0
0, 0
0, 0
0, 0
0, 0
0, 0
0, 0
0, 0
0, 0
0, 0
0, 0
0, 0
0, 0
0, 0
0, 0
0, 0
0, 0
0, 0
0, 0
0, 0
0, 0
0, 0
0, 0
0, 0
0, 0
0, 0
0, 0
0, 0
0, 0
0, 0
0, 0
0, 0
0, 0
0, 0
0, 0
0, 0
0, 0
0, 0
0, 0
0, 0
0, 0
0, 0
0, 0
0, 0
0, 0
0, 0
0, 0
0, 0
0, 0
0, 0
0, 0
0, 0
0, 0
0, 0
0, 0
0, 0
0, 0
0, 0
0, 0
0, 0
0, 0
0, 0
0, 0
0, 0
0, 0
0, 0
0, 0
0, 0
0, 0
0, 0
0, 0
0, 0
0, 0
0, 0
0, 0
#ENDOFDATA     end of spectrum data