File: host_upload/02-11-2024/rqc/uplink1/ps__0567_0717304816_000rfs_shot_287.msa
#FORMAT      : EMSA/MAS spectral data file
#VERSION     : TC202v2.0 PIXL
#TITLE       : Novarupta (sol567) subset1
#DATE        : 02-11-2024      Date in the format DD-MMM-YYYY, for example 07-JUL-2010
#TIME        :             The time of day at which the spectrum was recorded, in 24-hour format
#OWNER       : PIXL Flight Model       (PIXL will use this to indicate which instrument took the data.)
#NPOINTS     : 4096     Number of data points in the spectrum (This can be zero for configuration only files)
#NCOLUMNS    : 2     Number of data columns in the spectrum (This can be zero for configuration only files)
#XUNITS      : eV
#YUNITS      : COUNTS
#DATATYPE    : YY
#XPERCHAN    : 7.862, 7.881   eV per channel (separate by commas if more than one detector)
#OFFSET      : 18.5, -22.4         eV of first channel  (separate by commas if more than one detector
#SIGNALTYPE  : XRF
#YP_TEMP     : 1.466
#LIVETIME    : 8.8188, 8.814   seconds (separate by commas if more than one detector)
#REALTIME    : 10, 10.0   seconds (separate by commas if more than one detector)
#SPECTRUM    : start of spectrum data
0, 0
0, 0
0, 0
0, 0
0, 0
0, 0
0, 0
0, 2
2, 3
1, 3
4, 3
15, 10
11, 15
17, 32
45, 51
115, 117
522, 596
121, 116
38, 34
16, 34
59, 53
315, 311
118, 116
80, 97
257, 289
132, 144
71, 76
22, 28
10, 13
7, 6
31, 29
16, 17
18, 17
212, 213
340, 397
67, 53
60, 47
44, 56
17, 14
11, 10
18, 26
56, 66
49, 40
15, 18
16, 19
18, 24
22, 15
10, 17
19, 19
34, 35
25, 25
15, 18
14, 20
33, 40
45, 55
15, 22
29, 42
381, 521
1638, 1856
1130, 1068
109, 105
27, 12
17, 28
93, 105
235, 288
136, 154
17, 16
14, 11
14, 8
8, 8
5, 3
3, 7
7, 7
8, 10
5, 9
8, 13
6, 7
6, 4
7, 7
11, 14
4, 1
7, 5
5, 8
3, 9
5, 9
5, 5
3, 3
9, 6
4, 4
6, 5
8, 3
3, 3
1, 3
4, 3
2, 3
4, 1
6, 5
4, 4
4, 4
2, 5
2, 1
5, 3
4, 4
3, 3
1, 1
4, 3
2, 2
1, 4
1, 1
5, 1
1, 3
2, 2
1, 1
4, 1
0, 0
2, 1
5, 6
3, 1
1, 2
2, 1
3, 2
1, 1
1, 1
4, 2
2, 2
1, 3
0, 0
2, 1
0, 2
1, 1
2, 1
0, 3
1, 1
0, 1
0, 0
0, 0
1, 2
0, 1
1, 1
0, 1
0, 1
0, 0
1, 1
0, 0
3, 1
0, 3
0, 3
1, 0
0, 0
0, 3
0, 1
0, 1
0, 1
0, 0
0, 0
0, 0
0, 0
0, 0
0, 1
0, 0
1, 0
0, 0
0, 0
0, 0
0, 0
2, 0
0, 1
1, 0
0, 0
1, 0
0, 0
0, 0
0, 1
0, 0
0, 0
0, 0
0, 0
0, 0
0, 0
0, 0
0, 0
1, 0
3, 0
0, 0
0, 2
0, 0
0, 0
0, 0
0, 0
0, 0
0, 0
0, 0
0, 0
0, 0
0, 0
0, 0
0, 0
0, 0
0, 0
0, 0
0, 0
0, 0
0, 0
0, 0
0, 0
0, 0
0, 0
0, 0
0, 0
0, 0
0, 0
0, 0
0, 0
0, 0
0, 0
0, 0
0, 0
0, 0
0, 0
0, 0
0, 0
0, 0
0, 0
0, 0
0, 0
0, 0
0, 0
0, 0
0, 0
0, 0
0, 0
0, 0
0, 0
0, 0
0, 0
0, 0
0, 0
0, 0
0, 0
0, 0
0, 0
0, 0
0, 0
0, 0
0, 0
0, 0
0, 0
0, 0
0, 0
0, 0
0, 0
0, 0
0, 0
0, 0
0, 0
0, 0
0, 0
0, 0
0, 0
0, 0
0, 0
0, 0
0, 0
0, 0
0, 0
0, 0
0, 0
0, 0
0, 0
0, 0
0, 0
0, 0
0, 0
0, 0
0, 0
0, 0
0, 0
0, 0
0, 0
0, 0
0, 0
0, 0
0, 0
0, 0
0, 0
0, 0
0, 0
0, 0
0, 0
0, 0
0, 0
0, 0
0, 0
0, 0
#ENDOFDATA     end of spectrum data