File: host_upload/02-11-2024/rqc/uplink1/ps__0567_0717304816_000rfs_shot_139.msa
#FORMAT      : EMSA/MAS spectral data file
#VERSION     : TC202v2.0 PIXL
#TITLE       : Novarupta (sol567) subset1
#DATE        : 02-11-2024      Date in the format DD-MMM-YYYY, for example 07-JUL-2010
#TIME        :             The time of day at which the spectrum was recorded, in 24-hour format
#OWNER       : PIXL Flight Model       (PIXL will use this to indicate which instrument took the data.)
#NPOINTS     : 4096     Number of data points in the spectrum (This can be zero for configuration only files)
#NCOLUMNS    : 2     Number of data columns in the spectrum (This can be zero for configuration only files)
#XUNITS      : eV
#YUNITS      : COUNTS
#DATATYPE    : YY
#XPERCHAN    : 7.862, 7.881   eV per channel (separate by commas if more than one detector)
#OFFSET      : 18.5, -22.4         eV of first channel  (separate by commas if more than one detector
#SIGNALTYPE  : XRF
#YP_TEMP     : -0.042
#LIVETIME    : 8.83506, 8.81714   seconds (separate by commas if more than one detector)
#REALTIME    : 10, 10.0   seconds (separate by commas if more than one detector)
#SPECTRUM    : start of spectrum data
0, 0
0, 0
0, 0
0, 0
0, 0
0, 0
0, 0
0, 0
3, 2
3, 4
4, 3
11, 9
12, 14
26, 28
53, 46
113, 128
493, 557
120, 113
29, 33
22, 19
43, 67
275, 327
120, 124
71, 83
238, 249
104, 116
62, 90
22, 27
7, 6
6, 9
24, 26
14, 12
17, 21
225, 240
333, 342
56, 49
38, 48
54, 47
12, 18
6, 10
18, 31
73, 73
44, 42
13, 10
10, 15
17, 21
11, 10
11, 8
17, 24
27, 24
26, 29
12, 15
14, 8
38, 38
46, 50
18, 23
26, 30
384, 519
1539, 1802
973, 966
101, 85
16, 23
22, 19
81, 104
233, 232
155, 149
26, 19
10, 13
11, 12
12, 6
6, 10
2, 4
1, 7
6, 9
8, 14
11, 10
9, 13
8, 5
8, 10
9, 6
5, 7
4, 5
5, 7
4, 6
3, 4
2, 4
4, 7
2, 4
7, 4
4, 5
3, 3
2, 8
3, 4
5, 2
1, 3
5, 4
3, 1
1, 2
4, 2
4, 3
5, 2
2, 2
1, 0
2, 0
2, 2
4, 3
2, 1
3, 5
2, 1
2, 4
4, 2
1, 1
4, 6
4, 4
0, 0
3, 1
4, 6
0, 6
1, 1
4, 3
5, 1
2, 1
0, 1
1, 1
1, 2
0, 0
0, 2
1, 1
0, 1
1, 2
1, 0
2, 3
0, 3
0, 1
0, 1
0, 2
2, 1
0, 1
0, 3
0, 0
1, 1
0, 1
0, 1
0, 1
0, 0
1, 0
0, 2
1, 1
0, 0
0, 2
2, 0
0, 0
0, 1
1, 1
1, 1
1, 0
0, 1
0, 0
0, 1
1, 0
0, 0
1, 1
0, 1
1, 1
0, 0
0, 0
0, 1
0, 0
0, 0
0, 0
0, 0
1, 1
0, 1
0, 0
0, 1
0, 0
0, 0
0, 0
0, 0
0, 0
0, 0
0, 0
0, 0
0, 0
0, 0
0, 0
0, 0
0, 0
0, 0
0, 0
0, 0
0, 0
0, 0
0, 0
0, 0
0, 0
0, 0
0, 0
0, 0
0, 0
0, 0
0, 0
0, 0
0, 0
0, 0
0, 0
0, 0
0, 0
0, 0
0, 0
0, 0
0, 0
0, 1
0, 0
0, 0
0, 0
0, 0
0, 0
0, 0
0, 0
0, 0
0, 0
0, 0
0, 0
0, 0
0, 0
0, 0
0, 0
0, 0
0, 0
0, 0
0, 0
0, 0
0, 0
0, 0
0, 0
0, 0
0, 0
0, 0
0, 0
0, 0
0, 0
0, 0
0, 0
0, 0
0, 0
0, 0
0, 0
0, 0
0, 0
0, 0
0, 0
0, 0
0, 0
0, 0
0, 0
0, 0
0, 0
0, 0
0, 0
0, 0
0, 0
0, 0
0, 0
0, 0
0, 0
0, 0
0, 0
0, 0
0, 0
0, 0
0, 0
0, 0
0, 0
0, 0
0, 0
0, 0
0, 0
0, 0
0, 0
0, 0
0, 0
0, 0
0, 0
0, 0
0, 0
0, 0
0, 0
0, 0
0, 0
0, 0
0, 0
0, 0
0, 0
#ENDOFDATA     end of spectrum data