File: host_upload/02-11-2024/rqc/uplink1/ps__0567_0717304816_000rfs_shot_169.msa
#FORMAT      : EMSA/MAS spectral data file
#VERSION     : TC202v2.0 PIXL
#TITLE       : Novarupta (sol567) subset1
#DATE        : 02-11-2024      Date in the format DD-MMM-YYYY, for example 07-JUL-2010
#TIME        :             The time of day at which the spectrum was recorded, in 24-hour format
#OWNER       : PIXL Flight Model       (PIXL will use this to indicate which instrument took the data.)
#NPOINTS     : 4096     Number of data points in the spectrum (This can be zero for configuration only files)
#NCOLUMNS    : 2     Number of data columns in the spectrum (This can be zero for configuration only files)
#XUNITS      : eV
#YUNITS      : COUNTS
#DATATYPE    : YY
#XPERCHAN    : 7.862, 7.881   eV per channel (separate by commas if more than one detector)
#OFFSET      : 18.5, -22.4         eV of first channel  (separate by commas if more than one detector
#SIGNALTYPE  : XRF
#YP_TEMP     : 0.215
#LIVETIME    : 8.82344, 8.81209   seconds (separate by commas if more than one detector)
#REALTIME    : 10, 10.0   seconds (separate by commas if more than one detector)
#SPECTRUM    : start of spectrum data
0, 0
0, 0
0, 0
0, 0
0, 0
0, 0
0, 0
0, 1
3, 6
5, 3
2, 2
8, 13
12, 20
20, 25
41, 40
101, 127
490, 500
122, 111
36, 31
18, 27
56, 56
307, 328
102, 126
61, 89
226, 281
122, 101
77, 64
27, 24
13, 9
10, 5
24, 26
14, 19
25, 20
178, 240
295, 376
55, 53
41, 49
45, 43
15, 12
15, 9
18, 38
62, 78
41, 33
16, 15
18, 16
18, 16
7, 16
9, 11
14, 18
21, 32
21, 30
8, 7
13, 16
41, 47
41, 52
11, 25
33, 36
391, 499
1636, 1853
1013, 987
105, 101
18, 15
21, 27
80, 116
285, 281
172, 144
25, 13
7, 8
19, 10
9, 7
8, 7
9, 2
6, 2
5, 2
8, 8
5, 7
5, 3
11, 7
3, 12
14, 13
8, 10
3, 9
3, 7
3, 6
5, 4
3, 4
7, 4
1, 4
4, 6
2, 9
4, 7
7, 3
5, 4
6, 5
1, 3
5, 2
2, 3
7, 5
1, 4
2, 2
6, 4
3, 5
2, 1
4, 3
7, 4
2, 4
5, 0
1, 1
3, 0
2, 5
3, 3
0, 4
2, 2
1, 1
2, 4
2, 1
2, 3
2, 4
2, 2
1, 3
1, 3
3, 0
1, 3
0, 0
2, 2
0, 1
1, 0
0, 2
1, 2
0, 2
1, 0
0, 3
2, 0
0, 1
0, 2
1, 1
0, 2
1, 1
0, 1
0, 0
0, 0
0, 1
0, 0
0, 0
1, 1
1, 1
1, 1
1, 0
1, 0
0, 0
0, 0
0, 0
0, 0
0, 2
1, 0
0, 0
0, 0
1, 1
0, 0
0, 0
0, 0
1, 1
0, 0
0, 0
0, 0
0, 0
0, 0
1, 0
0, 1
0, 0
0, 1
0, 0
0, 0
0, 0
0, 0
0, 0
0, 0
0, 0
0, 0
0, 0
0, 0
0, 0
1, 0
1, 0
0, 0
0, 0
0, 0
0, 0
0, 0
0, 0
0, 0
0, 0
0, 0
0, 0
0, 0
0, 0
0, 0
0, 0
1, 0
0, 0
0, 0
0, 0
0, 0
0, 0
0, 0
0, 0
0, 0
0, 1
0, 0
0, 0
0, 0
0, 0
0, 0
0, 0
0, 0
0, 0
0, 0
0, 0
0, 0
0, 0
0, 0
0, 0
0, 0
0, 0
0, 0
0, 0
0, 0
0, 0
0, 0
0, 0
0, 0
0, 0
0, 0
0, 0
0, 0
0, 0
0, 0
0, 0
0, 0
0, 0
0, 0
0, 0
0, 0
0, 0
0, 0
0, 0
0, 0
0, 0
0, 0
0, 0
0, 0
0, 0
0, 0
0, 0
0, 0
0, 0
0, 0
0, 0
0, 0
0, 0
0, 0
0, 0
0, 0
0, 0
0, 0
0, 0
0, 0
0, 0
0, 0
0, 0
0, 0
0, 0
0, 0
0, 0
0, 0
0, 0
0, 0
0, 0
0, 0
0, 0
0, 0
0, 0
0, 0
0, 0
0, 0
0, 0
0, 0
0, 0
0, 0
0, 0
0, 0
0, 0
0, 0
0, 0
#ENDOFDATA     end of spectrum data