File: host_upload/02-11-2024/rqc/uplink1/ps__0567_0717304816_000rfs_shot_132.msa
#FORMAT      : EMSA/MAS spectral data file
#VERSION     : TC202v2.0 PIXL
#TITLE       : Novarupta (sol567) subset1
#DATE        : 02-11-2024      Date in the format DD-MMM-YYYY, for example 07-JUL-2010
#TIME        :             The time of day at which the spectrum was recorded, in 24-hour format
#OWNER       : PIXL Flight Model       (PIXL will use this to indicate which instrument took the data.)
#NPOINTS     : 4096     Number of data points in the spectrum (This can be zero for configuration only files)
#NCOLUMNS    : 2     Number of data columns in the spectrum (This can be zero for configuration only files)
#XUNITS      : eV
#YUNITS      : COUNTS
#DATATYPE    : YY
#XPERCHAN    : 7.862, 7.881   eV per channel (separate by commas if more than one detector)
#OFFSET      : 18.5, -22.4         eV of first channel  (separate by commas if more than one detector
#SIGNALTYPE  : XRF
#YP_TEMP     : -0.266
#LIVETIME    : 8.82638, 8.81797   seconds (separate by commas if more than one detector)
#REALTIME    : 10, 10.0   seconds (separate by commas if more than one detector)
#SPECTRUM    : start of spectrum data
0, 0
0, 0
0, 0
0, 0
0, 0
0, 0
0, 0
1, 0
4, 2
3, 3
2, 4
11, 14
16, 18
24, 21
38, 41
112, 131
485, 497
134, 113
23, 37
26, 19
51, 68
331, 307
123, 115
59, 85
223, 246
102, 124
69, 59
32, 36
6, 12
3, 4
30, 25
20, 10
21, 18
224, 256
316, 334
60, 43
42, 39
51, 50
14, 9
15, 8
22, 16
38, 63
21, 33
21, 11
9, 19
15, 20
11, 16
8, 8
16, 8
28, 26
18, 24
8, 12
21, 13
23, 40
38, 56
29, 22
41, 37
411, 515
1600, 1828
1031, 906
113, 82
13, 19
15, 30
82, 95
269, 286
153, 137
23, 15
8, 7
13, 9
14, 10
5, 4
6, 9
5, 6
6, 10
7, 6
7, 11
5, 8
4, 4
14, 9
10, 11
3, 9
6, 10
8, 6
6, 4
3, 10
4, 7
6, 3
3, 8
5, 0
1, 5
5, 7
2, 6
7, 6
4, 10
5, 3
1, 5
5, 2
6, 2
5, 2
4, 2
2, 4
2, 3
5, 1
5, 3
1, 2
5, 1
3, 2
1, 3
1, 2
3, 2
3, 3
2, 2
0, 2
3, 3
1, 1
3, 2
6, 3
1, 3
2, 3
2, 2
4, 1
1, 0
3, 1
0, 0
2, 0
1, 1
1, 2
4, 1
0, 0
1, 0
0, 3
1, 0
1, 1
2, 0
1, 0
2, 0
3, 2
0, 1
1, 1
2, 0
0, 2
2, 1
0, 1
2, 1
1, 1
0, 1
1, 0
1, 0
0, 1
1, 2
0, 0
0, 1
0, 1
1, 1
0, 0
0, 0
4, 0
2, 0
0, 0
2, 1
1, 1
0, 3
0, 0
0, 1
0, 0
1, 1
1, 0
0, 0
0, 0
0, 0
0, 1
1, 0
0, 0
0, 0
0, 0
1, 0
0, 0
0, 0
0, 0
0, 0
0, 0
0, 0
0, 0
0, 0
0, 0
0, 0
1, 0
0, 0
0, 0
0, 0
0, 1
0, 0
0, 0
0, 0
0, 0
0, 0
0, 0
0, 0
1, 0
1, 0
0, 0
0, 0
0, 0
0, 0
0, 0
0, 0
0, 0
0, 1
0, 0
0, 0
0, 0
0, 0
0, 0
0, 0
0, 0
0, 0
0, 1
0, 0
0, 0
0, 0
0, 0
0, 0
0, 0
0, 0
0, 0
0, 0
0, 0
0, 0
0, 0
0, 0
0, 0
0, 0
0, 0
0, 0
0, 0
0, 0
0, 0
0, 0
0, 0
0, 0
0, 0
0, 0
0, 0
0, 0
0, 0
0, 0
0, 0
0, 0
0, 0
0, 0
0, 0
0, 0
0, 0
0, 0
0, 0
0, 0
0, 0
0, 0
0, 0
0, 0
0, 0
0, 0
0, 0
0, 0
0, 0
0, 0
0, 0
0, 0
0, 0
0, 0
0, 0
0, 0
0, 0
0, 0
0, 0
0, 0
0, 0
0, 0
0, 0
0, 0
0, 0
0, 0
0, 0
0, 0
0, 0
0, 0
0, 0
0, 0
0, 0
0, 0
0, 0
0, 0
0, 0
0, 0
#ENDOFDATA     end of spectrum data