File: host_upload/02-11-2024/rqc/uplink1/ps__0567_0717304816_000rfs_shot_46.msa
#FORMAT      : EMSA/MAS spectral data file
#VERSION     : TC202v2.0 PIXL
#TITLE       : Novarupta (sol567) subset1
#DATE        : 02-11-2024      Date in the format DD-MMM-YYYY, for example 07-JUL-2010
#TIME        :             The time of day at which the spectrum was recorded, in 24-hour format
#OWNER       : PIXL Flight Model       (PIXL will use this to indicate which instrument took the data.)
#NPOINTS     : 4096     Number of data points in the spectrum (This can be zero for configuration only files)
#NCOLUMNS    : 2     Number of data columns in the spectrum (This can be zero for configuration only files)
#XUNITS      : eV
#YUNITS      : COUNTS
#DATATYPE    : YY
#XPERCHAN    : 7.862, 7.881   eV per channel (separate by commas if more than one detector)
#OFFSET      : 18.5, -22.4         eV of first channel  (separate by commas if more than one detector
#SIGNALTYPE  : XRF
#YP_TEMP     : -2.832
#LIVETIME    : 8.82978, 8.82651   seconds (separate by commas if more than one detector)
#REALTIME    : 10, 10.0   seconds (separate by commas if more than one detector)
#SPECTRUM    : start of spectrum data
0, 0
0, 0
0, 0
0, 0
0, 0
0, 0
0, 0
0, 1
3, 5
3, 1
2, 2
9, 12
14, 12
35, 29
50, 52
107, 145
454, 489
130, 115
32, 35
23, 22
61, 67
286, 325
116, 128
89, 77
230, 231
104, 123
76, 70
24, 31
8, 4
12, 8
28, 26
11, 13
29, 28
223, 277
306, 308
68, 38
41, 55
45, 44
16, 11
10, 5
32, 22
69, 62
30, 34
17, 15
15, 19
16, 19
18, 12
8, 4
14, 14
33, 34
28, 21
11, 7
10, 10
40, 39
47, 43
25, 20
50, 50
510, 653
1681, 1749
883, 803
88, 75
12, 22
18, 23
119, 135
246, 256
136, 128
17, 16
11, 11
9, 14
7, 8
6, 2
9, 7
6, 7
5, 11
6, 11
6, 8
7, 7
3, 5
13, 5
11, 10
9, 9
7, 4
3, 5
4, 4
9, 7
6, 5
5, 5
7, 7
3, 4
3, 7
1, 1
8, 3
2, 4
3, 3
2, 5
1, 2
6, 3
1, 3
4, 3
6, 2
0, 4
4, 6
2, 3
1, 3
3, 3
4, 0
2, 1
4, 2
1, 1
2, 3
3, 2
1, 1
0, 4
1, 4
5, 3
5, 2
4, 3
2, 5
1, 2
3, 2
0, 2
1, 5
2, 1
2, 0
0, 0
0, 0
1, 0
1, 0
1, 0
0, 0
1, 0
0, 0
3, 1
0, 1
0, 1
0, 0
2, 0
0, 0
2, 1
1, 0
1, 0
0, 1
1, 1
0, 0
0, 1
0, 0
1, 1
0, 0
1, 0
1, 0
0, 0
1, 0
1, 0
0, 1
0, 0
1, 0
0, 2
1, 1
1, 0
1, 2
0, 0
0, 0
0, 0
0, 2
0, 0
1, 0
1, 0
0, 0
1, 0
0, 1
0, 0
0, 0
0, 0
0, 0
0, 0
1, 0
1, 0
1, 0
0, 0
0, 0
0, 0
0, 0
0, 0
0, 0
0, 0
0, 0
0, 0
0, 0
0, 0
0, 0
0, 0
0, 0
0, 0
0, 0
0, 0
0, 0
0, 0
0, 0
0, 0
0, 0
0, 0
0, 0
0, 0
0, 0
0, 0
0, 0
0, 0
0, 0
0, 0
0, 0
0, 0
0, 0
0, 0
0, 0
0, 0
0, 0
0, 0
0, 0
0, 0
0, 0
1, 0
0, 0
0, 0
0, 0
0, 0
0, 0
0, 0
0, 0
0, 0
0, 0
0, 0
0, 0
0, 0
0, 0
0, 0
0, 0
0, 0
0, 0
0, 0
0, 0
0, 0
0, 0
0, 0
0, 0
0, 0
0, 0
0, 0
0, 0
0, 0
0, 0
0, 0
0, 0
0, 0
0, 0
0, 0
0, 0
0, 0
0, 0
0, 0
0, 0
0, 0
0, 0
0, 0
0, 0
0, 0
0, 0
0, 0
0, 0
0, 0
0, 0
0, 0
0, 0
0, 0
0, 0
0, 0
0, 0
0, 0
0, 0
0, 0
0, 0
0, 0
0, 0
0, 0
0, 0
0, 0
0, 0
0, 0
0, 0
0, 0
0, 0
0, 0
0, 0
0, 0
0, 0
#ENDOFDATA     end of spectrum data