File: host_upload/02-11-2024/rqc/uplink1/ps__0567_0717304816_000rfs_shot_498.msa
#FORMAT      : EMSA/MAS spectral data file
#VERSION     : TC202v2.0 PIXL
#TITLE       : Novarupta (sol567) subset1
#DATE        : 02-11-2024      Date in the format DD-MMM-YYYY, for example 07-JUL-2010
#TIME        :             The time of day at which the spectrum was recorded, in 24-hour format
#OWNER       : PIXL Flight Model       (PIXL will use this to indicate which instrument took the data.)
#NPOINTS     : 4096     Number of data points in the spectrum (This can be zero for configuration only files)
#NCOLUMNS    : 2     Number of data columns in the spectrum (This can be zero for configuration only files)
#XUNITS      : eV
#YUNITS      : COUNTS
#DATATYPE    : YY
#XPERCHAN    : 7.862, 7.881   eV per channel (separate by commas if more than one detector)
#OFFSET      : 18.5, -22.4         eV of first channel  (separate by commas if more than one detector
#SIGNALTYPE  : XRF
#YP_TEMP     : 1.947
#LIVETIME    : 8.82069, 8.80729   seconds (separate by commas if more than one detector)
#REALTIME    : 10, 10.0   seconds (separate by commas if more than one detector)
#SPECTRUM    : start of spectrum data
0, 0
0, 0
0, 0
0, 0
0, 0
0, 0
0, 0
0, 1
3, 3
1, 4
7, 2
10, 5
21, 10
19, 27
35, 65
116, 129
507, 559
139, 129
39, 27
17, 26
47, 64
310, 342
122, 144
62, 87
224, 235
119, 130
66, 74
29, 21
17, 14
5, 10
26, 32
13, 24
29, 14
236, 252
359, 361
41, 60
34, 51
47, 62
18, 13
12, 9
22, 29
51, 62
35, 41
20, 15
9, 19
20, 22
10, 14
14, 19
15, 12
25, 38
29, 22
18, 12
13, 6
33, 35
46, 52
19, 20
27, 46
340, 469
1630, 1866
1078, 1078
127, 117
16, 13
18, 20
69, 102
294, 263
171, 156
27, 17
11, 9
10, 12
11, 12
3, 5
8, 7
9, 6
5, 11
7, 15
5, 9
7, 6
8, 8
11, 6
11, 13
4, 7
2, 8
14, 7
6, 2
8, 5
5, 4
7, 4
5, 6
8, 7
3, 1
2, 4
5, 4
5, 5
2, 3
3, 3
4, 6
2, 2
2, 5
2, 3
3, 5
1, 6
5, 4
2, 1
1, 3
0, 5
2, 2
3, 0
4, 2
1, 4
2, 4
1, 1
3, 3
2, 3
2, 2
1, 3
5, 1
1, 5
1, 1
1, 3
4, 0
1, 3
1, 2
4, 0
1, 4
0, 0
1, 0
1, 2
1, 2
1, 2
3, 0
1, 0
0, 2
0, 1
0, 1
2, 0
0, 0
0, 2
0, 1
1, 0
0, 0
1, 2
2, 1
0, 1
1, 0
0, 0
2, 0
0, 0
0, 0
0, 1
1, 0
0, 0
1, 0
0, 1
0, 0
0, 0
1, 1
0, 1
0, 0
0, 0
0, 1
1, 1
0, 1
0, 0
1, 0
0, 0
0, 0
0, 0
0, 0
1, 1
0, 0
0, 0
0, 2
1, 0
0, 0
0, 1
0, 0
0, 0
0, 0
0, 0
0, 0
0, 0
0, 0
0, 0
0, 0
1, 0
0, 0
0, 0
0, 0
0, 0
0, 0
0, 0
0, 0
0, 0
0, 0
0, 0
0, 0
1, 0
0, 0
0, 0
0, 0
0, 0
0, 0
0, 0
0, 0
0, 0
0, 0
0, 0
0, 0
0, 0
0, 0
0, 0
0, 0
0, 0
0, 0
0, 0
0, 0
0, 0
0, 0
0, 0
0, 0
0, 0
0, 0
0, 0
0, 0
0, 0
0, 0
0, 0
0, 0
0, 0
0, 0
0, 0
0, 0
0, 0
0, 0
0, 0
0, 0
0, 0
0, 0
0, 0
0, 0
0, 0
0, 0
0, 0
0, 0
0, 0
0, 0
0, 0
0, 0
0, 0
0, 0
0, 0
0, 0
0, 0
0, 0
0, 0
0, 0
0, 0
0, 0
0, 0
0, 0
0, 0
0, 0
0, 0
0, 0
0, 0
0, 0
0, 0
0, 0
0, 0
0, 0
0, 0
0, 0
0, 0
0, 0
0, 0
0, 0
0, 0
0, 0
0, 0
0, 0
0, 0
0, 0
0, 0
0, 0
0, 0
0, 0
0, 0
0, 0
0, 0
0, 0
0, 0
0, 0
0, 0
0, 0
#ENDOFDATA     end of spectrum data