File: host_upload/02-11-2024/rqc/uplink1/ps__0567_0717304816_000rfs_shot_327.msa
#FORMAT      : EMSA/MAS spectral data file
#VERSION     : TC202v2.0 PIXL
#TITLE       : Novarupta (sol567) subset1
#DATE        : 02-11-2024      Date in the format DD-MMM-YYYY, for example 07-JUL-2010
#TIME        :             The time of day at which the spectrum was recorded, in 24-hour format
#OWNER       : PIXL Flight Model       (PIXL will use this to indicate which instrument took the data.)
#NPOINTS     : 4096     Number of data points in the spectrum (This can be zero for configuration only files)
#NCOLUMNS    : 2     Number of data columns in the spectrum (This can be zero for configuration only files)
#XUNITS      : eV
#YUNITS      : COUNTS
#DATATYPE    : YY
#XPERCHAN    : 7.862, 7.881   eV per channel (separate by commas if more than one detector)
#OFFSET      : 18.5, -22.4         eV of first channel  (separate by commas if more than one detector
#SIGNALTYPE  : XRF
#YP_TEMP     : 1.562
#LIVETIME    : 8.84227, 8.81592   seconds (separate by commas if more than one detector)
#REALTIME    : 10, 10.0   seconds (separate by commas if more than one detector)
#SPECTRUM    : start of spectrum data
0, 0
0, 0
0, 0
0, 0
0, 0
0, 0
0, 0
0, 1
5, 5
6, 1
2, 2
9, 9
6, 9
21, 24
30, 51
85, 129
492, 574
101, 125
25, 32
18, 25
54, 48
244, 303
113, 113
64, 76
199, 232
114, 123
70, 64
32, 36
8, 11
7, 8
20, 32
12, 24
11, 18
191, 251
323, 347
49, 42
46, 32
59, 53
13, 16
15, 7
15, 27
56, 73
27, 33
8, 20
12, 17
20, 25
12, 8
16, 15
15, 13
23, 29
14, 24
15, 12
9, 16
36, 40
37, 60
19, 16
30, 46
333, 448
1445, 1914
1077, 995
112, 114
23, 18
16, 23
70, 100
257, 280
154, 134
32, 19
6, 7
11, 16
5, 7
8, 9
4, 10
3, 6
8, 7
4, 14
13, 7
5, 8
4, 7
7, 6
8, 9
7, 4
3, 6
9, 5
9, 7
8, 3
8, 6
3, 7
8, 4
8, 4
5, 3
4, 1
2, 7
3, 7
5, 2
2, 6
2, 4
2, 4
1, 4
5, 5
6, 1
8, 3
7, 11
3, 2
3, 4
4, 5
1, 5
4, 1
2, 4
0, 3
2, 2
1, 3
2, 1
2, 2
1, 3
0, 1
2, 4
4, 1
2, 2
1, 3
1, 3
3, 1
3, 2
1, 3
2, 2
2, 1
2, 2
3, 1
1, 2
0, 1
0, 1
1, 4
1, 1
2, 0
0, 2
0, 0
1, 0
1, 0
0, 2
0, 2
0, 1
1, 1
1, 0
0, 1
0, 0
0, 1
0, 2
0, 1
0, 0
0, 1
0, 1
2, 0
0, 0
0, 1
0, 0
1, 0
0, 0
0, 0
0, 1
0, 1
1, 0
0, 0
0, 0
1, 1
0, 0
1, 0
1, 0
0, 1
0, 0
1, 0
0, 0
0, 1
0, 1
0, 1
0, 0
0, 0
1, 0
0, 1
1, 2
0, 0
0, 0
0, 0
1, 0
2, 0
0, 0
1, 0
0, 0
0, 0
0, 0
0, 0
0, 1
0, 0
0, 0
0, 0
0, 0
0, 0
1, 0
0, 0
0, 0
0, 0
0, 0
0, 0
0, 0
0, 1
0, 0
0, 0
0, 0
0, 0
0, 0
0, 0
0, 0
0, 0
0, 0
0, 0
0, 0
0, 0
0, 0
0, 0
0, 0
0, 0
0, 0
0, 0
0, 0
0, 0
0, 0
0, 0
0, 0
0, 0
0, 0
0, 0
0, 1
0, 0
0, 0
0, 0
0, 0
0, 0
0, 0
0, 0
0, 0
0, 0
0, 0
0, 0
0, 0
0, 0
0, 0
0, 0
0, 0
0, 0
0, 0
0, 0
0, 0
0, 0
0, 0
0, 0
0, 0
0, 0
0, 0
0, 0
0, 0
0, 0
0, 0
0, 0
0, 0
0, 0
0, 0
0, 0
0, 0
0, 0
0, 0
0, 0
0, 0
0, 0
0, 0
0, 0
0, 0
0, 0
0, 0
0, 0
0, 0
0, 0
0, 0
0, 0
0, 0
0, 0
0, 0
0, 0
0, 0
0, 0
0, 0
0, 0
0, 0
0, 0
0, 0
0, 0
0, 0
#ENDOFDATA     end of spectrum data