File: host_upload/02-11-2024/rqc/uplink1/ps__0567_0717304816_000rfs_shot_108.msa
#FORMAT      : EMSA/MAS spectral data file
#VERSION     : TC202v2.0 PIXL
#TITLE       : Novarupta (sol567) subset1
#DATE        : 02-11-2024      Date in the format DD-MMM-YYYY, for example 07-JUL-2010
#TIME        :             The time of day at which the spectrum was recorded, in 24-hour format
#OWNER       : PIXL Flight Model       (PIXL will use this to indicate which instrument took the data.)
#NPOINTS     : 4096     Number of data points in the spectrum (This can be zero for configuration only files)
#NCOLUMNS    : 2     Number of data columns in the spectrum (This can be zero for configuration only files)
#XUNITS      : eV
#YUNITS      : COUNTS
#DATATYPE    : YY
#XPERCHAN    : 7.862, 7.881   eV per channel (separate by commas if more than one detector)
#OFFSET      : 18.5, -22.4         eV of first channel  (separate by commas if more than one detector
#SIGNALTYPE  : XRF
#YP_TEMP     : -0.555
#LIVETIME    : 8.82644, 8.83153   seconds (separate by commas if more than one detector)
#REALTIME    : 10, 10.0   seconds (separate by commas if more than one detector)
#SPECTRUM    : start of spectrum data
0, 0
0, 0
0, 0
0, 0
0, 0
0, 0
0, 0
1, 0
3, 4
1, 1
3, 0
10, 5
13, 11
19, 21
35, 49
114, 119
483, 512
101, 115
30, 30
24, 23
62, 65
285, 307
104, 124
78, 66
224, 220
112, 108
76, 72
24, 23
6, 9
11, 14
24, 27
19, 23
18, 16
200, 232
281, 298
43, 40
47, 37
40, 47
19, 11
2, 11
21, 24
59, 72
34, 35
20, 20
20, 17
18, 21
15, 16
7, 9
13, 18
26, 25
21, 23
10, 12
15, 23
23, 49
50, 41
22, 18
34, 41
436, 544
1625, 1774
985, 916
107, 84
16, 21
13, 19
104, 127
260, 259
145, 110
17, 18
6, 6
11, 19
9, 13
5, 6
6, 7
3, 3
7, 9
8, 6
6, 9
4, 6
8, 11
15, 15
8, 15
5, 10
3, 5
10, 6
0, 5
4, 6
7, 11
3, 9
12, 7
5, 8
4, 6
5, 6
2, 7
4, 8
3, 5
5, 1
1, 7
2, 6
5, 4
2, 1
3, 3
0, 2
4, 0
0, 2
4, 6
1, 2
2, 3
2, 2
3, 4
1, 1
0, 2
1, 3
1, 4
2, 1
0, 1
3, 1
4, 4
0, 3
1, 0
0, 1
1, 2
1, 1
3, 5
2, 1
2, 1
1, 6
1, 0
2, 1
2, 1
3, 1
2, 0
1, 2
1, 0
0, 2
1, 0
1, 0
1, 2
0, 0
0, 1
1, 0
2, 0
0, 2
0, 3
0, 1
0, 1
1, 1
2, 0
0, 0
1, 0
0, 1
0, 0
0, 1
0, 0
0, 0
0, 0
0, 0
0, 1
0, 1
0, 0
1, 0
0, 1
0, 0
0, 0
0, 0
0, 0
0, 0
1, 0
0, 1
0, 1
0, 0
2, 0
0, 0
0, 0
0, 0
0, 0
0, 0
0, 0
0, 0
0, 0
1, 0
0, 0
1, 0
0, 0
1, 0
0, 0
0, 0
0, 0
0, 0
0, 0
1, 0
0, 0
0, 0
0, 0
0, 0
0, 0
0, 0
0, 0
0, 0
0, 0
0, 0
0, 0
0, 0
0, 0
0, 0
0, 0
0, 0
0, 0
0, 0
0, 0
0, 0
0, 0
0, 1
0, 0
0, 0
0, 0
0, 0
0, 0
0, 0
0, 0
0, 0
0, 0
0, 0
0, 0
0, 0
0, 0
0, 0
0, 0
0, 0
0, 0
0, 0
0, 0
0, 0
0, 0
0, 0
0, 0
0, 0
0, 0
0, 0
0, 0
0, 0
0, 0
0, 0
0, 0
0, 0
0, 0
0, 0
0, 0
0, 0
0, 0
0, 0
0, 0
0, 0
0, 0
0, 0
0, 0
0, 0
0, 0
0, 0
0, 0
0, 0
0, 0
0, 0
0, 0
0, 0
0, 0
0, 0
0, 0
0, 0
0, 0
0, 0
0, 0
0, 0
0, 0
0, 0
0, 0
0, 0
0, 0
0, 0
0, 0
0, 0
0, 0
0, 0
0, 0
0, 0
0, 0
0, 0
0, 0
0, 0
0, 0
0, 0
0, 0
0, 0
0, 0
0, 0
0, 0
#ENDOFDATA     end of spectrum data