File: host_upload/02-11-2024/rqc/uplink1/ps__0567_0717304816_000rfs_shot_257.msa
#FORMAT      : EMSA/MAS spectral data file
#VERSION     : TC202v2.0 PIXL
#TITLE       : Novarupta (sol567) subset1
#DATE        : 02-11-2024      Date in the format DD-MMM-YYYY, for example 07-JUL-2010
#TIME        :             The time of day at which the spectrum was recorded, in 24-hour format
#OWNER       : PIXL Flight Model       (PIXL will use this to indicate which instrument took the data.)
#NPOINTS     : 4096     Number of data points in the spectrum (This can be zero for configuration only files)
#NCOLUMNS    : 2     Number of data columns in the spectrum (This can be zero for configuration only files)
#XUNITS      : eV
#YUNITS      : COUNTS
#DATATYPE    : YY
#XPERCHAN    : 7.862, 7.881   eV per channel (separate by commas if more than one detector)
#OFFSET      : 18.5, -22.4         eV of first channel  (separate by commas if more than one detector
#SIGNALTYPE  : XRF
#YP_TEMP     : 1.177
#LIVETIME    : 8.82972, 8.64149   seconds (separate by commas if more than one detector)
#REALTIME    : 10, 10.0   seconds (separate by commas if more than one detector)
#SPECTRUM    : start of spectrum data
0, 0
0, 0
0, 0
0, 0
0, 0
0, 0
0, 0
0, 0
2, 1
6, 3
2, 2
7, 9
16, 11
27, 22
34, 44
92, 122
479, 535
114, 131
30, 40
22, 33
57, 56
269, 303
115, 116
70, 92
215, 259
103, 118
72, 72
21, 41
12, 11
9, 10
29, 28
18, 22
18, 17
186, 249
332, 370
56, 60
42, 54
43, 53
12, 10
5, 10
18, 35
57, 78
31, 31
11, 25
19, 17
20, 14
14, 11
8, 13
12, 18
29, 42
23, 27
9, 9
10, 17
30, 36
49, 52
10, 24
24, 38
395, 467
1608, 1909
1016, 1020
99, 105
21, 10
20, 20
73, 109
269, 282
175, 140
26, 17
10, 14
9, 18
10, 12
10, 4
6, 5
9, 8
7, 6
11, 5
5, 2
2, 4
9, 6
13, 9
16, 15
6, 8
3, 8
3, 5
8, 4
4, 5
4, 10
3, 5
3, 10
1, 8
3, 3
5, 1
6, 5
4, 7
2, 3
4, 9
4, 4
4, 2
3, 5
2, 3
1, 3
4, 3
3, 4
3, 5
4, 4
2, 8
2, 0
1, 4
3, 2
3, 2
3, 3
4, 2
0, 1
1, 2
1, 5
1, 2
2, 4
5, 2
1, 0
4, 7
1, 0
1, 4
0, 2
1, 0
0, 1
1, 0
3, 3
1, 1
3, 0
2, 1
0, 3
0, 0
2, 2
0, 1
0, 1
1, 0
0, 1
1, 0
1, 0
2, 0
0, 0
0, 0
0, 0
0, 0
0, 0
1, 0
0, 1
0, 0
0, 1
0, 0
0, 1
3, 0
0, 1
0, 2
0, 1
0, 0
0, 1
0, 0
1, 0
0, 0
0, 0
0, 0
2, 0
0, 0
0, 1
1, 0
1, 0
0, 1
1, 0
0, 0
0, 0
0, 0
0, 1
0, 2
0, 0
0, 0
0, 0
0, 0
0, 0
0, 1
0, 2
0, 0
1, 0
0, 0
0, 0
0, 0
1, 0
0, 0
1, 0
0, 0
0, 0
0, 0
1, 1
1, 0
0, 0
0, 0
0, 0
0, 0
0, 0
0, 0
0, 0
0, 0
0, 1
0, 0
0, 0
0, 0
0, 0
0, 0
0, 0
0, 0
0, 0
0, 0
0, 0
0, 0
0, 0
0, 0
0, 0
0, 0
0, 0
0, 0
0, 0
0, 0
0, 0
0, 0
0, 0
0, 0
0, 0
0, 0
0, 0
0, 0
0, 0
0, 0
0, 0
0, 0
0, 0
0, 0
0, 0
0, 0
0, 0
0, 0
0, 0
0, 0
0, 0
0, 0
0, 0
0, 0
0, 0
0, 0
0, 0
0, 0
0, 0
0, 0
0, 0
0, 0
0, 0
0, 0
0, 0
0, 0
0, 0
0, 0
0, 0
0, 0
0, 0
0, 0
0, 0
0, 0
0, 0
0, 0
0, 0
0, 0
0, 0
0, 0
0, 0
0, 0
0, 0
0, 0
0, 0
0, 0
0, 0
0, 0
0, 0
0, 0
0, 0
0, 0
0, 0
0, 0
0, 0
0, 0
0, 0
0, 0
0, 0
0, 0
0, 0
0, 0
0, 0
#ENDOFDATA     end of spectrum data