File: host_upload/02-11-2024/rqc/uplink1/ps__0567_0717304816_000rfs_shot_55.msa
#FORMAT      : EMSA/MAS spectral data file
#VERSION     : TC202v2.0 PIXL
#TITLE       : Novarupta (sol567) subset1
#DATE        : 02-11-2024      Date in the format DD-MMM-YYYY, for example 07-JUL-2010
#TIME        :             The time of day at which the spectrum was recorded, in 24-hour format
#OWNER       : PIXL Flight Model       (PIXL will use this to indicate which instrument took the data.)
#NPOINTS     : 4096     Number of data points in the spectrum (This can be zero for configuration only files)
#NCOLUMNS    : 2     Number of data columns in the spectrum (This can be zero for configuration only files)
#XUNITS      : eV
#YUNITS      : COUNTS
#DATATYPE    : YY
#XPERCHAN    : 7.862, 7.881   eV per channel (separate by commas if more than one detector)
#OFFSET      : 18.5, -22.4         eV of first channel  (separate by commas if more than one detector
#SIGNALTYPE  : XRF
#YP_TEMP     : -2.543
#LIVETIME    : 8.83403, 8.82014   seconds (separate by commas if more than one detector)
#REALTIME    : 10, 10.0   seconds (separate by commas if more than one detector)
#SPECTRUM    : start of spectrum data
0, 0
0, 0
0, 0
0, 0
0, 0
0, 0
0, 0
0, 0
0, 3
4, 6
2, 3
5, 12
14, 7
22, 29
40, 49
145, 129
479, 533
107, 100
34, 30
16, 18
69, 65
335, 357
121, 130
80, 89
207, 245
113, 106
71, 62
37, 39
7, 7
12, 8
29, 25
12, 12
23, 27
243, 287
310, 317
52, 37
45, 57
52, 47
12, 16
12, 6
16, 26
63, 78
34, 41
17, 14
15, 17
14, 21
11, 14
5, 6
12, 18
25, 32
19, 29
13, 12
11, 8
33, 38
36, 39
24, 30
51, 39
490, 582
1642, 1723
927, 785
87, 85
18, 18
21, 31
109, 118
248, 294
121, 123
20, 14
14, 11
8, 10
8, 9
6, 9
3, 8
4, 4
4, 6
2, 5
3, 5
5, 4
3, 9
8, 17
8, 6
7, 4
7, 10
6, 7
4, 2
6, 4
7, 3
3, 4
3, 7
1, 7
5, 4
5, 5
1, 9
3, 3
4, 2
3, 2
3, 4
3, 6
5, 6
2, 4
6, 3
1, 6
4, 3
2, 1
0, 4
3, 3
3, 2
3, 5
2, 3
0, 6
1, 1
0, 4
1, 1
3, 4
3, 2
1, 2
2, 4
1, 0
3, 2
1, 4
4, 0
0, 4
0, 0
3, 2
0, 0
0, 2
1, 0
1, 2
0, 0
0, 2
0, 0
0, 0
1, 0
1, 0
0, 1
1, 1
5, 1
1, 0
0, 1
2, 0
0, 0
0, 2
1, 0
0, 1
0, 0
0, 0
0, 2
1, 0
1, 0
0, 0
1, 0
1, 0
0, 0
0, 1
0, 1
1, 0
0, 0
0, 0
1, 1
0, 0
0, 0
0, 0
0, 0
0, 0
0, 0
0, 0
0, 1
0, 0
0, 0
0, 0
0, 0
0, 1
1, 0
0, 0
0, 0
0, 0
0, 0
0, 0
0, 1
1, 0
0, 0
0, 0
0, 1
0, 1
0, 0
0, 0
0, 0
0, 0
0, 0
0, 0
0, 0
0, 0
0, 0
0, 0
0, 0
0, 0
1, 1
0, 0
0, 0
0, 0
0, 0
0, 0
0, 0
0, 0
0, 0
0, 0
0, 0
0, 0
0, 0
0, 0
0, 0
0, 0
0, 0
0, 0
0, 0
0, 0
0, 0
0, 0
0, 0
0, 0
0, 0
0, 0
0, 0
0, 0
0, 0
0, 0
0, 0
0, 0
0, 0
0, 0
0, 0
0, 0
0, 0
0, 0
0, 0
0, 0
0, 0
0, 0
0, 0
0, 0
0, 0
0, 0
0, 0
0, 0
0, 0
0, 0
0, 0
0, 0
0, 0
0, 0
0, 0
0, 0
0, 0
0, 0
0, 0
0, 0
0, 0
0, 0
0, 0
0, 0
0, 0
0, 0
0, 0
0, 0
0, 0
0, 0
0, 0
0, 0
0, 0
0, 0
0, 0
0, 0
0, 0
0, 0
0, 0
0, 0
0, 0
0, 0
0, 0
0, 0
0, 0
0, 0
0, 0
0, 0
0, 0
0, 0
0, 0
0, 0
0, 0
0, 0
0, 0
0, 0
0, 0
0, 0
0, 0
#ENDOFDATA     end of spectrum data