File: host_upload/02-11-2024/rqc/uplink1/ps__0567_0717304816_000rfs_shot_75.msa
#FORMAT      : EMSA/MAS spectral data file
#VERSION     : TC202v2.0 PIXL
#TITLE       : Novarupta (sol567) subset1
#DATE        : 02-11-2024      Date in the format DD-MMM-YYYY, for example 07-JUL-2010
#TIME        :             The time of day at which the spectrum was recorded, in 24-hour format
#OWNER       : PIXL Flight Model       (PIXL will use this to indicate which instrument took the data.)
#NPOINTS     : 4096     Number of data points in the spectrum (This can be zero for configuration only files)
#NCOLUMNS    : 2     Number of data columns in the spectrum (This can be zero for configuration only files)
#XUNITS      : eV
#YUNITS      : COUNTS
#DATATYPE    : YY
#XPERCHAN    : 7.862, 7.881   eV per channel (separate by commas if more than one detector)
#OFFSET      : 18.5, -22.4         eV of first channel  (separate by commas if more than one detector
#SIGNALTYPE  : XRF
#YP_TEMP     : -1.774
#LIVETIME    : 8.85271, 8.82183   seconds (separate by commas if more than one detector)
#REALTIME    : 10, 10.0   seconds (separate by commas if more than one detector)
#SPECTRUM    : start of spectrum data
0, 0
0, 0
0, 0
0, 0
0, 0
0, 0
0, 0
1, 0
2, 3
1, 0
2, 5
14, 10
12, 15
23, 30
34, 52
98, 144
448, 572
120, 126
29, 37
16, 37
68, 80
250, 358
115, 111
78, 93
202, 243
102, 130
83, 71
39, 31
9, 9
5, 14
25, 28
10, 15
22, 30
222, 274
300, 370
58, 54
43, 47
45, 50
10, 16
10, 15
21, 27
62, 69
27, 31
17, 11
12, 12
15, 21
6, 11
12, 11
10, 16
31, 36
26, 26
9, 16
16, 11
28, 45
57, 40
21, 14
30, 54
446, 543
1481, 1833
890, 920
103, 88
13, 15
17, 20
94, 115
218, 270
136, 123
16, 17
11, 9
9, 15
11, 9
6, 8
4, 4
7, 10
10, 10
17, 5
6, 7
3, 5
9, 9
16, 6
12, 17
6, 8
5, 6
6, 8
7, 7
2, 10
8, 8
6, 3
3, 2
5, 3
4, 6
5, 7
4, 4
4, 3
2, 4
2, 2
6, 4
2, 2
3, 8
0, 4
5, 3
0, 4
1, 0
1, 5
1, 2
0, 1
0, 3
1, 4
3, 2
2, 4
1, 4
5, 3
3, 2
3, 5
2, 2
0, 3
3, 2
3, 2
2, 0
1, 0
0, 2
0, 0
5, 2
2, 0
2, 0
1, 2
2, 1
5, 0
1, 1
1, 0
1, 0
1, 0
0, 1
2, 0
1, 1
0, 1
2, 2
0, 0
1, 1
0, 1
0, 1
2, 1
0, 0
0, 0
1, 2
0, 1
0, 1
0, 1
0, 0
0, 0
0, 0
0, 0
1, 1
0, 0
0, 0
0, 1
0, 1
0, 0
0, 1
0, 1
0, 0
0, 0
1, 0
0, 1
0, 0
0, 0
0, 0
1, 0
0, 0
0, 0
1, 1
0, 0
0, 1
0, 0
0, 0
0, 0
0, 1
0, 1
0, 0
0, 0
0, 0
0, 0
0, 0
0, 0
0, 0
0, 0
0, 0
0, 0
0, 0
0, 0
0, 0
0, 1
0, 0
0, 1
0, 0
0, 0
0, 0
0, 0
0, 0
0, 0
0, 0
0, 0
1, 0
0, 0
0, 0
0, 0
0, 0
0, 0
0, 0
0, 0
0, 0
0, 0
0, 0
0, 0
0, 0
0, 0
0, 0
0, 0
0, 0
0, 0
0, 0
0, 0
0, 0
0, 0
0, 0
0, 0
0, 0
0, 0
0, 0
0, 0
0, 0
0, 0
0, 0
0, 0
0, 0
0, 0
0, 0
0, 0
0, 0
0, 0
0, 0
0, 0
0, 0
0, 0
0, 0
0, 0
0, 0
0, 0
0, 0
0, 0
0, 0
0, 0
0, 0
0, 0
0, 0
0, 0
0, 0
0, 0
0, 0
0, 0
0, 0
0, 0
0, 0
0, 0
0, 0
0, 0
0, 0
0, 0
0, 0
0, 0
0, 0
0, 0
0, 0
0, 0
0, 0
0, 0
0, 0
0, 0
0, 0
0, 0
0, 0
0, 0
0, 0
0, 0
0, 0
0, 0
0, 0
0, 0
0, 0
0, 0
0, 0
0, 0
0, 0
0, 0
0, 0
#ENDOFDATA     end of spectrum data