File: host_upload/02-11-2024/rqc/uplink1/ps__0567_0717304816_000rfs_shot_385.msa
#FORMAT      : EMSA/MAS spectral data file
#VERSION     : TC202v2.0 PIXL
#TITLE       : Novarupta (sol567) subset1
#DATE        : 02-11-2024      Date in the format DD-MMM-YYYY, for example 07-JUL-2010
#TIME        :             The time of day at which the spectrum was recorded, in 24-hour format
#OWNER       : PIXL Flight Model       (PIXL will use this to indicate which instrument took the data.)
#NPOINTS     : 4096     Number of data points in the spectrum (This can be zero for configuration only files)
#NCOLUMNS    : 2     Number of data columns in the spectrum (This can be zero for configuration only files)
#XUNITS      : eV
#YUNITS      : COUNTS
#DATATYPE    : YY
#XPERCHAN    : 7.862, 7.881   eV per channel (separate by commas if more than one detector)
#OFFSET      : 18.5, -22.4         eV of first channel  (separate by commas if more than one detector
#SIGNALTYPE  : XRF
#YP_TEMP     : 1.979
#LIVETIME    : 8.83364, 8.79878   seconds (separate by commas if more than one detector)
#REALTIME    : 10, 10.0   seconds (separate by commas if more than one detector)
#SPECTRUM    : start of spectrum data
0, 0
0, 0
0, 0
0, 0
0, 0
0, 0
0, 0
1, 0
3, 6
1, 8
1, 0
12, 11
15, 12
20, 22
50, 51
119, 144
465, 537
118, 108
39, 35
27, 29
47, 50
300, 347
134, 126
58, 61
228, 221
123, 105
90, 59
27, 33
10, 8
5, 14
32, 38
20, 27
17, 22
196, 242
363, 392
47, 58
37, 47
54, 47
17, 15
7, 8
35, 36
51, 58
34, 39
14, 20
13, 16
17, 17
12, 17
13, 13
14, 18
22, 35
27, 30
6, 11
15, 18
23, 34
33, 39
26, 29
35, 33
367, 451
1520, 1925
1037, 1017
122, 80
15, 13
27, 26
89, 102
264, 292
179, 168
19, 23
7, 6
13, 15
8, 9
5, 4
7, 4
7, 5
11, 6
8, 6
12, 11
3, 5
6, 12
9, 11
8, 8
8, 6
10, 4
6, 5
5, 5
9, 1
1, 6
5, 4
3, 6
4, 6
0, 7
8, 5
1, 5
4, 4
5, 5
2, 6
3, 6
6, 3
0, 4
6, 2
3, 6
3, 4
1, 6
6, 2
1, 0
3, 0
1, 4
2, 2
1, 2
1, 1
1, 4
4, 1
0, 1
0, 2
2, 1
1, 1
2, 2
4, 2
1, 1
1, 1
3, 0
3, 0
2, 3
0, 0
1, 1
2, 0
1, 0
0, 1
1, 3
1, 1
2, 1
1, 1
1, 0
3, 1
1, 0
0, 1
0, 1
1, 0
0, 1
0, 0
0, 0
3, 1
1, 0
1, 0
1, 0
1, 0
1, 0
1, 1
0, 1
2, 0
0, 0
0, 1
1, 0
0, 0
0, 0
0, 0
0, 1
0, 0
0, 1
0, 0
0, 1
0, 0
1, 0
1, 0
1, 0
0, 0
0, 0
0, 1
1, 0
0, 0
0, 1
1, 1
0, 1
1, 0
0, 0
0, 0
0, 0
1, 0
0, 1
0, 1
0, 0
0, 0
0, 0
0, 1
0, 0
0, 0
0, 1
0, 0
0, 0
0, 0
0, 0
0, 0
1, 0
0, 0
0, 1
0, 0
0, 0
0, 0
0, 0
0, 0
0, 0
0, 0
0, 0
0, 0
0, 0
0, 0
0, 0
1, 0
0, 0
0, 0
0, 0
1, 0
0, 0
0, 0
0, 0
0, 0
0, 0
0, 0
0, 0
0, 0
0, 0
0, 0
0, 0
0, 0
0, 0
0, 0
0, 0
0, 0
0, 0
0, 0
0, 0
0, 0
0, 0
0, 0
0, 0
0, 0
0, 0
0, 0
0, 0
0, 0
0, 0
0, 0
0, 0
0, 0
0, 0
0, 0
0, 0
0, 0
0, 0
0, 0
0, 0
0, 0
0, 0
0, 0
0, 0
0, 0
0, 0
0, 0
0, 0
0, 0
0, 0
0, 0
0, 0
0, 0
0, 0
0, 0
0, 0
0, 0
0, 0
0, 0
0, 0
0, 0
0, 0
0, 0
0, 0
0, 0
0, 0
0, 0
0, 0
0, 0
0, 0
0, 0
0, 0
0, 0
0, 0
0, 0
0, 0
0, 0
0, 0
0, 0
0, 0
0, 0
0, 0
0, 0
0, 0
#ENDOFDATA     end of spectrum data