File: host_upload/02-11-2024/rqc/uplink1/ps__0567_0717304816_000rfs_shot_270.msa
#FORMAT      : EMSA/MAS spectral data file
#VERSION     : TC202v2.0 PIXL
#TITLE       : Novarupta (sol567) subset1
#DATE        : 02-11-2024      Date in the format DD-MMM-YYYY, for example 07-JUL-2010
#TIME        :             The time of day at which the spectrum was recorded, in 24-hour format
#OWNER       : PIXL Flight Model       (PIXL will use this to indicate which instrument took the data.)
#NPOINTS     : 4096     Number of data points in the spectrum (This can be zero for configuration only files)
#NCOLUMNS    : 2     Number of data columns in the spectrum (This can be zero for configuration only files)
#XUNITS      : eV
#YUNITS      : COUNTS
#DATATYPE    : YY
#XPERCHAN    : 7.862, 7.881   eV per channel (separate by commas if more than one detector)
#OFFSET      : 18.5, -22.4         eV of first channel  (separate by commas if more than one detector
#SIGNALTYPE  : XRF
#YP_TEMP     : 1.113
#LIVETIME    : 8.83495, 8.81174   seconds (separate by commas if more than one detector)
#REALTIME    : 10, 10.0   seconds (separate by commas if more than one detector)
#SPECTRUM    : start of spectrum data
0, 0
0, 0
0, 0
0, 0
0, 0
0, 0
0, 0
2, 1
2, 4
5, 2
5, 2
5, 8
14, 19
26, 29
36, 49
102, 125
528, 541
140, 130
36, 35
16, 24
52, 54
316, 353
131, 122
77, 73
200, 223
92, 116
69, 72
19, 34
7, 10
9, 8
28, 34
16, 23
22, 18
222, 236
344, 400
74, 57
54, 46
38, 53
15, 10
6, 7
15, 23
54, 75
35, 28
9, 23
20, 14
15, 25
13, 17
8, 14
15, 14
25, 29
21, 31
13, 11
15, 12
37, 54
47, 61
23, 20
25, 38
339, 519
1619, 1744
1034, 965
104, 94
25, 14
11, 22
76, 94
254, 281
160, 141
31, 15
7, 14
11, 17
10, 8
8, 8
3, 3
7, 4
7, 5
4, 7
8, 7
3, 7
8, 6
14, 9
17, 12
10, 12
1, 6
2, 5
7, 4
4, 8
6, 6
7, 4
8, 4
13, 4
5, 5
5, 7
6, 12
4, 6
1, 5
2, 6
5, 4
2, 9
2, 2
7, 7
4, 4
3, 3
1, 3
3, 5
1, 3
1, 3
2, 4
0, 0
2, 4
5, 3
1, 3
0, 1
1, 2
0, 1
0, 4
2, 0
3, 3
1, 6
2, 3
2, 2
3, 2
1, 1
2, 4
3, 3
2, 0
0, 1
2, 0
1, 1
0, 4
2, 2
1, 3
0, 1
0, 1
1, 0
1, 0
0, 1
0, 2
2, 2
0, 0
0, 1
1, 1
0, 0
0, 2
1, 2
0, 1
0, 0
2, 1
0, 1
1, 0
0, 1
0, 0
1, 0
0, 0
0, 0
0, 0
0, 1
2, 1
0, 1
2, 1
0, 0
0, 0
0, 0
0, 0
0, 0
0, 1
0, 1
0, 1
1, 0
0, 0
0, 0
0, 1
0, 0
0, 1
1, 0
0, 0
0, 0
0, 0
0, 0
0, 0
0, 0
0, 0
0, 0
0, 0
0, 0
0, 0
1, 0
0, 0
0, 0
0, 0
0, 0
0, 0
0, 0
0, 0
1, 0
0, 0
0, 0
0, 0
0, 0
0, 0
0, 0
0, 0
0, 0
0, 0
0, 0
0, 0
0, 0
0, 0
0, 0
0, 0
0, 0
0, 0
0, 0
0, 0
0, 0
0, 0
0, 0
0, 0
0, 0
0, 0
0, 0
0, 0
0, 0
0, 0
0, 0
0, 0
0, 0
0, 0
0, 0
0, 0
0, 0
0, 0
0, 0
0, 0
0, 0
0, 0
0, 0
0, 0
0, 0
0, 0
0, 0
0, 0
0, 0
0, 0
0, 0
0, 0
0, 0
0, 0
0, 0
0, 0
0, 0
0, 0
0, 0
0, 0
0, 0
0, 0
0, 0
0, 0
0, 0
0, 0
0, 0
0, 0
0, 0
0, 0
0, 0
0, 0
0, 0
0, 0
0, 0
0, 0
0, 0
0, 0
0, 0
0, 0
0, 0
0, 0
0, 0
0, 0
0, 0
0, 0
0, 0
0, 0
0, 0
0, 0
0, 0
0, 0
0, 0
0, 0
0, 0
0, 0
0, 0
0, 0
0, 0
0, 0
0, 0
0, 0
#ENDOFDATA     end of spectrum data