File: host_upload/02-11-2024/rqc/uplink1/ps__0567_0717304816_000rfs_shot_106.msa
#FORMAT      : EMSA/MAS spectral data file
#VERSION     : TC202v2.0 PIXL
#TITLE       : Novarupta (sol567) subset1
#DATE        : 02-11-2024      Date in the format DD-MMM-YYYY, for example 07-JUL-2010
#TIME        :             The time of day at which the spectrum was recorded, in 24-hour format
#OWNER       : PIXL Flight Model       (PIXL will use this to indicate which instrument took the data.)
#NPOINTS     : 4096     Number of data points in the spectrum (This can be zero for configuration only files)
#NCOLUMNS    : 2     Number of data columns in the spectrum (This can be zero for configuration only files)
#XUNITS      : eV
#YUNITS      : COUNTS
#DATATYPE    : YY
#XPERCHAN    : 7.862, 7.881   eV per channel (separate by commas if more than one detector)
#OFFSET      : 18.5, -22.4         eV of first channel  (separate by commas if more than one detector
#SIGNALTYPE  : XRF
#YP_TEMP     : -0.876
#LIVETIME    : 8.83312, 8.81987   seconds (separate by commas if more than one detector)
#REALTIME    : 10, 10.0   seconds (separate by commas if more than one detector)
#SPECTRUM    : start of spectrum data
0, 0
0, 0
0, 0
0, 0
0, 0
0, 0
0, 0
1, 0
1, 5
4, 2
2, 1
14, 10
10, 14
20, 28
43, 42
120, 134
423, 498
124, 113
34, 25
16, 25
49, 59
259, 242
115, 121
72, 81
224, 244
118, 112
72, 79
24, 26
11, 12
11, 13
17, 23
17, 16
26, 18
211, 265
306, 299
50, 40
40, 40
34, 53
17, 7
15, 10
12, 24
56, 56
38, 36
13, 10
11, 17
21, 18
14, 13
18, 12
13, 13
23, 24
27, 19
11, 18
10, 21
32, 30
52, 60
26, 21
35, 39
425, 499
1522, 1795
1016, 900
128, 76
22, 12
22, 25
98, 122
248, 294
139, 152
20, 24
3, 10
10, 11
6, 3
5, 8
1, 5
5, 6
3, 11
2, 7
8, 5
4, 7
6, 9
9, 12
4, 11
5, 10
4, 4
6, 5
5, 7
5, 8
4, 8
4, 5
4, 6
6, 1
4, 7
3, 3
5, 9
5, 3
4, 4
2, 4
2, 1
1, 5
7, 4
2, 3
1, 3
3, 1
1, 3
6, 1
3, 2
3, 2
3, 0
2, 1
1, 5
6, 1
2, 1
0, 0
1, 5
1, 1
0, 2
3, 1
1, 7
4, 3
5, 1
1, 1
3, 1
2, 1
3, 2
1, 3
3, 0
0, 2
0, 0
0, 1
1, 0
0, 2
1, 1
0, 4
0, 2
2, 1
0, 1
0, 2
0, 2
0, 3
0, 1
0, 1
0, 0
1, 1
0, 1
0, 1
0, 0
0, 0
1, 0
1, 1
0, 0
1, 1
1, 0
0, 0
0, 0
0, 1
1, 0
1, 1
0, 0
0, 1
0, 0
1, 0
0, 0
0, 1
0, 1
1, 0
0, 1
1, 0
0, 0
0, 0
0, 0
0, 0
0, 0
0, 1
0, 0
1, 0
0, 0
0, 0
0, 0
0, 0
1, 0
0, 1
0, 1
0, 0
1, 0
0, 0
0, 0
0, 0
0, 0
0, 0
1, 0
0, 0
0, 1
0, 0
0, 0
0, 0
0, 0
0, 0
0, 0
1, 0
0, 0
0, 0
0, 0
0, 0
0, 1
0, 0
0, 0
0, 0
0, 0
0, 0
0, 0
0, 0
0, 0
0, 0
0, 0
0, 0
0, 0
0, 0
0, 0
0, 0
0, 0
0, 0
0, 0
0, 0
0, 0
0, 0
0, 0
0, 0
1, 0
0, 0
0, 0
0, 0
0, 0
0, 0
0, 0
0, 0
0, 0
0, 0
0, 0
0, 0
0, 0
0, 0
0, 0
0, 0
0, 0
0, 0
0, 0
0, 0
0, 0
0, 0
0, 0
0, 0
0, 0
0, 0
0, 0
0, 0
0, 0
0, 0
0, 0
0, 0
0, 0
0, 0
0, 0
0, 0
0, 0
0, 0
0, 0
0, 0
0, 0
0, 0
0, 0
0, 0
0, 0
0, 0
0, 0
0, 0
0, 0
0, 0
0, 0
0, 0
0, 0
0, 0
0, 0
0, 0
0, 0
0, 0
0, 0
0, 0
0, 0
0, 0
0, 0
0, 0
0, 0
0, 0
0, 0
0, 0
0, 0
#ENDOFDATA     end of spectrum data