File: host_upload/02-11-2024/rqc/uplink1/ps__0567_0717304816_000rfs_shot_185.msa
#FORMAT      : EMSA/MAS spectral data file
#VERSION     : TC202v2.0 PIXL
#TITLE       : Novarupta (sol567) subset1
#DATE        : 02-11-2024      Date in the format DD-MMM-YYYY, for example 07-JUL-2010
#TIME        :             The time of day at which the spectrum was recorded, in 24-hour format
#OWNER       : PIXL Flight Model       (PIXL will use this to indicate which instrument took the data.)
#NPOINTS     : 4096     Number of data points in the spectrum (This can be zero for configuration only files)
#NCOLUMNS    : 2     Number of data columns in the spectrum (This can be zero for configuration only files)
#XUNITS      : eV
#YUNITS      : COUNTS
#DATATYPE    : YY
#XPERCHAN    : 7.862, 7.881   eV per channel (separate by commas if more than one detector)
#OFFSET      : 18.5, -22.4         eV of first channel  (separate by commas if more than one detector
#SIGNALTYPE  : XRF
#YP_TEMP     : 0.439
#LIVETIME    : 8.83094, 8.64512   seconds (separate by commas if more than one detector)
#REALTIME    : 10, 10.0   seconds (separate by commas if more than one detector)
#SPECTRUM    : start of spectrum data
0, 0
0, 0
0, 0
0, 0
0, 0
0, 0
0, 0
2, 1
6, 4
4, 4
1, 3
6, 14
11, 5
16, 34
41, 41
90, 131
487, 540
120, 108
35, 34
25, 29
75, 63
277, 370
119, 145
66, 98
220, 254
140, 111
65, 61
23, 34
5, 1
7, 13
30, 28
21, 21
15, 19
245, 265
323, 348
47, 64
40, 53
55, 49
8, 16
7, 7
22, 31
57, 76
29, 33
15, 10
9, 18
18, 21
11, 15
4, 17
9, 13
23, 31
25, 22
17, 12
7, 11
32, 44
37, 39
19, 20
24, 37
364, 487
1580, 1799
1027, 973
99, 101
17, 22
27, 29
77, 103
244, 299
170, 167
24, 26
5, 9
9, 7
11, 9
8, 4
6, 13
3, 5
5, 7
7, 2
11, 11
6, 9
7, 5
8, 12
14, 18
3, 6
8, 8
8, 5
5, 7
3, 6
8, 9
5, 8
11, 6
3, 5
3, 4
4, 2
6, 6
3, 1
3, 4
3, 4
4, 5
0, 4
3, 5
2, 2
4, 3
1, 1
3, 4
2, 1
2, 4
2, 2
2, 0
0, 4
0, 4
4, 3
1, 5
4, 2
2, 2
1, 1
4, 0
3, 1
1, 2
4, 2
3, 4
1, 3
0, 1
3, 1
2, 1
3, 2
0, 1
0, 3
1, 0
0, 1
1, 0
0, 0
2, 0
1, 2
0, 1
1, 0
3, 1
0, 1
1, 0
1, 0
1, 0
2, 1
0, 0
2, 1
1, 1
1, 0
1, 3
1, 0
0, 1
1, 0
1, 0
0, 2
0, 1
0, 0
0, 0
0, 0
0, 0
0, 0
0, 1
0, 0
0, 1
0, 0
1, 1
0, 0
0, 0
0, 0
0, 0
0, 0
0, 1
2, 0
1, 0
0, 1
0, 1
0, 0
0, 0
0, 0
1, 1
0, 0
0, 0
0, 0
1, 0
0, 0
0, 0
0, 0
0, 0
0, 1
0, 0
0, 0
0, 0
0, 0
0, 0
0, 0
0, 0
0, 0
0, 0
0, 0
0, 0
1, 0
0, 0
0, 0
0, 0
0, 0
1, 0
0, 0
0, 0
0, 0
0, 0
0, 0
0, 0
0, 0
0, 0
0, 0
0, 0
0, 0
0, 0
0, 0
0, 0
0, 0
0, 0
0, 0
0, 0
0, 0
0, 0
0, 0
0, 0
0, 0
0, 0
0, 0
0, 0
0, 0
0, 0
0, 0
0, 0
0, 0
0, 0
0, 0
0, 0
0, 0
0, 0
0, 0
0, 0
0, 0
0, 0
0, 0
0, 0
0, 0
0, 0
0, 0
0, 0
0, 0
0, 0
0, 0
0, 0
0, 0
0, 0
0, 0
0, 0
0, 0
0, 0
0, 0
0, 0
0, 0
0, 0
0, 0
0, 0
0, 0
0, 0
0, 0
0, 0
0, 0
0, 0
0, 0
0, 0
0, 0
0, 0
0, 0
0, 0
0, 0
0, 0
0, 0
0, 0
0, 0
0, 0
0, 0
0, 0
0, 0
0, 0
0, 0
0, 0
0, 0
0, 0
0, 0
0, 0
0, 0
0, 0
0, 0
0, 0
#ENDOFDATA     end of spectrum data