File: host_upload/02-11-2024/rqc/uplink1/ps__0567_0717304816_000rfs_shot_275.msa
#FORMAT      : EMSA/MAS spectral data file
#VERSION     : TC202v2.0 PIXL
#TITLE       : Novarupta (sol567) subset1
#DATE        : 02-11-2024      Date in the format DD-MMM-YYYY, for example 07-JUL-2010
#TIME        :             The time of day at which the spectrum was recorded, in 24-hour format
#OWNER       : PIXL Flight Model       (PIXL will use this to indicate which instrument took the data.)
#NPOINTS     : 4096     Number of data points in the spectrum (This can be zero for configuration only files)
#NCOLUMNS    : 2     Number of data columns in the spectrum (This can be zero for configuration only files)
#XUNITS      : eV
#YUNITS      : COUNTS
#DATATYPE    : YY
#XPERCHAN    : 7.862, 7.881   eV per channel (separate by commas if more than one detector)
#OFFSET      : 18.5, -22.4         eV of first channel  (separate by commas if more than one detector
#SIGNALTYPE  : XRF
#YP_TEMP     : 1.145
#LIVETIME    : 8.82493, 8.8051   seconds (separate by commas if more than one detector)
#REALTIME    : 10, 10.0   seconds (separate by commas if more than one detector)
#SPECTRUM    : start of spectrum data
0, 0
0, 0
0, 0
0, 0
0, 0
0, 0
0, 0
0, 0
4, 3
4, 3
2, 4
11, 7
11, 12
29, 24
35, 37
103, 134
526, 544
140, 146
34, 34
25, 30
58, 59
314, 300
105, 107
77, 88
248, 245
118, 135
65, 69
30, 36
8, 13
6, 9
30, 27
13, 15
15, 20
211, 232
359, 345
59, 59
52, 44
53, 37
13, 9
9, 9
17, 26
54, 71
29, 28
15, 12
11, 19
24, 22
6, 14
9, 12
11, 17
33, 39
27, 17
12, 17
15, 12
34, 36
49, 59
19, 16
29, 36
379, 467
1618, 1852
1053, 1019
123, 110
14, 16
16, 20
68, 107
251, 286
184, 145
34, 16
8, 16
11, 9
9, 8
3, 7
5, 5
7, 5
7, 6
7, 2
5, 11
8, 8
3, 7
7, 7
17, 9
2, 5
8, 7
5, 10
8, 3
1, 9
8, 3
4, 7
5, 2
6, 3
9, 3
7, 0
7, 6
4, 3
3, 5
2, 1
3, 3
2, 0
5, 4
5, 5
2, 3
1, 3
1, 3
5, 2
0, 1
1, 3
2, 3
3, 2
0, 3
2, 4
3, 3
1, 4
3, 1
1, 4
0, 2
2, 3
7, 4
3, 5
4, 1
1, 4
3, 2
2, 2
2, 3
3, 3
2, 1
0, 1
0, 4
1, 1
4, 0
0, 2
2, 1
0, 0
1, 2
0, 0
2, 1
1, 1
1, 1
1, 1
0, 0
1, 2
0, 0
0, 0
0, 0
1, 1
1, 0
0, 0
0, 0
1, 0
0, 0
1, 1
0, 2
0, 0
0, 0
0, 1
0, 0
0, 0
0, 0
0, 0
0, 0
0, 0
0, 0
0, 0
0, 1
0, 0
0, 0
0, 1
0, 1
0, 0
0, 1
0, 1
0, 0
1, 1
0, 0
0, 0
0, 0
0, 1
0, 0
0, 0
0, 0
0, 1
0, 0
0, 0
0, 0
1, 0
0, 0
0, 0
0, 1
0, 0
0, 0
0, 0
0, 0
0, 1
0, 0
0, 0
0, 0
0, 0
0, 0
0, 0
0, 0
0, 0
0, 0
0, 1
0, 0
0, 0
0, 0
0, 0
0, 0
0, 0
0, 0
0, 0
0, 0
0, 0
0, 0
0, 0
0, 0
0, 0
0, 0
0, 0
0, 0
0, 0
0, 0
0, 0
0, 0
0, 0
0, 0
0, 0
0, 0
0, 0
0, 0
0, 0
0, 0
0, 0
0, 0
0, 0
0, 0
0, 0
0, 0
0, 0
0, 0
0, 0
0, 0
0, 0
0, 0
0, 0
0, 0
0, 0
0, 0
0, 0
0, 0
0, 0
0, 0
0, 0
0, 0
0, 0
0, 0
0, 0
0, 0
0, 0
0, 0
0, 0
0, 0
0, 0
0, 0
0, 0
0, 0
0, 0
0, 0
0, 0
0, 0
0, 0
0, 0
0, 0
0, 0
0, 0
0, 0
0, 0
0, 0
0, 0
0, 0
0, 0
0, 0
0, 0
0, 0
0, 0
0, 0
0, 0
0, 0
0, 0
0, 0
0, 0
0, 0
0, 0
0, 0
0, 0
0, 0
#ENDOFDATA     end of spectrum data