File: host_upload/02-11-2024/rqc/uplink1/ps__0567_0717304816_000rfs_shot_284.msa
#FORMAT      : EMSA/MAS spectral data file
#VERSION     : TC202v2.0 PIXL
#TITLE       : Novarupta (sol567) subset1
#DATE        : 02-11-2024      Date in the format DD-MMM-YYYY, for example 07-JUL-2010
#TIME        :             The time of day at which the spectrum was recorded, in 24-hour format
#OWNER       : PIXL Flight Model       (PIXL will use this to indicate which instrument took the data.)
#NPOINTS     : 4096     Number of data points in the spectrum (This can be zero for configuration only files)
#NCOLUMNS    : 2     Number of data columns in the spectrum (This can be zero for configuration only files)
#XUNITS      : eV
#YUNITS      : COUNTS
#DATATYPE    : YY
#XPERCHAN    : 7.862, 7.881   eV per channel (separate by commas if more than one detector)
#OFFSET      : 18.5, -22.4         eV of first channel  (separate by commas if more than one detector
#SIGNALTYPE  : XRF
#YP_TEMP     : 1.273
#LIVETIME    : 8.82256, 8.80117   seconds (separate by commas if more than one detector)
#REALTIME    : 10, 10.0   seconds (separate by commas if more than one detector)
#SPECTRUM    : start of spectrum data
0, 0
0, 0
0, 0
0, 0
0, 0
0, 0
0, 0
0, 0
6, 7
7, 1
4, 1
15, 8
16, 10
21, 25
36, 58
93, 114
524, 593
134, 120
23, 33
27, 22
49, 57
286, 351
141, 122
88, 80
251, 245
110, 125
69, 80
28, 33
13, 5
11, 13
18, 37
14, 18
14, 18
237, 276
344, 366
54, 59
47, 46
46, 54
9, 13
11, 14
26, 17
48, 73
43, 41
21, 18
11, 13
23, 23
16, 15
12, 11
16, 14
31, 35
27, 26
8, 9
12, 21
34, 50
48, 36
24, 29
26, 43
366, 507
1626, 1898
1077, 957
117, 82
16, 21
15, 20
92, 113
272, 280
182, 150
22, 21
8, 10
10, 12
11, 15
10, 5
9, 9
5, 10
8, 7
5, 11
9, 7
2, 13
10, 6
13, 10
10, 15
7, 10
7, 6
2, 3
4, 4
7, 7
4, 3
7, 5
4, 8
7, 8
4, 2
7, 2
5, 6
4, 7
6, 3
9, 4
9, 1
8, 4
6, 3
4, 8
5, 5
3, 5
1, 1
1, 2
1, 5
2, 3
0, 3
0, 3
2, 1
3, 3
2, 0
2, 4
2, 2
1, 1
0, 0
3, 2
4, 3
3, 2
5, 3
3, 0
0, 2
2, 2
1, 3
1, 5
0, 1
1, 2
0, 1
2, 0
1, 3
1, 0
1, 0
3, 0
0, 0
2, 1
0, 1
0, 0
0, 0
1, 0
1, 1
0, 1
2, 2
0, 0
0, 1
2, 1
0, 0
1, 0
1, 1
2, 2
0, 0
0, 1
0, 1
1, 0
1, 0
1, 0
0, 1
1, 0
0, 0
0, 0
1, 0
1, 0
0, 0
0, 1
0, 0
1, 0
0, 0
0, 0
0, 0
0, 0
0, 1
0, 0
0, 0
0, 1
0, 0
2, 0
0, 0
0, 1
0, 1
1, 0
0, 0
0, 1
0, 0
0, 0
2, 1
1, 0
1, 0
0, 1
0, 0
0, 0
0, 0
0, 0
0, 0
0, 0
0, 0
0, 0
0, 0
0, 0
0, 0
0, 0
0, 0
0, 0
0, 1
0, 0
0, 0
0, 0
0, 0
0, 0
0, 0
0, 0
0, 0
0, 0
0, 0
0, 0
0, 0
0, 0
0, 0
0, 0
0, 0
0, 0
0, 0
0, 0
0, 0
0, 0
0, 0
0, 0
0, 0
0, 0
0, 0
0, 0
0, 0
0, 0
0, 0
0, 0
0, 0
0, 0
0, 0
0, 0
0, 0
0, 0
0, 0
0, 0
0, 0
0, 0
0, 0
0, 0
0, 0
0, 0
0, 0
0, 0
0, 0
0, 0
0, 0
0, 0
0, 0
0, 0
0, 0
0, 0
0, 0
0, 0
0, 0
0, 0
0, 0
0, 0
0, 0
0, 0
0, 0
0, 0
0, 0
0, 0
0, 0
0, 0
0, 0
0, 0
0, 0
0, 0
0, 0
0, 0
0, 0
0, 0
0, 0
0, 0
0, 0
0, 0
0, 0
0, 0
0, 0
0, 0
0, 0
0, 0
0, 0
0, 0
0, 0
0, 0
0, 0
0, 0
0, 0
#ENDOFDATA     end of spectrum data