File: host_upload/02-11-2024/rqc/uplink1/ps__0567_0717304816_000rfs_shot_22.msa
#FORMAT      : EMSA/MAS spectral data file
#VERSION     : TC202v2.0 PIXL
#TITLE       : Novarupta (sol567) subset1
#DATE        : 02-11-2024      Date in the format DD-MMM-YYYY, for example 07-JUL-2010
#TIME        :             The time of day at which the spectrum was recorded, in 24-hour format
#OWNER       : PIXL Flight Model       (PIXL will use this to indicate which instrument took the data.)
#NPOINTS     : 4096     Number of data points in the spectrum (This can be zero for configuration only files)
#NCOLUMNS    : 2     Number of data columns in the spectrum (This can be zero for configuration only files)
#XUNITS      : eV
#YUNITS      : COUNTS
#DATATYPE    : YY
#XPERCHAN    : 7.862, 7.881   eV per channel (separate by commas if more than one detector)
#OFFSET      : 18.5, -22.4         eV of first channel  (separate by commas if more than one detector
#SIGNALTYPE  : XRF
#YP_TEMP     : -4.115
#LIVETIME    : 8.84632, 8.8202   seconds (separate by commas if more than one detector)
#REALTIME    : 10, 10.0   seconds (separate by commas if more than one detector)
#SPECTRUM    : start of spectrum data
0, 0
0, 0
0, 0
0, 0
0, 0
0, 0
0, 0
1, 1
6, 3
3, 6
4, 3
10, 19
5, 11
31, 23
39, 48
140, 141
415, 469
110, 95
34, 42
18, 23
88, 72
264, 318
101, 117
78, 91
226, 247
106, 129
76, 70
24, 34
10, 5
8, 10
29, 28
14, 13
40, 28
262, 296
301, 273
57, 49
45, 55
38, 45
11, 13
9, 6
36, 36
61, 59
26, 37
15, 9
18, 15
19, 24
10, 11
7, 8
16, 24
31, 42
27, 12
14, 13
25, 14
48, 33
45, 48
24, 17
60, 61
556, 659
1702, 1760
799, 663
94, 66
11, 10
25, 33
126, 151
227, 242
111, 98
15, 13
11, 7
11, 5
8, 14
7, 6
8, 8
6, 6
6, 6
5, 5
7, 6
9, 5
8, 8
9, 11
13, 10
7, 7
6, 13
6, 9
4, 4
3, 5
7, 7
2, 7
5, 11
4, 6
2, 3
2, 4
4, 4
5, 4
5, 3
4, 4
3, 2
2, 5
3, 5
1, 2
7, 5
6, 3
2, 3
2, 2
1, 6
4, 3
3, 1
7, 2
2, 2
0, 4
1, 3
2, 0
3, 1
3, 1
2, 2
4, 2
2, 1
4, 2
2, 1
1, 2
4, 0
1, 1
0, 0
2, 2
0, 1
2, 1
2, 2
1, 2
2, 3
5, 2
1, 1
0, 0
0, 2
0, 1
2, 0
2, 3
1, 0
2, 1
0, 5
1, 1
0, 0
0, 0
1, 1
1, 1
1, 0
0, 0
1, 0
1, 0
0, 0
0, 0
0, 0
0, 1
0, 0
0, 0
1, 0
1, 0
1, 0
0, 2
0, 0
0, 1
0, 0
0, 0
0, 0
0, 0
0, 0
0, 1
0, 0
0, 0
0, 0
1, 0
0, 0
0, 0
0, 0
0, 3
0, 0
0, 0
0, 0
0, 0
0, 0
0, 0
0, 0
0, 0
0, 0
0, 0
0, 0
0, 1
0, 1
0, 0
0, 0
0, 1
0, 0
0, 0
0, 0
0, 0
0, 0
1, 0
0, 0
0, 0
1, 0
0, 0
0, 0
0, 0
0, 0
0, 1
0, 0
0, 0
0, 0
0, 0
0, 0
0, 0
0, 0
0, 0
0, 0
0, 0
0, 0
0, 0
0, 0
0, 0
0, 0
0, 0
0, 0
0, 0
0, 0
0, 0
0, 0
1, 0
0, 0
0, 0
0, 0
0, 0
0, 0
0, 0
0, 0
0, 0
0, 0
0, 0
0, 0
0, 0
0, 0
0, 0
0, 0
0, 0
0, 0
0, 0
0, 0
0, 0
0, 0
0, 0
0, 0
0, 0
0, 0
0, 0
0, 0
0, 0
0, 0
0, 0
0, 0
0, 0
0, 0
0, 0
0, 0
0, 0
0, 0
0, 0
0, 0
0, 0
0, 0
0, 0
0, 0
0, 0
0, 0
0, 0
0, 0
0, 0
0, 0
0, 0
0, 0
0, 0
0, 0
0, 0
0, 0
0, 0
0, 0
0, 0
0, 0
0, 0
0, 0
0, 0
0, 0
0, 0
0, 0
0, 0
0, 0
0, 0
0, 0
#ENDOFDATA     end of spectrum data