File: host_upload/02-11-2024/rqc/uplink1/ps__0567_0717304816_000rfs_shot_463.msa
#FORMAT      : EMSA/MAS spectral data file
#VERSION     : TC202v2.0 PIXL
#TITLE       : Novarupta (sol567) subset1
#DATE        : 02-11-2024      Date in the format DD-MMM-YYYY, for example 07-JUL-2010
#TIME        :             The time of day at which the spectrum was recorded, in 24-hour format
#OWNER       : PIXL Flight Model       (PIXL will use this to indicate which instrument took the data.)
#NPOINTS     : 4096     Number of data points in the spectrum (This can be zero for configuration only files)
#NCOLUMNS    : 2     Number of data columns in the spectrum (This can be zero for configuration only files)
#XUNITS      : eV
#YUNITS      : COUNTS
#DATATYPE    : YY
#XPERCHAN    : 7.862, 7.881   eV per channel (separate by commas if more than one detector)
#OFFSET      : 18.5, -22.4         eV of first channel  (separate by commas if more than one detector
#SIGNALTYPE  : XRF
#YP_TEMP     : 1.818
#LIVETIME    : 8.85051, 8.81608   seconds (separate by commas if more than one detector)
#REALTIME    : 10, 10.0   seconds (separate by commas if more than one detector)
#SPECTRUM    : start of spectrum data
0, 0
0, 0
0, 0
0, 0
0, 0
0, 0
0, 0
1, 0
5, 5
5, 7
5, 4
9, 10
14, 25
17, 29
41, 45
99, 125
497, 548
120, 116
17, 41
16, 29
38, 53
307, 302
118, 129
76, 76
217, 250
110, 117
65, 87
28, 30
9, 7
7, 8
23, 27
14, 15
16, 16
183, 219
317, 343
47, 53
31, 44
46, 52
9, 17
8, 14
24, 22
56, 64
25, 42
11, 13
15, 7
14, 18
17, 16
5, 12
10, 18
22, 24
26, 29
13, 9
14, 15
32, 31
36, 61
21, 24
20, 26
322, 497
1543, 1811
1017, 1060
105, 109
17, 19
13, 12
77, 95
217, 256
173, 172
22, 18
5, 9
7, 10
5, 9
2, 4
3, 7
3, 3
6, 14
7, 7
5, 13
6, 6
7, 7
9, 13
7, 10
2, 7
7, 8
5, 5
5, 5
5, 7
5, 6
7, 3
5, 5
4, 4
4, 4
4, 5
4, 2
2, 5
4, 1
6, 3
5, 5
1, 2
3, 5
1, 1
1, 1
3, 2
4, 4
4, 3
2, 6
3, 1
1, 1
5, 1
1, 3
3, 3
1, 0
1, 2
0, 0
0, 1
2, 4
1, 2
2, 1
1, 2
2, 0
2, 0
1, 0
4, 2
2, 1
5, 3
4, 0
0, 1
0, 0
0, 1
0, 0
3, 2
1, 5
1, 0
0, 2
0, 1
1, 2
0, 1
0, 1
0, 1
1, 0
0, 1
0, 1
0, 0
1, 1
0, 1
1, 0
0, 0
0, 1
0, 1
0, 1
0, 1
0, 0
1, 0
1, 0
0, 1
0, 1
0, 0
0, 1
0, 0
1, 1
0, 1
0, 0
1, 0
0, 0
0, 0
0, 0
0, 0
0, 1
0, 0
0, 0
0, 0
0, 1
0, 0
0, 0
0, 0
0, 0
1, 1
0, 0
0, 0
0, 1
0, 0
0, 0
0, 0
0, 1
0, 0
0, 1
0, 0
0, 2
0, 0
0, 0
0, 0
0, 0
0, 0
0, 0
0, 0
0, 0
0, 0
0, 0
0, 0
0, 0
0, 0
0, 0
0, 0
0, 0
0, 0
0, 0
0, 0
0, 0
0, 0
0, 0
0, 0
0, 0
0, 0
0, 0
0, 0
0, 0
0, 0
0, 0
0, 0
0, 0
0, 0
0, 0
0, 0
0, 0
0, 0
0, 0
0, 0
0, 0
0, 0
0, 0
0, 0
0, 0
0, 0
0, 0
0, 0
0, 0
0, 0
0, 0
0, 0
0, 0
0, 0
0, 0
0, 0
0, 0
0, 0
0, 0
0, 0
0, 0
0, 0
0, 0
0, 0
0, 0
0, 0
0, 0
0, 0
0, 0
0, 0
0, 0
0, 0
0, 0
0, 0
0, 0
0, 0
0, 0
0, 0
0, 0
0, 0
0, 0
0, 0
0, 0
0, 0
0, 0
0, 0
0, 0
0, 0
0, 0
0, 0
0, 0
0, 0
0, 0
0, 0
0, 0
0, 0
0, 0
0, 0
0, 0
0, 0
0, 0
0, 0
0, 0
0, 0
0, 0
0, 0
0, 0
0, 0
0, 0
#ENDOFDATA     end of spectrum data