File: host_upload/02-11-2024/rqc/uplink1/ps__0567_0717304816_000rfs_shot_25.msa
#FORMAT      : EMSA/MAS spectral data file
#VERSION     : TC202v2.0 PIXL
#TITLE       : Novarupta (sol567) subset1
#DATE        : 02-11-2024      Date in the format DD-MMM-YYYY, for example 07-JUL-2010
#TIME        :             The time of day at which the spectrum was recorded, in 24-hour format
#OWNER       : PIXL Flight Model       (PIXL will use this to indicate which instrument took the data.)
#NPOINTS     : 4096     Number of data points in the spectrum (This can be zero for configuration only files)
#NCOLUMNS    : 2     Number of data columns in the spectrum (This can be zero for configuration only files)
#XUNITS      : eV
#YUNITS      : COUNTS
#DATATYPE    : YY
#XPERCHAN    : 7.862, 7.881   eV per channel (separate by commas if more than one detector)
#OFFSET      : 18.5, -22.4         eV of first channel  (separate by commas if more than one detector
#SIGNALTYPE  : XRF
#YP_TEMP     : -4.275
#LIVETIME    : 8.83708, 8.82704   seconds (separate by commas if more than one detector)
#REALTIME    : 10, 10.0   seconds (separate by commas if more than one detector)
#SPECTRUM    : start of spectrum data
0, 0
0, 0
0, 0
0, 0
0, 0
0, 0
0, 0
1, 1
3, 4
1, 2
3, 2
9, 8
6, 22
30, 26
52, 45
144, 148
488, 487
116, 106
38, 35
20, 26
64, 72
280, 285
116, 107
72, 103
210, 221
98, 105
74, 73
25, 27
9, 8
6, 17
25, 30
16, 12
23, 43
270, 284
289, 302
38, 48
42, 58
30, 39
7, 16
8, 9
19, 31
71, 67
26, 31
12, 22
9, 13
23, 17
15, 11
10, 9
16, 21
18, 35
19, 29
11, 3
24, 11
44, 32
47, 37
16, 24
61, 63
567, 703
1600, 1816
777, 718
70, 54
7, 22
24, 25
140, 136
238, 270
114, 100
22, 17
7, 9
17, 12
8, 6
6, 6
6, 8
5, 4
5, 8
13, 10
5, 8
4, 8
4, 3
11, 10
9, 10
6, 5
7, 6
8, 8
3, 7
1, 11
4, 3
5, 5
4, 0
4, 1
3, 6
4, 5
3, 5
5, 3
8, 3
2, 3
2, 5
4, 5
7, 3
4, 2
4, 0
4, 6
2, 3
3, 8
3, 3
1, 0
0, 3
2, 4
4, 0
3, 1
3, 1
2, 6
2, 2
1, 2
0, 1
1, 1
5, 2
2, 1
2, 3
1, 3
2, 0
3, 1
3, 1
0, 0
2, 2
2, 1
1, 2
0, 3
2, 0
1, 0
1, 0
1, 4
1, 0
2, 0
0, 0
0, 0
1, 0
2, 0
1, 1
1, 1
0, 1
0, 1
0, 0
1, 0
0, 0
0, 0
0, 1
0, 0
0, 1
0, 0
0, 1
0, 0
0, 0
0, 0
0, 0
0, 0
0, 0
1, 0
0, 1
0, 1
0, 0
0, 0
1, 0
0, 1
0, 0
1, 0
1, 0
1, 1
0, 0
0, 1
0, 0
0, 0
1, 0
0, 0
0, 0
0, 0
1, 0
0, 0
0, 0
0, 0
0, 0
0, 0
0, 0
0, 0
0, 0
0, 1
0, 0
0, 0
0, 1
0, 0
0, 0
0, 0
0, 0
0, 1
0, 1
0, 0
0, 0
0, 0
0, 0
1, 0
0, 0
0, 0
0, 0
0, 0
0, 0
0, 0
0, 0
0, 0
0, 0
0, 0
0, 0
0, 0
0, 0
0, 0
0, 0
0, 0
0, 0
0, 0
0, 0
0, 0
0, 0
0, 0
0, 0
0, 0
0, 0
0, 0
0, 0
0, 0
0, 0
0, 0
0, 0
0, 0
0, 0
0, 0
0, 0
0, 0
0, 0
0, 0
0, 0
0, 0
0, 0
0, 0
0, 0
0, 0
0, 0
0, 0
0, 0
0, 0
0, 0
0, 0
0, 0
0, 0
0, 0
0, 0
0, 0
0, 0
0, 0
0, 0
0, 0
0, 0
0, 0
0, 0
0, 0
0, 0
0, 0
0, 0
0, 0
0, 0
0, 0
0, 0
0, 0
0, 0
0, 0
0, 0
0, 0
0, 0
0, 0
0, 0
0, 0
0, 0
0, 0
0, 0
0, 0
0, 0
0, 0
0, 0
0, 0
0, 0
0, 0
0, 0
0, 0
0, 0
0, 0
0, 0
0, 0
#ENDOFDATA     end of spectrum data