File: host_upload/02-11-2024/rqc/uplink1/ps__0567_0717304816_000rfs_shot_109.msa
#FORMAT      : EMSA/MAS spectral data file
#VERSION     : TC202v2.0 PIXL
#TITLE       : Novarupta (sol567) subset1
#DATE        : 02-11-2024      Date in the format DD-MMM-YYYY, for example 07-JUL-2010
#TIME        :             The time of day at which the spectrum was recorded, in 24-hour format
#OWNER       : PIXL Flight Model       (PIXL will use this to indicate which instrument took the data.)
#NPOINTS     : 4096     Number of data points in the spectrum (This can be zero for configuration only files)
#NCOLUMNS    : 2     Number of data columns in the spectrum (This can be zero for configuration only files)
#XUNITS      : eV
#YUNITS      : COUNTS
#DATATYPE    : YY
#XPERCHAN    : 7.862, 7.881   eV per channel (separate by commas if more than one detector)
#OFFSET      : 18.5, -22.4         eV of first channel  (separate by commas if more than one detector
#SIGNALTYPE  : XRF
#YP_TEMP     : -0.779
#LIVETIME    : 8.83552, 8.82876   seconds (separate by commas if more than one detector)
#REALTIME    : 10, 10.0   seconds (separate by commas if more than one detector)
#SPECTRUM    : start of spectrum data
0, 0
0, 0
0, 0
0, 0
0, 0
0, 0
0, 0
1, 0
2, 3
5, 3
4, 2
11, 9
11, 14
23, 30
46, 36
112, 126
474, 483
110, 108
27, 24
17, 11
56, 55
307, 318
112, 116
78, 72
253, 225
109, 110
62, 67
25, 29
11, 13
8, 6
23, 27
17, 16
17, 19
220, 234
315, 283
49, 50
43, 46
56, 49
15, 22
3, 7
23, 21
66, 56
41, 32
22, 16
14, 11
15, 19
16, 17
13, 11
15, 7
21, 25
14, 25
15, 13
4, 14
33, 34
43, 43
18, 15
33, 45
390, 499
1639, 1741
1017, 902
116, 83
21, 20
25, 18
108, 131
236, 257
141, 132
16, 19
15, 13
18, 20
8, 8
4, 6
6, 10
5, 8
3, 6
10, 11
8, 8
8, 6
5, 6
16, 10
13, 14
4, 8
3, 4
5, 3
8, 8
5, 4
4, 7
7, 4
3, 4
5, 9
1, 4
5, 5
1, 7
3, 2
6, 4
3, 3
3, 3
3, 2
2, 0
3, 2
6, 2
0, 1
1, 4
3, 4
1, 2
1, 2
2, 5
1, 3
1, 3
2, 3
2, 3
0, 2
2, 3
2, 1
1, 1
1, 1
2, 3
5, 3
1, 2
3, 1
2, 3
0, 1
0, 0
1, 1
1, 3
0, 1
0, 1
1, 1
3, 1
4, 1
2, 0
1, 1
0, 1
1, 2
1, 0
0, 0
0, 0
0, 1
0, 1
1, 0
0, 0
0, 0
0, 0
2, 0
0, 0
0, 0
0, 0
2, 0
1, 1
0, 0
1, 0
0, 1
0, 1
0, 0
0, 1
1, 0
1, 1
0, 0
1, 0
0, 0
0, 0
0, 0
2, 0
1, 0
0, 0
0, 0
0, 1
0, 1
0, 0
1, 1
0, 0
1, 1
0, 1
1, 0
0, 2
0, 0
0, 1
0, 0
1, 0
0, 0
0, 0
0, 0
0, 0
1, 0
0, 0
0, 0
0, 0
0, 0
0, 0
0, 0
0, 1
0, 0
0, 0
0, 0
0, 1
0, 0
0, 0
0, 0
1, 0
0, 0
0, 0
0, 0
0, 0
0, 0
0, 0
0, 0
0, 0
0, 0
0, 0
0, 0
0, 0
0, 0
0, 0
0, 0
0, 0
0, 0
0, 0
0, 0
0, 0
0, 1
0, 0
0, 0
0, 0
0, 0
0, 0
0, 0
0, 0
0, 0
0, 0
0, 0
0, 0
0, 0
0, 0
0, 0
0, 0
0, 0
0, 0
0, 0
0, 0
0, 0
0, 0
0, 0
0, 0
0, 0
0, 0
0, 0
0, 0
0, 0
0, 0
0, 0
0, 0
0, 0
0, 0
0, 0
0, 0
0, 0
0, 0
0, 0
0, 0
0, 0
0, 0
0, 0
0, 0
0, 0
0, 0
0, 0
0, 0
0, 0
0, 0
0, 0
0, 0
0, 0
0, 0
0, 0
0, 0
0, 0
0, 0
0, 0
0, 0
0, 0
0, 0
0, 0
0, 0
0, 0
0, 0
0, 0
0, 0
0, 0
0, 0
0, 0
0, 0
0, 0
0, 0
0, 0
0, 0
#ENDOFDATA     end of spectrum data