File: host_upload/02-11-2024/rqc/uplink1/ps__0567_0717304816_000rfs_shot_488.msa
#FORMAT      : EMSA/MAS spectral data file
#VERSION     : TC202v2.0 PIXL
#TITLE       : Novarupta (sol567) subset1
#DATE        : 02-11-2024      Date in the format DD-MMM-YYYY, for example 07-JUL-2010
#TIME        :             The time of day at which the spectrum was recorded, in 24-hour format
#OWNER       : PIXL Flight Model       (PIXL will use this to indicate which instrument took the data.)
#NPOINTS     : 4096     Number of data points in the spectrum (This can be zero for configuration only files)
#NCOLUMNS    : 2     Number of data columns in the spectrum (This can be zero for configuration only files)
#XUNITS      : eV
#YUNITS      : COUNTS
#DATATYPE    : YY
#XPERCHAN    : 7.862, 7.881   eV per channel (separate by commas if more than one detector)
#OFFSET      : 18.5, -22.4         eV of first channel  (separate by commas if more than one detector
#SIGNALTYPE  : XRF
#YP_TEMP     : 2.011
#LIVETIME    : 8.84311, 8.80668   seconds (separate by commas if more than one detector)
#REALTIME    : 10, 10.0   seconds (separate by commas if more than one detector)
#SPECTRUM    : start of spectrum data
0, 0
0, 0
0, 0
0, 0
0, 0
0, 0
0, 0
0, 1
4, 1
2, 8
3, 3
6, 14
9, 14
18, 27
61, 46
100, 124
443, 568
122, 116
38, 37
29, 22
49, 56
267, 378
109, 135
77, 77
203, 248
124, 118
74, 77
26, 25
7, 12
9, 16
31, 34
18, 20
16, 15
195, 289
326, 357
54, 47
34, 51
49, 68
11, 8
8, 7
21, 27
49, 66
37, 37
7, 10
15, 13
14, 22
14, 8
9, 12
14, 17
24, 34
27, 24
13, 6
10, 20
31, 36
51, 56
18, 22
17, 37
327, 496
1509, 1942
1057, 1071
119, 120
17, 17
19, 30
74, 115
253, 350
140, 135
28, 27
13, 9
12, 11
12, 8
4, 4
8, 8
8, 11
9, 9
11, 6
8, 3
7, 5
5, 7
5, 11
13, 12
5, 11
11, 8
9, 5
7, 2
4, 7
4, 6
8, 5
3, 3
4, 0
5, 5
4, 3
5, 7
4, 4
3, 2
3, 6
9, 3
3, 1
2, 5
6, 5
3, 3
1, 2
2, 3
0, 7
4, 2
3, 3
4, 0
2, 1
2, 4
5, 3
4, 1
0, 2
2, 1
0, 5
2, 4
0, 0
2, 3
7, 3
4, 0
1, 2
0, 1
2, 2
2, 3
3, 0
0, 2
2, 1
3, 4
2, 0
1, 1
1, 1
2, 0
1, 1
1, 1
0, 0
0, 1
2, 0
1, 2
0, 1
0, 1
2, 1
0, 1
1, 1
0, 3
0, 1
0, 2
1, 1
1, 0
0, 0
0, 1
0, 0
0, 1
0, 1
1, 0
1, 0
1, 0
0, 0
0, 0
1, 0
1, 0
1, 1
0, 0
0, 0
0, 0
0, 0
0, 1
0, 0
1, 1
0, 2
0, 0
0, 0
1, 0
0, 3
0, 0
0, 0
0, 0
0, 0
0, 1
0, 0
0, 0
0, 0
0, 1
1, 0
0, 0
0, 1
0, 0
0, 0
0, 0
0, 0
0, 1
0, 0
0, 0
0, 0
0, 0
2, 0
0, 1
0, 0
1, 0
0, 0
0, 0
0, 0
0, 0
0, 0
0, 0
0, 0
0, 0
0, 0
0, 1
0, 0
0, 0
0, 0
0, 0
0, 0
0, 0
0, 0
0, 0
0, 0
0, 0
0, 0
0, 0
0, 0
0, 0
0, 0
0, 0
0, 0
0, 0
0, 0
0, 0
0, 0
0, 0
0, 0
0, 0
0, 0
0, 0
0, 0
0, 0
0, 0
0, 0
0, 0
0, 0
0, 0
0, 0
0, 0
0, 0
0, 0
0, 0
0, 0
0, 0
0, 0
0, 0
0, 0
0, 0
0, 0
0, 0
0, 0
0, 0
0, 0
0, 0
0, 0
0, 0
0, 0
0, 0
0, 0
0, 0
0, 0
0, 0
0, 0
0, 0
0, 0
0, 0
0, 0
0, 0
0, 0
0, 0
0, 0
0, 0
0, 0
0, 0
0, 0
0, 0
0, 0
0, 0
0, 0
0, 0
0, 0
0, 0
0, 0
0, 0
0, 0
0, 0
0, 0
0, 0
0, 0
0, 0
0, 0
0, 0
#ENDOFDATA     end of spectrum data