File: host_upload/02-11-2024/rqc/uplink1/ps__0567_0717304816_000rfs_shot_97.msa
#FORMAT      : EMSA/MAS spectral data file
#VERSION     : TC202v2.0 PIXL
#TITLE       : Novarupta (sol567) subset1
#DATE        : 02-11-2024      Date in the format DD-MMM-YYYY, for example 07-JUL-2010
#TIME        :             The time of day at which the spectrum was recorded, in 24-hour format
#OWNER       : PIXL Flight Model       (PIXL will use this to indicate which instrument took the data.)
#NPOINTS     : 4096     Number of data points in the spectrum (This can be zero for configuration only files)
#NCOLUMNS    : 2     Number of data columns in the spectrum (This can be zero for configuration only files)
#XUNITS      : eV
#YUNITS      : COUNTS
#DATATYPE    : YY
#XPERCHAN    : 7.862, 7.881   eV per channel (separate by commas if more than one detector)
#OFFSET      : 18.5, -22.4         eV of first channel  (separate by commas if more than one detector
#SIGNALTYPE  : XRF
#YP_TEMP     : -0.94
#LIVETIME    : 8.84149, 8.6419   seconds (separate by commas if more than one detector)
#REALTIME    : 10, 10.0   seconds (separate by commas if more than one detector)
#SPECTRUM    : start of spectrum data
0, 0
0, 0
0, 0
0, 0
0, 0
0, 0
0, 0
1, 0
2, 1
5, 2
3, 1
7, 7
7, 13
28, 23
43, 48
91, 129
424, 518
107, 96
21, 32
22, 21
48, 62
287, 321
104, 106
82, 71
231, 201
105, 115
68, 62
19, 30
7, 10
10, 4
22, 31
11, 16
24, 20
230, 234
305, 303
38, 48
41, 44
49, 62
15, 15
19, 8
21, 33
42, 74
25, 44
14, 13
11, 16
21, 17
14, 10
12, 7
13, 15
30, 27
25, 17
14, 21
14, 9
32, 38
51, 42
17, 24
32, 38
413, 565
1506, 1806
925, 924
104, 71
13, 12
18, 16
90, 115
257, 243
155, 134
18, 18
9, 14
14, 10
11, 8
8, 7
7, 8
5, 8
11, 5
14, 9
4, 7
7, 4
2, 7
8, 12
10, 7
1, 10
4, 5
3, 9
5, 3
4, 6
5, 3
2, 5
10, 5
5, 6
3, 4
4, 4
8, 2
5, 5
6, 3
2, 4
5, 3
2, 1
4, 3
3, 2
5, 2
3, 3
4, 2
2, 6
0, 1
2, 2
1, 2
4, 2
3, 5
0, 0
1, 3
1, 1
3, 2
0, 0
4, 2
0, 4
1, 1
3, 5
3, 0
2, 2
2, 1
1, 3
2, 2
2, 0
5, 4
4, 2
1, 0
1, 0
1, 0
1, 2
2, 4
0, 0
0, 1
2, 1
2, 2
1, 1
1, 0
2, 0
1, 1
1, 1
0, 1
1, 1
0, 0
2, 1
1, 2
0, 1
2, 1
1, 2
0, 0
0, 0
1, 0
0, 2
1, 0
0, 1
0, 4
0, 0
0, 0
0, 0
1, 0
0, 0
0, 1
0, 0
0, 0
1, 0
0, 0
0, 1
0, 1
0, 0
0, 0
0, 0
0, 0
0, 0
0, 0
0, 0
0, 1
0, 0
0, 1
0, 0
0, 1
0, 0
1, 0
0, 1
0, 0
0, 0
1, 0
1, 0
0, 0
0, 0
0, 0
1, 1
0, 0
0, 0
0, 0
0, 0
0, 0
0, 0
0, 0
0, 0
0, 0
1, 0
0, 0
0, 0
0, 0
0, 0
0, 0
0, 0
0, 0
0, 0
0, 0
0, 0
0, 0
0, 0
0, 0
0, 0
0, 0
0, 0
0, 0
0, 0
0, 0
0, 0
0, 0
0, 0
0, 0
0, 0
0, 0
0, 0
0, 0
0, 0
0, 0
0, 0
0, 0
0, 0
0, 0
0, 0
0, 0
0, 0
0, 0
0, 0
0, 0
0, 0
0, 0
0, 0
0, 0
0, 0
0, 0
0, 0
0, 0
0, 0
0, 0
0, 0
0, 0
0, 0
0, 0
0, 0
0, 0
0, 0
0, 0
0, 0
0, 0
0, 0
0, 0
0, 0
0, 0
0, 0
0, 0
0, 0
0, 0
0, 0
0, 0
0, 0
0, 0
0, 0
0, 0
0, 0
0, 0
0, 0
0, 0
0, 0
0, 0
0, 0
0, 0
0, 0
0, 0
0, 0
0, 0
0, 0
0, 0
0, 0
0, 0
0, 0
0, 0
0, 0
0, 0
0, 0
0, 0
#ENDOFDATA     end of spectrum data