File: host_upload/02-11-2024/rqc/uplink1/ps__0567_0717304816_000rfs_shot_393.msa
#FORMAT      : EMSA/MAS spectral data file
#VERSION     : TC202v2.0 PIXL
#TITLE       : Novarupta (sol567) subset1
#DATE        : 02-11-2024      Date in the format DD-MMM-YYYY, for example 07-JUL-2010
#TIME        :             The time of day at which the spectrum was recorded, in 24-hour format
#OWNER       : PIXL Flight Model       (PIXL will use this to indicate which instrument took the data.)
#NPOINTS     : 4096     Number of data points in the spectrum (This can be zero for configuration only files)
#NCOLUMNS    : 2     Number of data columns in the spectrum (This can be zero for configuration only files)
#XUNITS      : eV
#YUNITS      : COUNTS
#DATATYPE    : YY
#XPERCHAN    : 7.862, 7.881   eV per channel (separate by commas if more than one detector)
#OFFSET      : 18.5, -22.4         eV of first channel  (separate by commas if more than one detector
#SIGNALTYPE  : XRF
#YP_TEMP     : 1.69
#LIVETIME    : 8.81364, 8.80986   seconds (separate by commas if more than one detector)
#REALTIME    : 10, 10.0   seconds (separate by commas if more than one detector)
#SPECTRUM    : start of spectrum data
0, 0
0, 0
0, 0
0, 0
0, 0
0, 0
0, 0
0, 1
5, 4
3, 3
5, 2
7, 17
9, 10
31, 22
39, 51
87, 116
508, 539
128, 129
35, 22
23, 25
51, 65
313, 314
127, 124
66, 65
214, 218
104, 122
59, 70
40, 32
13, 9
5, 12
33, 22
11, 23
22, 24
249, 259
374, 368
54, 52
35, 55
55, 61
23, 11
7, 10
21, 30
61, 68
44, 24
15, 10
9, 11
16, 15
11, 16
10, 12
14, 14
28, 25
28, 26
8, 10
11, 18
41, 35
47, 50
18, 27
38, 42
350, 488
1674, 1852
1131, 1020
121, 106
19, 13
19, 22
81, 107
272, 288
189, 140
18, 15
10, 17
8, 13
14, 7
7, 11
4, 0
8, 6
3, 3
5, 6
8, 8
3, 10
5, 13
14, 9
14, 8
9, 6
7, 3
7, 5
4, 5
5, 4
2, 8
7, 6
8, 4
6, 10
3, 4
4, 4
6, 4
3, 4
9, 5
2, 1
2, 2
2, 1
2, 5
5, 2
5, 2
3, 3
3, 4
4, 2
2, 2
5, 4
1, 4
0, 2
3, 2
0, 4
2, 1
2, 3
1, 1
4, 3
4, 3
0, 4
0, 3
4, 4
1, 1
1, 1
3, 1
2, 2
0, 3
3, 5
3, 5
1, 2
2, 1
0, 3
2, 3
1, 1
1, 2
0, 2
0, 2
0, 2
0, 0
3, 0
0, 0
4, 0
0, 0
1, 0
0, 1
0, 1
1, 1
3, 0
0, 0
0, 0
0, 0
0, 0
0, 2
0, 0
0, 0
0, 0
0, 0
1, 1
1, 0
1, 2
0, 1
0, 0
0, 0
0, 0
1, 0
0, 0
1, 0
0, 0
1, 0
0, 0
1, 2
0, 1
1, 0
0, 0
0, 1
1, 0
1, 1
1, 1
0, 0
0, 0
0, 0
0, 0
0, 1
0, 0
0, 0
0, 0
0, 0
0, 1
0, 0
0, 0
0, 0
0, 0
0, 0
0, 0
0, 0
0, 0
1, 0
0, 0
0, 0
0, 0
1, 0
0, 0
0, 2
0, 0
0, 0
0, 0
0, 0
0, 0
0, 0
0, 0
0, 0
1, 0
0, 0
0, 0
0, 0
0, 0
0, 0
0, 0
0, 0
0, 0
0, 0
0, 0
0, 0
0, 0
0, 0
0, 0
0, 0
0, 0
0, 0
0, 0
0, 0
0, 0
0, 0
0, 0
0, 0
0, 0
0, 0
0, 0
0, 0
0, 0
0, 0
0, 0
0, 0
0, 0
0, 0
0, 0
0, 0
0, 0
0, 0
0, 0
0, 0
0, 0
0, 0
0, 0
0, 0
0, 0
0, 0
0, 0
0, 0
0, 0
0, 0
0, 0
0, 0
0, 0
0, 0
0, 0
0, 0
0, 0
0, 0
0, 0
0, 0
0, 0
0, 0
0, 0
0, 0
0, 0
0, 0
0, 0
0, 0
0, 0
0, 0
0, 0
0, 0
0, 0
0, 0
0, 0
0, 0
0, 0
0, 0
0, 0
0, 0
0, 0
0, 0
0, 0
0, 0
0, 0
0, 0
0, 0
0, 0
#ENDOFDATA     end of spectrum data