File: host_upload/02-11-2024/rqc/uplink1/ps__0567_0717304816_000rfs_shot_103.msa
#FORMAT      : EMSA/MAS spectral data file
#VERSION     : TC202v2.0 PIXL
#TITLE       : Novarupta (sol567) subset1
#DATE        : 02-11-2024      Date in the format DD-MMM-YYYY, for example 07-JUL-2010
#TIME        :             The time of day at which the spectrum was recorded, in 24-hour format
#OWNER       : PIXL Flight Model       (PIXL will use this to indicate which instrument took the data.)
#NPOINTS     : 4096     Number of data points in the spectrum (This can be zero for configuration only files)
#NCOLUMNS    : 2     Number of data columns in the spectrum (This can be zero for configuration only files)
#XUNITS      : eV
#YUNITS      : COUNTS
#DATATYPE    : YY
#XPERCHAN    : 7.862, 7.881   eV per channel (separate by commas if more than one detector)
#OFFSET      : 18.5, -22.4         eV of first channel  (separate by commas if more than one detector
#SIGNALTYPE  : XRF
#YP_TEMP     : -1.004
#LIVETIME    : 8.83974, 8.63652   seconds (separate by commas if more than one detector)
#REALTIME    : 10, 10.0   seconds (separate by commas if more than one detector)
#SPECTRUM    : start of spectrum data
0, 0
0, 0
0, 0
0, 0
0, 0
0, 0
0, 0
0, 0
4, 8
4, 4
7, 3
6, 7
10, 12
22, 13
42, 41
125, 127
516, 553
107, 123
43, 36
13, 23
53, 57
268, 326
103, 120
65, 75
192, 245
126, 123
70, 71
26, 34
12, 10
8, 11
26, 22
19, 20
11, 27
193, 241
308, 286
51, 54
46, 40
36, 64
12, 13
11, 5
22, 26
61, 61
42, 42
11, 12
16, 14
10, 18
4, 16
13, 2
14, 12
20, 41
18, 19
13, 16
23, 16
30, 36
46, 47
25, 20
31, 36
380, 625
1649, 1829
951, 824
105, 83
8, 17
20, 31
71, 102
255, 250
158, 137
14, 16
5, 11
8, 10
8, 10
7, 2
6, 6
5, 9
4, 3
12, 15
10, 8
6, 4
6, 7
6, 11
11, 10
6, 6
6, 10
5, 5
4, 3
7, 5
3, 8
9, 5
4, 4
6, 6
2, 3
2, 2
3, 2
4, 7
4, 5
6, 6
2, 8
4, 4
8, 1
5, 2
2, 3
5, 5
3, 2
5, 2
2, 2
2, 4
2, 5
1, 1
0, 4
2, 2
4, 2
2, 1
3, 4
2, 3
1, 5
0, 2
5, 3
7, 4
3, 1
1, 0
1, 3
2, 1
2, 0
2, 1
1, 1
1, 2
2, 0
0, 0
0, 0
0, 1
0, 0
1, 1
1, 2
2, 2
0, 1
0, 1
3, 2
2, 1
0, 3
0, 1
1, 0
0, 2
2, 0
1, 0
1, 2
1, 2
0, 0
0, 0
0, 0
0, 0
1, 0
2, 0
0, 1
0, 0
0, 0
0, 0
0, 0
1, 0
0, 0
0, 0
0, 0
1, 2
0, 0
0, 0
0, 0
0, 0
0, 1
0, 0
1, 0
1, 0
0, 1
0, 0
0, 1
0, 0
0, 0
0, 1
0, 0
0, 1
0, 0
0, 0
0, 1
0, 0
0, 0
0, 0
0, 0
0, 0
0, 0
0, 0
0, 0
0, 0
0, 0
0, 0
0, 0
0, 0
0, 0
0, 0
0, 0
0, 0
0, 0
0, 0
0, 0
0, 0
0, 0
0, 0
0, 0
0, 0
0, 0
0, 0
0, 0
0, 0
1, 0
0, 0
0, 0
0, 0
0, 0
0, 0
0, 0
0, 0
0, 0
0, 0
0, 0
0, 0
0, 0
0, 0
0, 0
0, 0
0, 0
0, 0
0, 0
0, 0
0, 0
0, 0
0, 0
0, 0
0, 0
0, 0
0, 0
0, 0
0, 0
0, 0
0, 0
0, 0
0, 0
0, 0
0, 0
0, 0
0, 0
0, 0
0, 0
0, 0
0, 0
0, 0
0, 0
0, 0
0, 0
0, 0
0, 0
0, 0
0, 0
0, 0
0, 0
0, 0
0, 0
0, 0
0, 0
0, 0
0, 0
0, 0
0, 0
0, 0
0, 0
0, 0
0, 0
0, 0
0, 0
0, 0
0, 0
0, 0
0, 0
0, 0
0, 0
0, 0
0, 0
0, 0
0, 0
0, 0
0, 0
0, 0
0, 0
0, 0
0, 0
0, 0
0, 0
0, 0
0, 0
#ENDOFDATA     end of spectrum data