File: host_upload/02-11-2024/rqc/uplink1/ps__0567_0717304816_000rfs_shot_279.msa
#FORMAT      : EMSA/MAS spectral data file
#VERSION     : TC202v2.0 PIXL
#TITLE       : Novarupta (sol567) subset1
#DATE        : 02-11-2024      Date in the format DD-MMM-YYYY, for example 07-JUL-2010
#TIME        :             The time of day at which the spectrum was recorded, in 24-hour format
#OWNER       : PIXL Flight Model       (PIXL will use this to indicate which instrument took the data.)
#NPOINTS     : 4096     Number of data points in the spectrum (This can be zero for configuration only files)
#NCOLUMNS    : 2     Number of data columns in the spectrum (This can be zero for configuration only files)
#XUNITS      : eV
#YUNITS      : COUNTS
#DATATYPE    : YY
#XPERCHAN    : 7.862, 7.881   eV per channel (separate by commas if more than one detector)
#OFFSET      : 18.5, -22.4         eV of first channel  (separate by commas if more than one detector
#SIGNALTYPE  : XRF
#YP_TEMP     : 1.113
#LIVETIME    : 8.82949, 8.80421   seconds (separate by commas if more than one detector)
#REALTIME    : 10, 10.0   seconds (separate by commas if more than one detector)
#SPECTRUM    : start of spectrum data
0, 0
0, 0
0, 0
0, 0
0, 0
0, 0
0, 1
1, 0
3, 4
4, 0
3, 8
11, 6
13, 10
18, 23
54, 49
128, 127
548, 551
131, 114
29, 36
26, 29
62, 69
297, 347
133, 126
75, 81
252, 248
127, 111
78, 97
27, 23
7, 12
7, 7
24, 28
22, 13
22, 22
223, 224
323, 327
65, 43
62, 47
48, 59
16, 13
12, 8
15, 20
63, 62
38, 32
12, 12
12, 13
15, 19
24, 14
12, 8
20, 21
33, 38
27, 30
12, 11
20, 13
26, 43
55, 49
24, 17
33, 42
374, 471
1717, 1849
1150, 1029
134, 106
10, 15
25, 19
86, 109
268, 287
160, 147
24, 18
10, 12
7, 20
9, 9
3, 6
7, 3
7, 8
7, 6
3, 9
11, 6
6, 4
7, 4
13, 14
9, 10
6, 11
5, 6
2, 6
2, 7
7, 6
6, 3
6, 4
9, 4
5, 8
2, 5
8, 5
4, 6
3, 3
4, 5
1, 3
3, 2
1, 3
5, 0
3, 0
10, 4
0, 4
1, 3
4, 1
4, 1
1, 4
2, 1
2, 3
3, 5
4, 0
3, 0
1, 6
2, 3
5, 3
0, 2
2, 2
3, 2
0, 4
4, 1
0, 3
1, 3
1, 0
2, 0
2, 4
3, 2
1, 1
1, 2
1, 1
0, 1
1, 1
1, 1
0, 0
1, 0
0, 0
1, 0
2, 1
2, 0
1, 0
0, 0
0, 0
0, 0
0, 1
0, 0
0, 0
0, 2
0, 0
1, 1
0, 0
0, 0
0, 0
1, 0
0, 0
1, 0
0, 0
0, 1
0, 0
0, 0
0, 0
0, 0
0, 0
0, 0
0, 0
0, 1
0, 1
0, 1
1, 1
0, 0
0, 0
0, 0
1, 0
0, 0
0, 1
0, 0
0, 2
0, 0
0, 0
0, 0
0, 0
0, 1
0, 0
0, 0
0, 0
0, 0
0, 1
0, 0
0, 2
0, 0
0, 0
0, 0
0, 0
0, 0
0, 0
0, 0
0, 1
0, 0
0, 0
0, 0
0, 0
0, 0
0, 0
0, 0
0, 0
0, 0
0, 0
0, 0
0, 0
1, 0
0, 0
0, 0
0, 0
0, 0
0, 0
0, 0
0, 0
0, 0
0, 0
0, 0
0, 0
0, 0
0, 0
0, 0
0, 0
0, 0
0, 0
0, 0
0, 0
0, 0
0, 0
0, 0
0, 0
0, 0
0, 0
0, 0
0, 0
0, 0
0, 0
0, 0
0, 0
0, 0
0, 0
0, 0
0, 0
0, 0
0, 0
0, 0
0, 0
0, 0
0, 0
0, 0
0, 0
0, 0
0, 0
0, 0
0, 0
0, 0
0, 0
0, 0
0, 0
0, 0
0, 0
0, 0
0, 0
0, 0
0, 0
0, 0
0, 0
0, 0
0, 0
0, 0
0, 0
0, 0
0, 0
0, 0
0, 0
0, 0
0, 0
0, 0
0, 0
0, 0
0, 0
0, 0
0, 0
0, 0
0, 0
0, 0
0, 0
0, 0
0, 0
0, 0
0, 0
0, 0
0, 0
0, 0
0, 0
0, 0
#ENDOFDATA     end of spectrum data