File: host_upload/02-11-2024/rqc/uplink1/ps__0567_0717304816_000rfs_shot_369.msa
#FORMAT      : EMSA/MAS spectral data file
#VERSION     : TC202v2.0 PIXL
#TITLE       : Novarupta (sol567) subset1
#DATE        : 02-11-2024      Date in the format DD-MMM-YYYY, for example 07-JUL-2010
#TIME        :             The time of day at which the spectrum was recorded, in 24-hour format
#OWNER       : PIXL Flight Model       (PIXL will use this to indicate which instrument took the data.)
#NPOINTS     : 4096     Number of data points in the spectrum (This can be zero for configuration only files)
#NCOLUMNS    : 2     Number of data columns in the spectrum (This can be zero for configuration only files)
#XUNITS      : eV
#YUNITS      : COUNTS
#DATATYPE    : YY
#XPERCHAN    : 7.862, 7.881   eV per channel (separate by commas if more than one detector)
#OFFSET      : 18.5, -22.4         eV of first channel  (separate by commas if more than one detector
#SIGNALTYPE  : XRF
#YP_TEMP     : 1.786
#LIVETIME    : 8.82337, 8.8093   seconds (separate by commas if more than one detector)
#REALTIME    : 10, 10.0   seconds (separate by commas if more than one detector)
#SPECTRUM    : start of spectrum data
0, 0
0, 0
0, 0
0, 0
0, 0
0, 0
0, 0
0, 1
6, 4
0, 3
1, 7
14, 9
12, 12
21, 23
52, 41
97, 117
466, 549
112, 139
39, 26
32, 31
50, 62
320, 311
109, 119
72, 71
232, 254
116, 124
69, 75
31, 33
7, 11
9, 11
30, 31
22, 23
18, 18
185, 274
348, 347
49, 39
42, 39
45, 46
11, 5
11, 16
22, 28
61, 71
33, 43
8, 17
14, 13
16, 26
11, 16
10, 17
13, 19
44, 41
35, 41
13, 7
11, 15
40, 39
44, 44
23, 26
30, 29
339, 463
1562, 1841
1110, 1044
107, 104
20, 19
18, 14
83, 112
254, 294
149, 149
19, 30
7, 8
10, 12
13, 8
5, 7
4, 6
9, 4
11, 11
10, 10
3, 10
4, 8
10, 2
8, 13
12, 7
5, 3
9, 7
6, 3
5, 7
5, 3
4, 5
8, 3
8, 6
5, 5
2, 6
8, 3
4, 6
2, 3
3, 3
2, 4
4, 1
5, 3
0, 0
1, 1
0, 2
2, 3
2, 3
2, 3
3, 2
1, 11
2, 2
0, 6
2, 1
3, 1
0, 2
2, 1
1, 2
2, 1
1, 3
3, 1
5, 3
2, 4
4, 1
2, 2
2, 1
1, 2
1, 2
1, 3
5, 2
1, 2
2, 2
0, 1
1, 2
0, 1
1, 2
0, 1
2, 0
0, 0
5, 0
1, 2
0, 2
0, 0
0, 1
0, 1
1, 0
0, 0
1, 0
1, 2
0, 0
0, 0
0, 1
0, 0
0, 0
0, 0
0, 1
2, 2
0, 0
1, 0
0, 0
0, 0
2, 0
0, 0
0, 3
0, 0
0, 0
0, 1
0, 0
0, 1
0, 0
0, 0
0, 1
0, 0
0, 1
0, 0
1, 0
1, 0
0, 0
2, 0
1, 0
0, 0
0, 0
0, 0
0, 0
1, 0
0, 1
0, 0
0, 0
0, 1
2, 0
0, 0
0, 0
0, 0
0, 0
0, 0
0, 0
0, 0
0, 0
0, 0
0, 0
0, 0
0, 0
0, 0
0, 0
0, 0
0, 0
0, 0
0, 0
0, 0
0, 0
0, 0
0, 0
0, 0
0, 0
0, 0
0, 0
0, 0
0, 0
0, 0
0, 0
0, 0
0, 0
0, 0
0, 0
0, 1
0, 0
0, 0
0, 0
0, 0
0, 0
0, 0
0, 0
0, 0
0, 0
0, 0
0, 0
0, 0
0, 0
0, 0
0, 0
0, 0
0, 0
0, 0
0, 0
0, 0
0, 0
0, 0
0, 0
0, 0
0, 0
0, 0
0, 0
0, 0
0, 0
0, 0
0, 0
0, 0
0, 0
0, 0
0, 0
0, 0
0, 0
0, 0
0, 0
0, 0
0, 0
0, 0
0, 0
0, 0
0, 0
0, 0
0, 0
0, 0
0, 0
0, 0
0, 0
0, 0
0, 0
0, 0
0, 0
0, 0
0, 0
0, 0
0, 0
0, 0
0, 0
0, 0
0, 0
0, 0
0, 0
0, 0
0, 0
0, 0
0, 0
0, 0
0, 0
0, 0
0, 0
0, 0
0, 0
#ENDOFDATA     end of spectrum data