File: host_upload/02-11-2024/rqc/uplink1/ps__0567_0717304816_000rfs_shot_304.msa
#FORMAT      : EMSA/MAS spectral data file
#VERSION     : TC202v2.0 PIXL
#TITLE       : Novarupta (sol567) subset1
#DATE        : 02-11-2024      Date in the format DD-MMM-YYYY, for example 07-JUL-2010
#TIME        :             The time of day at which the spectrum was recorded, in 24-hour format
#OWNER       : PIXL Flight Model       (PIXL will use this to indicate which instrument took the data.)
#NPOINTS     : 4096     Number of data points in the spectrum (This can be zero for configuration only files)
#NCOLUMNS    : 2     Number of data columns in the spectrum (This can be zero for configuration only files)
#XUNITS      : eV
#YUNITS      : COUNTS
#DATATYPE    : YY
#XPERCHAN    : 7.862, 7.881   eV per channel (separate by commas if more than one detector)
#OFFSET      : 18.5, -22.4         eV of first channel  (separate by commas if more than one detector
#SIGNALTYPE  : XRF
#YP_TEMP     : 1.466
#LIVETIME    : 8.8446, 8.80828   seconds (separate by commas if more than one detector)
#REALTIME    : 10, 10.0   seconds (separate by commas if more than one detector)
#SPECTRUM    : start of spectrum data
0, 0
0, 0
0, 0
0, 0
0, 0
0, 0
0, 0
1, 1
4, 5
4, 4
3, 1
14, 11
11, 19
14, 21
25, 38
115, 124
438, 579
106, 116
27, 46
16, 20
43, 65
289, 336
132, 109
77, 78
209, 282
104, 132
76, 69
24, 22
14, 13
5, 10
27, 38
11, 20
17, 28
184, 303
276, 383
62, 61
35, 58
42, 48
12, 14
5, 11
19, 23
40, 94
44, 33
13, 12
16, 21
21, 18
13, 19
13, 11
19, 12
27, 42
25, 27
6, 12
8, 15
34, 37
47, 42
17, 16
32, 38
325, 516
1517, 1954
991, 1049
113, 96
13, 21
28, 27
89, 103
229, 317
159, 149
19, 17
5, 16
14, 27
8, 10
9, 6
6, 5
6, 8
2, 6
6, 1
9, 6
3, 5
7, 5
8, 6
10, 8
4, 12
4, 2
2, 3
6, 3
4, 11
6, 9
6, 5
1, 5
5, 2
7, 7
1, 7
1, 5
6, 1
5, 5
4, 4
3, 3
5, 6
3, 5
6, 3
3, 5
3, 6
1, 2
2, 5
5, 1
2, 2
4, 6
1, 1
2, 1
1, 7
5, 1
0, 3
2, 1
2, 3
3, 2
1, 3
1, 3
3, 2
4, 4
1, 3
2, 3
1, 1
2, 1
0, 1
2, 2
1, 3
1, 0
1, 5
1, 1
1, 1
0, 0
1, 1
2, 2
0, 5
2, 0
1, 3
0, 0
0, 1
1, 0
1, 0
1, 1
0, 0
0, 2
0, 1
0, 0
0, 0
0, 0
0, 1
0, 2
0, 0
0, 0
1, 1
0, 0
0, 0
1, 0
0, 0
0, 1
0, 1
0, 0
0, 0
0, 1
0, 0
0, 0
0, 0
0, 2
0, 1
0, 0
1, 0
0, 0
0, 1
0, 0
0, 0
0, 0
1, 0
0, 0
0, 0
1, 0
0, 0
1, 0
0, 0
0, 0
0, 1
0, 0
0, 0
0, 0
0, 0
0, 0
0, 0
0, 0
0, 0
0, 0
0, 0
0, 0
0, 0
1, 0
0, 0
0, 0
0, 0
0, 0
0, 0
0, 0
0, 0
0, 0
0, 0
0, 0
0, 0
0, 0
0, 0
0, 0
0, 0
0, 0
0, 0
0, 0
0, 0
0, 0
0, 0
0, 0
0, 0
0, 0
0, 0
0, 0
0, 0
0, 0
0, 0
0, 0
0, 0
0, 0
0, 0
0, 0
0, 0
0, 0
0, 0
0, 0
0, 0
0, 0
0, 0
0, 0
0, 0
0, 0
0, 0
0, 0
0, 0
0, 0
0, 0
0, 0
0, 0
0, 0
0, 0
0, 0
0, 0
0, 0
0, 0
0, 0
0, 0
0, 0
0, 0
0, 0
0, 0
0, 0
0, 0
0, 0
0, 0
0, 0
0, 0
0, 0
0, 0
0, 0
0, 0
0, 0
0, 0
0, 0
0, 0
0, 0
0, 0
0, 0
0, 0
0, 0
0, 0
0, 0
0, 0
0, 0
0, 0
0, 0
0, 0
0, 0
0, 0
0, 0
0, 0
0, 0
0, 0
0, 0
0, 0
0, 0
0, 0
0, 0
#ENDOFDATA     end of spectrum data