File: host_upload/02-11-2024/rqc/uplink1/ps__0567_0717304816_000rfs_shot_148.msa
#FORMAT      : EMSA/MAS spectral data file
#VERSION     : TC202v2.0 PIXL
#TITLE       : Novarupta (sol567) subset1
#DATE        : 02-11-2024      Date in the format DD-MMM-YYYY, for example 07-JUL-2010
#TIME        :             The time of day at which the spectrum was recorded, in 24-hour format
#OWNER       : PIXL Flight Model       (PIXL will use this to indicate which instrument took the data.)
#NPOINTS     : 4096     Number of data points in the spectrum (This can be zero for configuration only files)
#NCOLUMNS    : 2     Number of data columns in the spectrum (This can be zero for configuration only files)
#XUNITS      : eV
#YUNITS      : COUNTS
#DATATYPE    : YY
#XPERCHAN    : 7.862, 7.881   eV per channel (separate by commas if more than one detector)
#OFFSET      : 18.5, -22.4         eV of first channel  (separate by commas if more than one detector
#SIGNALTYPE  : XRF
#YP_TEMP     : 0.022
#LIVETIME    : 8.82849, 8.79902   seconds (separate by commas if more than one detector)
#REALTIME    : 10, 10.0   seconds (separate by commas if more than one detector)
#SPECTRUM    : start of spectrum data
0, 0
0, 0
0, 0
0, 0
0, 0
0, 0
0, 0
0, 1
4, 5
1, 7
4, 4
7, 6
12, 19
22, 20
38, 47
115, 135
471, 564
120, 124
42, 22
15, 26
43, 58
280, 331
123, 139
57, 79
220, 230
110, 116
63, 77
31, 29
14, 8
9, 11
22, 26
17, 16
22, 31
177, 272
329, 360
51, 57
41, 55
48, 53
8, 12
6, 9
19, 22
49, 76
29, 39
12, 12
11, 20
17, 20
16, 16
6, 13
12, 15
19, 37
23, 24
14, 12
8, 11
36, 33
36, 61
15, 20
32, 41
416, 543
1579, 1923
968, 1050
86, 89
8, 16
21, 19
88, 108
250, 290
137, 148
18, 20
9, 10
5, 15
15, 7
8, 5
2, 9
2, 6
4, 6
7, 6
6, 9
9, 10
6, 9
9, 8
10, 15
9, 9
0, 5
3, 6
4, 5
9, 2
8, 2
5, 3
3, 10
7, 8
5, 6
4, 6
7, 7
6, 6
4, 3
3, 5
4, 3
6, 3
3, 2
2, 2
2, 5
0, 1
5, 2
1, 2
3, 5
2, 0
0, 1
3, 4
4, 1
4, 2
5, 1
3, 1
1, 2
2, 1
3, 1
0, 4
2, 1
3, 1
1, 1
2, 0
0, 3
1, 2
1, 5
2, 1
1, 2
1, 1
2, 0
1, 0
0, 2
1, 0
1, 3
0, 0
1, 3
1, 2
1, 1
0, 0
0, 1
0, 1
0, 1
0, 1
2, 0
0, 0
1, 1
0, 0
0, 1
2, 1
0, 1
0, 0
0, 0
1, 0
0, 0
1, 0
1, 0
1, 0
0, 1
0, 0
1, 1
0, 0
0, 0
0, 0
0, 0
0, 0
0, 1
1, 0
0, 2
0, 0
0, 0
0, 0
0, 1
0, 1
0, 1
0, 2
1, 0
0, 0
0, 0
0, 0
0, 0
0, 0
0, 0
0, 0
0, 0
0, 0
0, 0
0, 0
0, 0
0, 0
0, 0
0, 0
0, 0
0, 0
0, 0
0, 0
0, 0
0, 0
0, 0
0, 0
0, 0
0, 0
1, 0
0, 0
0, 0
1, 0
0, 0
0, 0
0, 0
0, 0
0, 0
0, 1
0, 0
0, 0
0, 0
0, 0
0, 0
0, 1
0, 0
0, 0
0, 0
0, 0
0, 0
0, 0
0, 0
0, 0
0, 0
0, 0
0, 0
0, 0
0, 0
0, 0
0, 0
0, 0
0, 0
0, 0
0, 0
0, 0
0, 0
0, 0
0, 0
0, 0
0, 0
0, 0
0, 0
0, 0
0, 0
0, 0
0, 0
0, 0
0, 0
0, 0
0, 0
0, 0
0, 0
0, 0
0, 0
0, 0
0, 0
0, 0
0, 0
0, 0
0, 0
0, 0
0, 0
0, 0
0, 0
0, 0
0, 0
0, 0
0, 0
0, 0
0, 0
0, 0
0, 0
0, 0
0, 0
0, 0
0, 0
0, 0
0, 0
0, 0
0, 0
0, 0
0, 0
0, 0
0, 0
0, 0
0, 0
0, 0
0, 0
0, 0
0, 0
0, 0
0, 0
0, 0
0, 0
0, 0
0, 0
#ENDOFDATA     end of spectrum data