File: host_upload/02-11-2024/rqc/uplink1/ps__0567_0717304816_000rfs_shot_315.msa
#FORMAT      : EMSA/MAS spectral data file
#VERSION     : TC202v2.0 PIXL
#TITLE       : Novarupta (sol567) subset1
#DATE        : 02-11-2024      Date in the format DD-MMM-YYYY, for example 07-JUL-2010
#TIME        :             The time of day at which the spectrum was recorded, in 24-hour format
#OWNER       : PIXL Flight Model       (PIXL will use this to indicate which instrument took the data.)
#NPOINTS     : 4096     Number of data points in the spectrum (This can be zero for configuration only files)
#NCOLUMNS    : 2     Number of data columns in the spectrum (This can be zero for configuration only files)
#XUNITS      : eV
#YUNITS      : COUNTS
#DATATYPE    : YY
#XPERCHAN    : 7.862, 7.881   eV per channel (separate by commas if more than one detector)
#OFFSET      : 18.5, -22.4         eV of first channel  (separate by commas if more than one detector
#SIGNALTYPE  : XRF
#YP_TEMP     : 1.369
#LIVETIME    : 8.8367, 8.81334   seconds (separate by commas if more than one detector)
#REALTIME    : 10, 10.0   seconds (separate by commas if more than one detector)
#SPECTRUM    : start of spectrum data
0, 0
0, 0
0, 0
0, 0
0, 0
0, 0
0, 0
0, 0
3, 4
3, 1
2, 2
10, 14
17, 12
18, 26
39, 51
116, 118
530, 531
121, 132
41, 26
25, 21
47, 53
284, 295
130, 101
66, 79
208, 191
114, 121
73, 78
29, 38
7, 11
12, 9
26, 26
19, 18
15, 23
193, 240
298, 325
45, 53
35, 47
49, 50
15, 13
9, 5
23, 22
51, 64
42, 43
13, 14
19, 14
20, 15
10, 16
9, 12
9, 17
34, 49
37, 31
11, 13
12, 12
38, 32
35, 45
20, 32
34, 24
359, 460
1578, 1808
1125, 1063
106, 105
15, 14
26, 23
88, 100
256, 300
163, 143
25, 19
11, 10
16, 11
14, 13
2, 4
3, 7
8, 5
11, 9
9, 4
8, 10
10, 4
7, 6
8, 14
5, 15
7, 11
7, 4
5, 12
6, 7
5, 5
3, 9
7, 9
4, 5
3, 4
4, 8
3, 3
5, 1
3, 2
8, 3
3, 1
3, 3
6, 6
4, 5
1, 2
1, 4
2, 3
3, 9
2, 0
1, 4
2, 1
3, 2
4, 5
3, 4
0, 2
1, 2
0, 2
3, 0
2, 1
1, 4
1, 0
0, 1
1, 1
1, 3
3, 0
3, 0
0, 0
0, 2
1, 2
1, 5
0, 1
1, 1
0, 1
0, 0
6, 1
2, 1
0, 2
1, 1
0, 2
0, 0
0, 2
2, 0
2, 0
1, 0
0, 0
1, 1
2, 0
1, 0
0, 0
1, 0
0, 0
2, 0
0, 2
0, 0
0, 1
1, 0
0, 1
1, 0
0, 0
0, 0
0, 0
1, 0
0, 0
0, 1
0, 0
0, 0
0, 0
0, 0
0, 0
1, 0
0, 0
0, 1
0, 0
0, 0
0, 0
0, 0
0, 1
0, 0
1, 0
1, 0
0, 1
0, 0
0, 0
0, 0
0, 1
0, 0
0, 0
1, 0
0, 0
0, 1
1, 1
0, 0
0, 0
0, 0
0, 0
0, 0
0, 0
0, 0
0, 0
0, 0
1, 0
0, 0
0, 0
0, 1
0, 0
0, 0
0, 0
0, 0
0, 0
0, 0
0, 0
1, 0
0, 0
0, 0
0, 0
0, 0
0, 0
0, 0
0, 0
0, 0
0, 0
0, 0
0, 0
0, 0
0, 0
0, 0
0, 0
0, 0
0, 0
0, 0
0, 0
0, 0
0, 0
0, 0
0, 0
0, 0
0, 0
0, 0
0, 0
0, 0
0, 0
0, 0
0, 0
0, 0
0, 0
0, 0
0, 0
0, 0
0, 0
0, 0
0, 0
0, 0
0, 0
0, 0
0, 0
0, 0
0, 0
0, 0
0, 0
0, 0
0, 0
0, 0
0, 0
0, 0
0, 0
0, 0
0, 0
0, 0
0, 0
0, 0
0, 0
0, 0
0, 0
0, 0
0, 0
0, 0
0, 0
0, 0
0, 0
0, 0
0, 0
0, 0
0, 0
0, 0
0, 0
0, 0
0, 0
0, 0
0, 0
0, 0
0, 0
0, 0
0, 0
0, 0
0, 0
0, 0
0, 0
0, 0
0, 0
0, 0
#ENDOFDATA     end of spectrum data