File: host_upload/02-11-2024/rqc/uplink1/ps__0567_0717304816_000rfs_shot_129.msa
#FORMAT      : EMSA/MAS spectral data file
#VERSION     : TC202v2.0 PIXL
#TITLE       : Novarupta (sol567) subset1
#DATE        : 02-11-2024      Date in the format DD-MMM-YYYY, for example 07-JUL-2010
#TIME        :             The time of day at which the spectrum was recorded, in 24-hour format
#OWNER       : PIXL Flight Model       (PIXL will use this to indicate which instrument took the data.)
#NPOINTS     : 4096     Number of data points in the spectrum (This can be zero for configuration only files)
#NCOLUMNS    : 2     Number of data columns in the spectrum (This can be zero for configuration only files)
#XUNITS      : eV
#YUNITS      : COUNTS
#DATATYPE    : YY
#XPERCHAN    : 7.862, 7.881   eV per channel (separate by commas if more than one detector)
#OFFSET      : 18.5, -22.4         eV of first channel  (separate by commas if more than one detector
#SIGNALTYPE  : XRF
#YP_TEMP     : -0.459
#LIVETIME    : 8.83748, 8.82322   seconds (separate by commas if more than one detector)
#REALTIME    : 10, 10.0   seconds (separate by commas if more than one detector)
#SPECTRUM    : start of spectrum data
0, 0
0, 0
0, 0
0, 0
0, 0
0, 0
0, 0
1, 0
1, 5
2, 3
4, 4
7, 8
15, 15
18, 31
40, 33
106, 105
455, 549
113, 112
22, 32
20, 25
55, 62
288, 316
110, 119
71, 84
184, 214
95, 112
59, 63
33, 38
9, 9
9, 15
28, 23
10, 25
19, 26
230, 247
311, 332
53, 48
58, 52
47, 51
9, 13
5, 9
23, 26
52, 80
23, 46
14, 10
20, 16
11, 17
11, 16
16, 14
13, 23
33, 34
22, 19
6, 18
13, 12
42, 39
40, 44
25, 17
31, 43
363, 548
1652, 1830
1017, 970
122, 91
20, 14
25, 28
99, 109
254, 282
146, 137
18, 23
8, 10
18, 19
7, 15
8, 6
8, 6
5, 10
2, 6
6, 5
3, 9
3, 6
5, 14
13, 16
7, 3
4, 4
4, 5
6, 8
9, 3
3, 8
3, 3
6, 4
8, 8
4, 5
6, 6
1, 7
6, 5
3, 6
4, 6
3, 6
4, 5
4, 2
2, 2
5, 5
6, 3
3, 5
4, 5
2, 3
1, 0
6, 3
2, 2
1, 1
4, 3
2, 2
5, 1
1, 1
1, 1
3, 1
1, 1
2, 1
5, 2
3, 8
5, 1
1, 2
1, 3
1, 1
4, 0
0, 1
1, 1
2, 1
1, 1
0, 3
1, 2
0, 1
0, 3
0, 2
1, 1
3, 0
0, 1
0, 0
1, 2
0, 0
0, 0
0, 1
0, 1
1, 0
0, 0
1, 0
0, 2
0, 1
2, 1
0, 0
0, 0
1, 0
1, 0
0, 0
0, 0
0, 0
1, 0
0, 0
0, 0
0, 0
0, 0
0, 0
1, 1
0, 0
0, 1
0, 0
0, 0
0, 0
0, 0
0, 1
1, 1
0, 1
0, 0
0, 1
0, 1
0, 0
0, 0
0, 0
1, 0
0, 0
0, 0
0, 0
0, 0
0, 0
0, 0
0, 1
0, 1
0, 0
0, 0
0, 0
0, 0
0, 0
0, 0
0, 0
0, 1
0, 0
0, 0
0, 0
0, 0
0, 0
0, 0
0, 0
0, 0
0, 1
0, 0
0, 0
0, 0
0, 0
0, 0
0, 0
0, 0
0, 0
0, 0
0, 0
0, 0
0, 0
0, 0
0, 0
0, 0
0, 0
0, 0
0, 0
0, 0
0, 0
0, 0
0, 0
0, 0
0, 0
0, 0
0, 0
0, 0
0, 0
0, 0
0, 0
0, 0
0, 0
0, 0
0, 0
0, 0
0, 0
0, 0
0, 0
0, 0
0, 0
0, 0
0, 0
0, 0
0, 0
0, 0
0, 0
0, 0
0, 0
0, 0
0, 0
0, 0
0, 0
0, 0
0, 0
0, 0
0, 0
0, 0
0, 0
0, 0
0, 0
0, 0
0, 0
0, 0
0, 0
0, 0
0, 0
0, 0
0, 0
0, 0
0, 0
0, 0
0, 0
0, 0
0, 0
0, 0
0, 0
0, 0
0, 0
0, 0
0, 0
0, 0
0, 0
0, 0
0, 0
0, 0
0, 0
0, 0
0, 0
0, 0
0, 0
0, 0
0, 0
0, 0
#ENDOFDATA     end of spectrum data