File: host_upload/02-11-2024/rqc/uplink1/ps__0567_0717304816_000rfs_shot_27.msa
#FORMAT      : EMSA/MAS spectral data file
#VERSION     : TC202v2.0 PIXL
#TITLE       : Novarupta (sol567) subset1
#DATE        : 02-11-2024      Date in the format DD-MMM-YYYY, for example 07-JUL-2010
#TIME        :             The time of day at which the spectrum was recorded, in 24-hour format
#OWNER       : PIXL Flight Model       (PIXL will use this to indicate which instrument took the data.)
#NPOINTS     : 4096     Number of data points in the spectrum (This can be zero for configuration only files)
#NCOLUMNS    : 2     Number of data columns in the spectrum (This can be zero for configuration only files)
#XUNITS      : eV
#YUNITS      : COUNTS
#DATATYPE    : YY
#XPERCHAN    : 7.862, 7.881   eV per channel (separate by commas if more than one detector)
#OFFSET      : 18.5, -22.4         eV of first channel  (separate by commas if more than one detector
#SIGNALTYPE  : XRF
#YP_TEMP     : -4.211
#LIVETIME    : 8.83118, 8.81731   seconds (separate by commas if more than one detector)
#REALTIME    : 10, 10.0   seconds (separate by commas if more than one detector)
#SPECTRUM    : start of spectrum data
0, 0
0, 0
0, 0
0, 0
0, 0
0, 0
0, 0
0, 0
2, 5
3, 2
3, 4
11, 14
9, 14
19, 31
36, 41
143, 142
498, 494
102, 96
29, 25
31, 22
71, 64
297, 331
113, 123
64, 96
230, 229
103, 103
57, 61
21, 25
11, 9
5, 9
20, 33
14, 10
41, 41
271, 297
294, 286
49, 47
43, 48
44, 43
11, 16
9, 10
23, 29
56, 60
32, 42
16, 10
15, 9
12, 21
14, 12
7, 12
16, 13
29, 36
23, 25
13, 5
11, 16
34, 44
36, 30
21, 26
42, 71
594, 702
1647, 1814
783, 795
76, 52
16, 20
29, 31
121, 135
257, 298
114, 125
18, 23
10, 7
6, 15
8, 6
6, 6
5, 8
5, 7
5, 9
7, 3
12, 9
7, 4
4, 7
6, 12
14, 11
10, 8
7, 6
6, 8
4, 11
7, 2
8, 5
9, 5
3, 2
3, 7
2, 1
3, 4
6, 4
6, 6
3, 3
3, 6
5, 3
2, 4
4, 1
5, 4
2, 1
3, 4
2, 4
0, 2
3, 2
4, 3
2, 0
2, 3
3, 3
5, 2
3, 0
1, 3
1, 3
3, 3
0, 1
3, 3
2, 3
3, 1
2, 1
0, 1
1, 2
3, 2
0, 3
4, 2
2, 4
1, 3
2, 0
2, 2
1, 1
0, 1
0, 0
0, 2
1, 3
1, 0
1, 1
1, 0
1, 1
2, 0
0, 2
2, 2
0, 1
0, 1
1, 0
1, 0
0, 0
1, 0
0, 0
0, 1
0, 1
0, 0
0, 0
1, 0
0, 0
2, 0
0, 0
0, 0
1, 0
0, 0
0, 1
0, 0
0, 0
0, 0
1, 0
1, 0
0, 0
0, 1
0, 0
0, 1
0, 1
0, 0
0, 0
1, 0
0, 0
0, 0
0, 0
0, 0
0, 0
1, 0
1, 0
0, 0
0, 0
0, 0
0, 0
0, 0
0, 2
0, 0
1, 1
0, 0
0, 0
0, 0
0, 0
0, 0
0, 0
0, 0
0, 0
0, 0
0, 0
0, 0
0, 0
0, 0
1, 0
0, 0
0, 0
0, 0
0, 0
0, 0
1, 0
0, 0
0, 0
0, 0
0, 0
0, 0
0, 0
0, 0
0, 0
0, 0
0, 0
0, 0
0, 0
0, 0
0, 0
0, 0
0, 0
0, 0
0, 0
0, 0
0, 0
0, 0
0, 0
0, 0
0, 0
0, 0
0, 0
0, 0
0, 0
0, 0
0, 0
0, 0
0, 0
0, 0
0, 0
0, 0
0, 0
0, 0
0, 0
0, 0
0, 0
0, 0
0, 0
0, 0
0, 0
0, 0
0, 0
0, 0
0, 0
0, 0
0, 0
0, 0
0, 0
0, 0
0, 0
0, 0
0, 0
0, 0
0, 0
0, 0
0, 0
0, 0
0, 0
0, 0
0, 0
0, 0
0, 0
0, 0
0, 0
0, 0
0, 0
0, 0
0, 0
0, 0
0, 0
0, 0
0, 0
0, 0
0, 0
0, 0
0, 0
0, 0
0, 0
0, 0
0, 0
0, 0
0, 0
0, 0
0, 0
#ENDOFDATA     end of spectrum data