File: host_upload/02-11-2024/rqc/uplink1/ps__0567_0717304816_000rfs_shot_377.msa
#FORMAT      : EMSA/MAS spectral data file
#VERSION     : TC202v2.0 PIXL
#TITLE       : Novarupta (sol567) subset1
#DATE        : 02-11-2024      Date in the format DD-MMM-YYYY, for example 07-JUL-2010
#TIME        :             The time of day at which the spectrum was recorded, in 24-hour format
#OWNER       : PIXL Flight Model       (PIXL will use this to indicate which instrument took the data.)
#NPOINTS     : 4096     Number of data points in the spectrum (This can be zero for configuration only files)
#NCOLUMNS    : 2     Number of data columns in the spectrum (This can be zero for configuration only files)
#XUNITS      : eV
#YUNITS      : COUNTS
#DATATYPE    : YY
#XPERCHAN    : 7.862, 7.881   eV per channel (separate by commas if more than one detector)
#OFFSET      : 18.5, -22.4         eV of first channel  (separate by commas if more than one detector
#SIGNALTYPE  : XRF
#YP_TEMP     : 1.851
#LIVETIME    : 8.82666, 8.79253   seconds (separate by commas if more than one detector)
#REALTIME    : 10, 10.0   seconds (separate by commas if more than one detector)
#SPECTRUM    : start of spectrum data
0, 0
0, 0
0, 0
0, 0
0, 0
0, 0
0, 0
2, 0
9, 6
7, 5
2, 5
10, 9
11, 21
29, 23
35, 45
92, 120
454, 560
119, 118
27, 40
20, 26
50, 60
315, 311
111, 136
62, 71
224, 273
111, 102
73, 76
35, 30
7, 9
7, 16
25, 29
20, 13
21, 18
187, 267
353, 359
49, 52
42, 61
51, 58
12, 13
7, 4
20, 20
66, 83
31, 37
15, 21
21, 16
17, 21
20, 11
15, 10
15, 15
21, 26
24, 25
15, 14
17, 20
32, 41
44, 66
21, 20
29, 39
349, 515
1575, 1943
1100, 1109
104, 90
13, 20
18, 30
85, 106
242, 329
139, 165
19, 22
11, 11
10, 11
8, 6
2, 7
3, 5
3, 9
7, 6
6, 7
8, 9
3, 9
4, 12
12, 13
4, 6
3, 7
5, 7
5, 6
4, 4
6, 8
3, 9
3, 9
5, 7
3, 5
6, 3
11, 0
2, 10
5, 3
5, 4
2, 3
3, 4
3, 4
1, 4
6, 3
4, 2
2, 2
3, 0
4, 7
4, 4
0, 4
5, 4
2, 3
3, 5
5, 4
2, 1
1, 2
1, 1
0, 5
0, 3
3, 3
0, 1
3, 3
4, 3
3, 2
0, 1
2, 0
2, 2
0, 1
2, 2
3, 2
1, 1
1, 2
3, 1
3, 1
2, 3
0, 0
2, 2
0, 0
0, 1
0, 1
0, 0
0, 1
2, 1
0, 0
0, 1
1, 0
2, 0
1, 1
0, 1
1, 0
1, 0
1, 0
0, 0
2, 0
1, 0
0, 1
0, 1
1, 0
1, 0
0, 0
1, 0
0, 0
0, 1
0, 1
1, 0
0, 0
0, 0
0, 1
0, 0
0, 1
0, 0
1, 1
0, 1
0, 0
0, 0
1, 0
0, 0
0, 0
0, 0
0, 0
0, 0
0, 0
0, 1
0, 0
0, 1
0, 0
0, 0
1, 1
0, 0
0, 0
0, 0
0, 0
0, 0
0, 0
0, 0
0, 1
1, 0
0, 0
0, 0
0, 1
0, 0
0, 0
0, 0
0, 0
0, 0
0, 0
0, 0
0, 0
0, 0
0, 0
0, 0
0, 0
0, 0
0, 0
0, 0
0, 0
0, 0
0, 0
1, 0
0, 0
0, 0
0, 0
0, 0
0, 0
0, 0
0, 0
0, 0
0, 0
0, 0
0, 0
0, 0
0, 0
0, 0
0, 0
0, 0
0, 0
0, 0
0, 0
0, 0
0, 0
0, 0
0, 0
0, 0
0, 0
0, 0
0, 0
0, 0
0, 0
0, 0
0, 0
0, 0
0, 0
0, 0
0, 0
0, 0
0, 0
0, 0
0, 0
0, 0
0, 0
0, 0
0, 0
0, 0
0, 0
0, 0
0, 0
0, 0
0, 0
0, 0
0, 0
0, 0
0, 0
0, 0
0, 0
0, 0
0, 0
0, 0
0, 0
0, 0
0, 0
0, 0
0, 0
0, 0
0, 0
0, 0
0, 0
0, 0
0, 0
0, 0
0, 0
0, 0
0, 0
0, 0
0, 0
0, 0
0, 0
0, 0
0, 0
0, 0
#ENDOFDATA     end of spectrum data