File: host_upload/02-11-2024/rqc/uplink1/ps__0567_0717304816_000rfs_shot_62.msa
#FORMAT      : EMSA/MAS spectral data file
#VERSION     : TC202v2.0 PIXL
#TITLE       : Novarupta (sol567) subset1
#DATE        : 02-11-2024      Date in the format DD-MMM-YYYY, for example 07-JUL-2010
#TIME        :             The time of day at which the spectrum was recorded, in 24-hour format
#OWNER       : PIXL Flight Model       (PIXL will use this to indicate which instrument took the data.)
#NPOINTS     : 4096     Number of data points in the spectrum (This can be zero for configuration only files)
#NCOLUMNS    : 2     Number of data columns in the spectrum (This can be zero for configuration only files)
#XUNITS      : eV
#YUNITS      : COUNTS
#DATATYPE    : YY
#XPERCHAN    : 7.862, 7.881   eV per channel (separate by commas if more than one detector)
#OFFSET      : 18.5, -22.4         eV of first channel  (separate by commas if more than one detector
#SIGNALTYPE  : XRF
#YP_TEMP     : -2.03
#LIVETIME    : 8.8314, 8.81582   seconds (separate by commas if more than one detector)
#REALTIME    : 10, 10.0   seconds (separate by commas if more than one detector)
#SPECTRUM    : start of spectrum data
0, 0
0, 0
0, 0
0, 0
0, 0
0, 0
0, 0
0, 0
2, 2
3, 6
5, 4
16, 8
7, 15
25, 28
46, 47
119, 115
449, 488
128, 134
26, 24
20, 20
78, 74
330, 313
122, 118
93, 81
232, 240
90, 101
67, 64
33, 20
11, 6
9, 8
32, 30
20, 16
27, 27
251, 255
292, 340
46, 45
58, 56
48, 53
16, 2
8, 11
30, 19
60, 62
33, 43
26, 15
19, 13
15, 26
7, 19
11, 8
12, 20
29, 38
21, 20
11, 15
18, 14
38, 39
41, 54
18, 18
40, 40
474, 558
1625, 1782
952, 881
100, 76
19, 17
24, 20
95, 138
263, 304
138, 121
19, 16
6, 11
13, 13
7, 12
6, 10
5, 9
6, 7
9, 7
7, 4
7, 11
6, 5
5, 6
6, 14
10, 9
3, 8
3, 4
7, 6
7, 9
7, 5
6, 5
5, 5
6, 1
5, 7
4, 10
5, 5
5, 4
3, 7
9, 6
7, 3
5, 6
3, 8
2, 0
3, 4
1, 5
2, 2
0, 1
2, 5
4, 1
0, 2
3, 1
3, 2
1, 2
3, 4
1, 0
3, 2
2, 1
3, 3
1, 2
3, 2
3, 3
8, 5
2, 5
3, 4
5, 3
2, 2
3, 3
4, 2
4, 0
1, 1
1, 0
2, 2
1, 2
0, 0
0, 0
1, 2
2, 3
0, 0
1, 1
2, 0
2, 2
0, 0
1, 1
0, 0
1, 0
0, 2
1, 2
2, 0
2, 1
2, 0
0, 0
0, 1
0, 0
0, 1
1, 0
2, 0
0, 1
0, 0
0, 0
0, 0
0, 1
0, 0
1, 0
2, 0
0, 0
0, 0
0, 0
0, 0
0, 0
0, 0
0, 1
0, 0
0, 0
0, 0
1, 1
1, 0
0, 0
0, 0
0, 0
1, 0
0, 1
1, 0
0, 0
0, 0
0, 0
0, 0
0, 0
0, 0
0, 0
1, 0
0, 0
0, 0
0, 1
0, 0
0, 0
0, 1
0, 0
0, 0
0, 0
0, 0
0, 0
0, 0
0, 0
0, 0
0, 0
0, 0
0, 0
0, 0
0, 0
0, 0
0, 0
0, 0
0, 0
0, 0
0, 0
0, 0
0, 0
0, 0
0, 0
0, 0
0, 0
0, 0
0, 0
0, 0
0, 0
0, 0
0, 0
0, 0
0, 0
0, 0
0, 0
0, 0
0, 0
0, 0
0, 0
0, 0
0, 0
0, 0
0, 0
0, 0
0, 0
0, 0
0, 0
0, 0
0, 0
0, 0
0, 0
0, 0
0, 0
0, 0
0, 0
0, 0
0, 0
0, 0
0, 0
0, 0
0, 0
0, 0
0, 0
0, 0
0, 0
0, 0
0, 0
0, 0
0, 0
0, 0
0, 0
0, 0
0, 0
0, 0
0, 0
0, 0
0, 0
0, 0
0, 0
0, 0
0, 0
0, 0
0, 0
0, 0
0, 0
0, 0
0, 0
0, 0
0, 0
0, 0
0, 0
0, 0
0, 0
0, 0
0, 0
0, 0
0, 0
0, 0
0, 0
0, 0
0, 0
0, 0
0, 0
#ENDOFDATA     end of spectrum data