File: host_upload/02-11-2024/rqc/uplink1/ps__0567_0717304816_000rfs_shot_476.msa
#FORMAT      : EMSA/MAS spectral data file
#VERSION     : TC202v2.0 PIXL
#TITLE       : Novarupta (sol567) subset1
#DATE        : 02-11-2024      Date in the format DD-MMM-YYYY, for example 07-JUL-2010
#TIME        :             The time of day at which the spectrum was recorded, in 24-hour format
#OWNER       : PIXL Flight Model       (PIXL will use this to indicate which instrument took the data.)
#NPOINTS     : 4096     Number of data points in the spectrum (This can be zero for configuration only files)
#NCOLUMNS    : 2     Number of data columns in the spectrum (This can be zero for configuration only files)
#XUNITS      : eV
#YUNITS      : COUNTS
#DATATYPE    : YY
#XPERCHAN    : 7.862, 7.881   eV per channel (separate by commas if more than one detector)
#OFFSET      : 18.5, -22.4         eV of first channel  (separate by commas if more than one detector
#SIGNALTYPE  : XRF
#YP_TEMP     : 1.915
#LIVETIME    : 8.82054, 8.8218   seconds (separate by commas if more than one detector)
#REALTIME    : 10, 10.0   seconds (separate by commas if more than one detector)
#SPECTRUM    : start of spectrum data
0, 0
0, 0
0, 0
0, 0
0, 0
0, 0
0, 0
2, 1
5, 4
1, 4
3, 2
10, 9
6, 12
18, 19
55, 55
106, 109
503, 541
122, 110
31, 29
28, 21
58, 50
300, 316
123, 111
81, 90
251, 248
140, 128
65, 71
26, 34
16, 5
6, 5
40, 28
17, 17
14, 23
160, 207
328, 357
66, 51
29, 44
54, 42
12, 14
2, 12
22, 18
67, 52
37, 40
13, 12
19, 16
19, 24
15, 6
12, 10
13, 10
33, 30
23, 26
12, 10
13, 16
22, 26
41, 43
28, 15
38, 23
378, 414
1645, 1767
1164, 1007
118, 106
19, 18
15, 27
78, 90
270, 257
168, 160
23, 17
4, 10
13, 13
8, 7
8, 4
7, 2
7, 8
5, 5
5, 11
6, 13
2, 8
5, 10
10, 9
9, 15
8, 6
3, 7
10, 5
5, 7
6, 4
1, 5
3, 3
8, 11
4, 5
4, 6
5, 4
5, 7
3, 2
1, 4
5, 7
2, 1
1, 6
5, 2
4, 6
4, 0
1, 2
2, 2
4, 3
0, 2
3, 2
4, 1
4, 1
1, 0
4, 1
6, 2
2, 2
0, 4
1, 2
3, 3
4, 2
2, 5
2, 3
2, 3
2, 2
1, 1
3, 0
2, 2
0, 2
2, 0
0, 1
1, 1
1, 2
0, 1
1, 2
1, 2
1, 2
2, 0
0, 0
2, 2
2, 1
1, 3
1, 1
0, 2
2, 0
0, 2
0, 1
2, 1
0, 0
0, 0
0, 0
2, 1
0, 0
0, 0
0, 0
1, 1
0, 0
0, 0
0, 3
0, 1
0, 0
0, 1
0, 0
0, 0
0, 1
0, 0
1, 0
0, 1
0, 1
0, 0
0, 0
0, 0
2, 0
0, 0
0, 0
0, 0
0, 1
0, 0
1, 0
0, 0
0, 0
0, 1
0, 0
0, 0
0, 0
0, 0
0, 0
0, 0
0, 0
1, 0
1, 0
0, 0
0, 0
0, 0
0, 0
0, 0
0, 0
1, 0
0, 0
1, 0
0, 1
0, 0
0, 0
0, 0
0, 0
0, 0
0, 0
0, 0
0, 0
0, 0
0, 0
0, 0
0, 0
0, 0
0, 0
0, 0
0, 0
0, 0
0, 0
0, 0
0, 0
0, 0
0, 0
0, 0
0, 0
0, 0
0, 0
0, 0
0, 0
0, 0
0, 0
0, 0
0, 0
0, 0
0, 0
0, 0
0, 0
0, 0
0, 0
0, 0
0, 0
0, 0
0, 0
0, 0
0, 0
0, 0
0, 0
0, 0
0, 0
0, 0
0, 0
0, 0
0, 0
0, 0
0, 0
0, 0
0, 0
0, 0
0, 0
0, 0
0, 0
0, 0
0, 0
0, 0
0, 0
0, 0
0, 0
0, 0
0, 0
0, 0
0, 0
0, 0
0, 0
0, 0
0, 0
0, 0
0, 0
0, 0
0, 0
0, 0
0, 0
0, 0
0, 0
0, 0
0, 0
0, 0
0, 0
0, 0
0, 0
0, 0
0, 0
0, 0
0, 0
0, 0
0, 0
0, 0
0, 0
0, 0
0, 0
0, 0
#ENDOFDATA     end of spectrum data