File: host_upload/02-11-2024/rqc/uplink1/ps__0567_0717304816_000rfs_shot_390.msa
#FORMAT      : EMSA/MAS spectral data file
#VERSION     : TC202v2.0 PIXL
#TITLE       : Novarupta (sol567) subset1
#DATE        : 02-11-2024      Date in the format DD-MMM-YYYY, for example 07-JUL-2010
#TIME        :             The time of day at which the spectrum was recorded, in 24-hour format
#OWNER       : PIXL Flight Model       (PIXL will use this to indicate which instrument took the data.)
#NPOINTS     : 4096     Number of data points in the spectrum (This can be zero for configuration only files)
#NCOLUMNS    : 2     Number of data columns in the spectrum (This can be zero for configuration only files)
#XUNITS      : eV
#YUNITS      : COUNTS
#DATATYPE    : YY
#XPERCHAN    : 7.862, 7.881   eV per channel (separate by commas if more than one detector)
#OFFSET      : 18.5, -22.4         eV of first channel  (separate by commas if more than one detector
#SIGNALTYPE  : XRF
#YP_TEMP     : 1.562
#LIVETIME    : 8.83127, 8.80868   seconds (separate by commas if more than one detector)
#REALTIME    : 10, 10.0   seconds (separate by commas if more than one detector)
#SPECTRUM    : start of spectrum data
0, 0
0, 0
0, 0
0, 0
0, 0
0, 0
0, 0
0, 0
4, 1
7, 5
1, 6
4, 15
13, 13
19, 26
39, 29
116, 116
475, 560
127, 106
26, 23
20, 24
58, 54
270, 311
102, 128
60, 96
257, 309
130, 143
78, 70
35, 27
12, 17
15, 6
22, 25
15, 21
17, 11
209, 295
333, 351
51, 46
32, 50
51, 59
14, 17
6, 10
26, 36
73, 59
39, 30
12, 13
14, 12
19, 16
17, 16
8, 6
13, 11
32, 24
31, 20
6, 11
16, 22
26, 29
50, 53
26, 36
30, 38
344, 483
1576, 1814
1068, 1031
117, 122
19, 21
25, 17
85, 86
229, 305
191, 152
24, 19
13, 9
15, 12
14, 6
9, 2
4, 7
6, 6
4, 10
9, 4
5, 11
6, 7
6, 13
11, 9
12, 13
7, 6
4, 7
2, 2
3, 3
3, 8
10, 3
3, 5
4, 6
6, 3
3, 5
3, 3
3, 7
2, 5
2, 3
6, 4
5, 7
3, 3
1, 3
3, 6
5, 6
4, 5
3, 3
1, 5
4, 1
4, 4
0, 1
2, 2
1, 5
0, 1
1, 2
4, 1
1, 3
3, 2
3, 1
2, 3
1, 0
3, 3
2, 5
2, 0
2, 0
1, 0
0, 2
3, 1
1, 1
0, 5
4, 1
5, 0
2, 1
0, 1
1, 2
2, 2
0, 2
0, 0
1, 0
3, 0
0, 1
1, 0
0, 2
0, 0
0, 0
1, 1
1, 1
2, 0
0, 2
0, 0
1, 0
1, 0
1, 0
0, 0
0, 1
1, 0
0, 1
1, 1
0, 0
0, 0
0, 0
0, 0
0, 0
1, 0
0, 0
0, 0
0, 1
0, 2
0, 0
0, 1
0, 0
0, 0
0, 2
0, 0
0, 0
0, 0
0, 0
0, 0
0, 1
1, 0
0, 0
0, 0
0, 1
0, 2
0, 0
1, 0
0, 0
1, 0
0, 0
0, 0
1, 0
0, 0
0, 1
0, 0
0, 0
0, 0
0, 0
0, 0
0, 0
0, 0
0, 0
0, 0
0, 0
0, 0
0, 0
0, 0
0, 0
0, 0
0, 0
0, 0
0, 0
0, 0
0, 1
0, 0
0, 0
0, 0
0, 0
0, 0
0, 0
0, 0
0, 0
0, 0
0, 0
0, 0
0, 0
0, 0
0, 0
0, 0
0, 0
0, 0
0, 0
0, 0
0, 0
0, 0
0, 0
0, 0
0, 0
0, 0
0, 0
0, 0
0, 0
0, 0
0, 0
0, 0
0, 0
0, 0
0, 0
0, 0
0, 0
0, 0
0, 0
0, 0
0, 0
0, 0
0, 0
0, 0
0, 0
0, 0
0, 0
0, 0
0, 0
0, 0
0, 0
0, 0
0, 0
0, 0
0, 0
0, 0
0, 0
0, 0
0, 0
0, 0
0, 0
0, 0
0, 0
0, 0
0, 0
0, 0
0, 0
0, 0
0, 0
0, 0
0, 0
0, 0
0, 0
0, 0
0, 0
0, 0
0, 0
0, 0
0, 0
0, 0
0, 0
0, 0
0, 0
0, 0
0, 0
0, 0
0, 0
#ENDOFDATA     end of spectrum data