File: host_upload/02-11-2024/rqc/uplink1/ps__0567_0717304816_000rfs_shot_374.msa
#FORMAT      : EMSA/MAS spectral data file
#VERSION     : TC202v2.0 PIXL
#TITLE       : Novarupta (sol567) subset1
#DATE        : 02-11-2024      Date in the format DD-MMM-YYYY, for example 07-JUL-2010
#TIME        :             The time of day at which the spectrum was recorded, in 24-hour format
#OWNER       : PIXL Flight Model       (PIXL will use this to indicate which instrument took the data.)
#NPOINTS     : 4096     Number of data points in the spectrum (This can be zero for configuration only files)
#NCOLUMNS    : 2     Number of data columns in the spectrum (This can be zero for configuration only files)
#XUNITS      : eV
#YUNITS      : COUNTS
#DATATYPE    : YY
#XPERCHAN    : 7.862, 7.881   eV per channel (separate by commas if more than one detector)
#OFFSET      : 18.5, -22.4         eV of first channel  (separate by commas if more than one detector
#SIGNALTYPE  : XRF
#YP_TEMP     : 1.402
#LIVETIME    : 8.83539, 8.79375   seconds (separate by commas if more than one detector)
#REALTIME    : 10, 10.0   seconds (separate by commas if more than one detector)
#SPECTRUM    : start of spectrum data
0, 0
0, 0
0, 0
0, 0
0, 0
0, 0
0, 0
0, 1
5, 4
5, 6
4, 4
5, 10
11, 10
19, 24
42, 53
102, 106
481, 518
127, 118
25, 43
16, 18
48, 53
293, 332
120, 123
72, 72
240, 255
116, 129
71, 58
24, 36
10, 5
6, 14
30, 35
20, 13
17, 21
184, 250
322, 357
45, 52
35, 44
44, 56
10, 14
6, 10
16, 25
61, 79
32, 38
16, 24
13, 9
22, 19
12, 18
11, 13
10, 17
30, 21
17, 19
11, 11
14, 14
24, 53
48, 40
21, 27
28, 30
326, 520
1508, 1928
1088, 1109
126, 131
11, 22
21, 27
77, 124
284, 295
167, 138
21, 25
7, 15
14, 15
8, 14
7, 8
6, 6
3, 11
6, 7
12, 9
6, 16
9, 11
4, 16
13, 9
12, 24
7, 7
3, 6
4, 3
3, 4
8, 2
4, 5
7, 1
6, 6
2, 3
6, 4
4, 6
4, 5
5, 4
5, 3
3, 2
1, 3
2, 6
2, 5
3, 6
1, 3
2, 2
2, 3
6, 4
2, 3
1, 1
4, 2
2, 3
2, 3
0, 1
5, 1
3, 2
1, 1
0, 2
2, 2
0, 3
0, 3
6, 3
1, 2
3, 2
0, 1
3, 1
1, 2
1, 3
1, 3
3, 2
1, 2
0, 0
3, 3
3, 3
5, 1
1, 0
0, 1
3, 1
3, 1
0, 1
1, 0
0, 1
0, 0
0, 0
0, 1
0, 0
0, 0
0, 1
0, 1
0, 1
1, 2
0, 1
1, 0
0, 2
0, 1
1, 2
0, 0
0, 0
1, 1
0, 0
0, 1
0, 0
0, 1
0, 0
0, 0
0, 0
0, 0
0, 0
0, 0
0, 1
0, 0
0, 0
1, 2
0, 0
0, 1
0, 0
0, 0
0, 1
0, 0
1, 0
1, 0
0, 1
0, 0
0, 0
0, 1
0, 0
0, 1
2, 0
1, 1
0, 0
0, 0
1, 0
0, 0
0, 0
0, 0
1, 0
1, 0
0, 0
0, 0
0, 0
1, 0
0, 0
0, 0
0, 0
0, 0
0, 0
0, 0
0, 0
0, 0
0, 0
0, 0
1, 0
0, 0
0, 0
0, 0
0, 0
0, 0
0, 0
0, 0
1, 0
0, 0
0, 0
0, 0
0, 0
0, 0
0, 0
0, 0
0, 0
0, 0
0, 0
0, 0
0, 0
0, 0
0, 0
0, 0
0, 0
0, 0
0, 0
0, 0
0, 0
0, 0
0, 0
0, 0
0, 0
0, 0
0, 0
0, 0
0, 0
0, 0
0, 0
0, 0
0, 0
0, 0
0, 0
0, 0
0, 0
0, 0
0, 0
0, 0
0, 0
0, 0
0, 0
0, 0
0, 0
0, 0
0, 0
0, 0
0, 0
0, 0
0, 0
0, 0
0, 0
0, 0
0, 0
0, 0
0, 0
0, 0
0, 0
0, 0
0, 0
0, 0
0, 0
0, 0
0, 0
0, 0
0, 0
0, 0
0, 0
0, 0
0, 0
0, 0
0, 0
0, 0
0, 0
0, 0
0, 0
0, 0
0, 0
0, 0
#ENDOFDATA     end of spectrum data