File: host_upload/02-11-2024/rqc/uplink1/ps__0567_0717304816_000rfs_shot_478.msa
#FORMAT      : EMSA/MAS spectral data file
#VERSION     : TC202v2.0 PIXL
#TITLE       : Novarupta (sol567) subset1
#DATE        : 02-11-2024      Date in the format DD-MMM-YYYY, for example 07-JUL-2010
#TIME        :             The time of day at which the spectrum was recorded, in 24-hour format
#OWNER       : PIXL Flight Model       (PIXL will use this to indicate which instrument took the data.)
#NPOINTS     : 4096     Number of data points in the spectrum (This can be zero for configuration only files)
#NCOLUMNS    : 2     Number of data columns in the spectrum (This can be zero for configuration only files)
#XUNITS      : eV
#YUNITS      : COUNTS
#DATATYPE    : YY
#XPERCHAN    : 7.862, 7.881   eV per channel (separate by commas if more than one detector)
#OFFSET      : 18.5, -22.4         eV of first channel  (separate by commas if more than one detector
#SIGNALTYPE  : XRF
#YP_TEMP     : 2.075
#LIVETIME    : 8.83541, 8.82832   seconds (separate by commas if more than one detector)
#REALTIME    : 10, 10.0   seconds (separate by commas if more than one detector)
#SPECTRUM    : start of spectrum data
0, 0
0, 0
0, 0
0, 0
0, 0
0, 0
0, 1
1, 0
6, 3
2, 2
7, 5
8, 12
14, 11
18, 20
39, 62
89, 123
491, 558
145, 120
21, 38
18, 22
52, 49
310, 330
133, 124
72, 80
228, 207
114, 107
64, 65
32, 36
16, 12
7, 3
28, 33
16, 23
18, 21
227, 232
318, 348
56, 47
46, 35
57, 54
11, 12
9, 9
17, 18
56, 64
32, 29
15, 14
14, 7
11, 20
17, 18
16, 9
11, 9
27, 32
23, 21
9, 18
11, 11
35, 35
54, 45
24, 19
28, 31
323, 438
1558, 1707
1110, 967
138, 92
7, 19
28, 28
79, 96
244, 267
166, 139
22, 22
9, 6
11, 7
3, 7
10, 4
9, 5
5, 4
11, 9
9, 5
7, 8
5, 7
4, 8
12, 5
12, 14
7, 8
6, 5
2, 7
4, 3
1, 7
4, 4
5, 6
1, 12
1, 2
5, 6
7, 3
5, 4
8, 6
7, 3
6, 4
5, 2
4, 5
2, 2
8, 5
3, 2
4, 5
3, 3
2, 3
4, 2
2, 4
3, 1
1, 1
1, 0
2, 2
0, 3
2, 3
2, 2
2, 1
1, 4
2, 4
1, 4
3, 4
1, 1
2, 3
1, 1
3, 4
0, 3
1, 1
1, 2
3, 1
2, 1
1, 1
2, 2
0, 0
1, 2
2, 0
0, 2
1, 2
0, 1
1, 0
0, 1
1, 1
0, 2
0, 0
0, 0
2, 0
1, 2
2, 2
0, 0
1, 1
0, 1
1, 2
0, 1
0, 0
0, 0
1, 0
1, 0
1, 0
0, 1
0, 0
0, 0
0, 1
0, 0
0, 0
1, 0
1, 1
0, 0
0, 0
0, 0
0, 0
0, 0
0, 0
0, 0
0, 1
1, 0
0, 0
0, 0
0, 1
0, 1
1, 0
0, 0
0, 1
0, 0
0, 1
0, 0
0, 0
0, 0
0, 1
0, 0
0, 0
0, 0
0, 0
1, 1
1, 0
0, 0
0, 0
0, 0
0, 1
0, 0
0, 0
0, 0
0, 0
0, 0
0, 0
0, 0
0, 0
0, 0
0, 0
0, 0
0, 0
0, 0
0, 0
0, 0
0, 0
0, 0
0, 0
0, 0
0, 0
1, 0
0, 0
0, 0
0, 0
0, 0
0, 0
0, 0
0, 0
0, 0
0, 0
0, 0
0, 0
0, 0
0, 0
0, 0
0, 0
0, 0
0, 0
0, 0
0, 0
0, 0
0, 0
0, 0
0, 0
0, 0
0, 0
0, 0
0, 0
0, 0
0, 0
0, 0
0, 0
0, 0
0, 0
0, 0
0, 0
0, 0
0, 0
0, 0
0, 0
0, 0
0, 0
0, 0
0, 0
0, 0
0, 0
0, 0
0, 0
0, 0
0, 0
0, 0
0, 0
0, 0
0, 0
0, 0
0, 0
0, 0
0, 0
0, 0
0, 0
0, 0
0, 0
0, 0
0, 0
0, 0
0, 0
0, 0
0, 0
0, 0
0, 0
0, 0
0, 0
0, 0
0, 0
0, 0
0, 0
0, 0
0, 0
0, 0
0, 0
0, 0
#ENDOFDATA     end of spectrum data