File: host_upload/02-11-2024/rqc/uplink1/ps__0567_0717304816_000rfs_shot_196.msa
#FORMAT      : EMSA/MAS spectral data file
#VERSION     : TC202v2.0 PIXL
#TITLE       : Novarupta (sol567) subset1
#DATE        : 02-11-2024      Date in the format DD-MMM-YYYY, for example 07-JUL-2010
#TIME        :             The time of day at which the spectrum was recorded, in 24-hour format
#OWNER       : PIXL Flight Model       (PIXL will use this to indicate which instrument took the data.)
#NPOINTS     : 4096     Number of data points in the spectrum (This can be zero for configuration only files)
#NCOLUMNS    : 2     Number of data columns in the spectrum (This can be zero for configuration only files)
#XUNITS      : eV
#YUNITS      : COUNTS
#DATATYPE    : YY
#XPERCHAN    : 7.862, 7.881   eV per channel (separate by commas if more than one detector)
#OFFSET      : 18.5, -22.4         eV of first channel  (separate by commas if more than one detector
#SIGNALTYPE  : XRF
#YP_TEMP     : 0.536
#LIVETIME    : 8.83068, 8.82247   seconds (separate by commas if more than one detector)
#REALTIME    : 10, 10.0   seconds (separate by commas if more than one detector)
#SPECTRUM    : start of spectrum data
0, 0
0, 0
0, 0
0, 0
0, 0
0, 0
0, 0
0, 0
3, 3
3, 2
6, 2
8, 12
9, 11
19, 20
35, 45
103, 125
493, 526
104, 103
37, 35
19, 26
45, 45
294, 302
121, 144
80, 61
202, 204
114, 93
52, 64
25, 31
9, 11
8, 4
24, 23
13, 14
23, 13
226, 237
319, 329
48, 50
36, 49
62, 45
11, 15
7, 13
19, 18
58, 56
30, 29
9, 15
15, 12
21, 20
14, 22
10, 14
16, 9
37, 33
27, 22
11, 6
8, 11
42, 37
47, 49
14, 22
35, 38
376, 444
1629, 1689
1025, 1030
117, 107
15, 19
24, 16
95, 106
230, 304
129, 128
27, 19
13, 12
11, 9
6, 9
5, 5
4, 4
4, 3
7, 6
11, 10
7, 10
2, 8
7, 9
11, 7
7, 19
6, 7
2, 9
6, 5
2, 7
9, 6
3, 2
3, 1
3, 8
4, 4
5, 3
6, 5
1, 5
8, 4
3, 2
3, 2
3, 3
2, 2
1, 6
2, 4
5, 3
0, 1
0, 4
6, 4
3, 5
2, 1
3, 2
4, 0
1, 3
0, 2
3, 0
1, 1
4, 4
0, 2
1, 3
2, 2
2, 2
4, 5
1, 0
3, 1
1, 3
2, 1
0, 2
1, 1
2, 0
2, 1
0, 4
2, 0
1, 0
1, 1
1, 1
0, 1
3, 0
1, 1
2, 2
0, 0
0, 0
0, 0
0, 0
1, 1
1, 0
0, 0
0, 1
1, 0
1, 2
0, 0
0, 0
1, 0
0, 0
0, 0
0, 0
0, 0
0, 0
0, 0
1, 0
1, 0
0, 0
0, 0
0, 1
0, 0
0, 0
1, 0
0, 0
0, 0
0, 0
0, 0
1, 0
0, 0
0, 0
0, 1
0, 0
0, 0
0, 0
0, 0
0, 0
1, 0
1, 0
0, 0
0, 0
0, 0
0, 0
0, 0
2, 0
0, 0
0, 0
0, 0
0, 0
0, 0
0, 0
0, 0
0, 0
0, 0
0, 0
0, 0
0, 0
0, 0
0, 0
0, 0
0, 0
0, 0
0, 0
0, 0
1, 0
0, 1
0, 0
0, 0
0, 0
0, 0
0, 0
0, 0
0, 0
0, 0
0, 0
0, 0
0, 0
0, 0
0, 0
0, 0
0, 0
0, 0
0, 0
0, 0
0, 0
0, 0
0, 0
0, 0
0, 0
0, 0
0, 0
0, 0
0, 0
0, 0
0, 0
0, 0
0, 0
0, 0
0, 0
0, 0
0, 0
0, 0
0, 0
0, 0
0, 0
0, 0
0, 0
0, 0
0, 0
0, 0
0, 0
0, 0
0, 0
0, 0
0, 0
0, 0
0, 0
0, 0
0, 0
0, 0
0, 0
0, 0
0, 0
0, 0
0, 0
0, 0
0, 0
0, 0
0, 0
0, 0
0, 0
0, 0
0, 0
0, 0
0, 0
0, 0
0, 0
0, 0
0, 0
0, 0
0, 0
0, 0
0, 0
0, 0
0, 0
0, 0
0, 0
0, 0
0, 0
0, 0
0, 0
0, 0
0, 0
0, 0
0, 0
0, 0
0, 0
#ENDOFDATA     end of spectrum data