File: host_upload/02-11-2024/rqc/uplink1/ps__0567_0717304816_000rfs_shot_465.msa
#FORMAT      : EMSA/MAS spectral data file
#VERSION     : TC202v2.0 PIXL
#TITLE       : Novarupta (sol567) subset1
#DATE        : 02-11-2024      Date in the format DD-MMM-YYYY, for example 07-JUL-2010
#TIME        :             The time of day at which the spectrum was recorded, in 24-hour format
#OWNER       : PIXL Flight Model       (PIXL will use this to indicate which instrument took the data.)
#NPOINTS     : 4096     Number of data points in the spectrum (This can be zero for configuration only files)
#NCOLUMNS    : 2     Number of data columns in the spectrum (This can be zero for configuration only files)
#XUNITS      : eV
#YUNITS      : COUNTS
#DATATYPE    : YY
#XPERCHAN    : 7.862, 7.881   eV per channel (separate by commas if more than one detector)
#OFFSET      : 18.5, -22.4         eV of first channel  (separate by commas if more than one detector
#SIGNALTYPE  : XRF
#YP_TEMP     : 2.043
#LIVETIME    : 8.83235, 8.82095   seconds (separate by commas if more than one detector)
#REALTIME    : 10, 10.0   seconds (separate by commas if more than one detector)
#SPECTRUM    : start of spectrum data
0, 0
0, 0
0, 0
0, 0
0, 0
0, 0
0, 0
0, 0
2, 3
0, 4
3, 5
9, 7
5, 19
17, 29
41, 40
112, 129
490, 581
104, 111
24, 31
21, 22
38, 60
275, 307
120, 124
77, 66
228, 272
108, 127
67, 59
26, 34
8, 7
12, 7
25, 32
17, 14
16, 18
186, 238
324, 356
55, 47
41, 39
51, 61
7, 13
8, 7
23, 29
65, 72
34, 35
15, 13
17, 10
15, 20
12, 13
16, 13
15, 21
30, 30
19, 24
15, 15
12, 13
32, 42
44, 53
17, 26
32, 36
317, 496
1554, 1839
1066, 1050
131, 111
20, 19
27, 25
69, 74
246, 289
139, 140
28, 11
5, 12
5, 14
11, 6
5, 6
5, 5
2, 5
4, 7
2, 11
10, 8
1, 7
5, 6
14, 10
11, 3
8, 5
10, 4
1, 6
4, 9
11, 4
7, 4
6, 7
6, 6
5, 2
3, 5
7, 5
4, 3
7, 3
3, 6
4, 4
4, 1
1, 6
2, 8
4, 3
1, 6
2, 5
4, 2
2, 2
1, 2
7, 1
2, 5
1, 5
1, 1
1, 0
2, 2
0, 1
4, 2
2, 3
0, 1
1, 1
3, 2
3, 3
3, 1
0, 0
2, 4
2, 0
0, 0
1, 2
6, 0
1, 3
2, 1
0, 0
1, 1
1, 1
0, 1
1, 1
1, 1
0, 1
1, 1
1, 1
1, 0
1, 0
2, 2
0, 1
1, 0
2, 1
1, 1
2, 3
3, 1
0, 0
0, 0
0, 2
0, 0
1, 0
0, 0
1, 2
0, 0
1, 0
0, 1
0, 1
1, 0
0, 2
0, 0
0, 0
0, 0
1, 1
1, 1
0, 0
0, 0
0, 0
1, 1
0, 0
0, 0
0, 1
0, 0
0, 0
0, 0
1, 0
0, 2
0, 0
0, 1
0, 0
0, 0
0, 0
0, 0
0, 0
0, 1
0, 0
0, 0
0, 1
0, 0
0, 0
0, 0
0, 0
0, 0
0, 0
0, 0
0, 0
0, 0
0, 0
0, 0
0, 0
0, 0
0, 0
0, 0
0, 0
0, 0
0, 0
0, 0
0, 0
1, 0
0, 0
0, 0
0, 0
0, 0
0, 0
0, 0
0, 0
0, 0
0, 0
0, 0
0, 0
0, 0
0, 0
0, 0
0, 0
0, 0
0, 0
0, 0
0, 0
0, 0
0, 0
0, 0
0, 0
0, 0
0, 0
0, 0
0, 0
0, 0
0, 0
0, 0
0, 0
0, 0
0, 0
0, 0
0, 0
0, 0
0, 0
0, 0
0, 0
0, 0
0, 0
0, 0
0, 0
0, 0
0, 0
0, 0
0, 0
0, 0
0, 0
0, 0
0, 0
0, 0
0, 0
0, 0
0, 0
0, 0
0, 0
0, 0
0, 0
0, 0
0, 0
0, 0
0, 0
0, 0
0, 0
0, 0
0, 0
0, 0
0, 0
0, 0
0, 0
0, 0
0, 0
0, 0
0, 0
0, 0
0, 0
0, 0
0, 0
0, 0
0, 0
0, 0
0, 0
0, 0
0, 0
0, 0
0, 0
0, 0
#ENDOFDATA     end of spectrum data