File: host_upload/02-11-2024/rqc/uplink1/ps__0567_0717304816_000rfs_shot_166.msa
#FORMAT      : EMSA/MAS spectral data file
#VERSION     : TC202v2.0 PIXL
#TITLE       : Novarupta (sol567) subset1
#DATE        : 02-11-2024      Date in the format DD-MMM-YYYY, for example 07-JUL-2010
#TIME        :             The time of day at which the spectrum was recorded, in 24-hour format
#OWNER       : PIXL Flight Model       (PIXL will use this to indicate which instrument took the data.)
#NPOINTS     : 4096     Number of data points in the spectrum (This can be zero for configuration only files)
#NCOLUMNS    : 2     Number of data columns in the spectrum (This can be zero for configuration only files)
#XUNITS      : eV
#YUNITS      : COUNTS
#DATATYPE    : YY
#XPERCHAN    : 7.862, 7.881   eV per channel (separate by commas if more than one detector)
#OFFSET      : 18.5, -22.4         eV of first channel  (separate by commas if more than one detector
#SIGNALTYPE  : XRF
#YP_TEMP     : 0.119
#LIVETIME    : 8.83188, 8.82523   seconds (separate by commas if more than one detector)
#REALTIME    : 10, 10.0   seconds (separate by commas if more than one detector)
#SPECTRUM    : start of spectrum data
0, 0
0, 0
0, 0
0, 0
0, 0
0, 0
0, 0
0, 2
4, 3
2, 1
3, 9
11, 7
13, 18
29, 24
45, 53
91, 104
486, 525
103, 116
29, 31
29, 17
54, 50
277, 296
122, 126
83, 79
259, 286
143, 124
80, 71
34, 25
10, 7
9, 11
22, 27
10, 23
28, 25
247, 220
334, 331
62, 50
42, 44
55, 62
11, 9
6, 7
21, 37
57, 79
46, 32
9, 14
14, 16
20, 20
8, 12
12, 8
13, 14
23, 33
25, 21
15, 20
15, 10
33, 46
50, 47
25, 13
35, 33
390, 521
1655, 1803
1079, 938
123, 106
18, 13
20, 24
91, 111
284, 278
166, 129
21, 13
10, 13
4, 15
10, 11
4, 10
4, 12
4, 9
8, 4
8, 9
12, 12
7, 13
6, 7
9, 8
8, 9
11, 6
6, 5
6, 7
4, 9
7, 5
4, 6
9, 5
3, 9
2, 7
6, 4
6, 4
7, 2
2, 3
3, 2
6, 4
5, 3
4, 1
2, 3
1, 3
6, 3
1, 2
1, 8
3, 3
6, 1
0, 3
4, 1
5, 2
1, 3
4, 1
2, 4
1, 0
2, 2
1, 1
1, 4
0, 3
2, 2
3, 11
3, 2
1, 1
1, 1
0, 1
0, 1
0, 1
1, 0
4, 3
2, 1
0, 1
0, 2
2, 1
2, 3
0, 2
0, 3
2, 1
2, 0
1, 2
0, 1
1, 1
0, 0
0, 1
0, 0
0, 1
1, 2
0, 1
0, 0
2, 0
0, 1
1, 1
0, 0
0, 2
0, 0
0, 0
0, 0
0, 0
0, 1
0, 0
0, 1
1, 0
1, 0
1, 0
0, 0
1, 0
1, 0
0, 0
0, 0
0, 0
0, 1
0, 3
0, 0
1, 1
0, 0
1, 0
0, 0
1, 0
0, 0
0, 0
0, 0
0, 0
0, 0
0, 0
0, 0
0, 0
0, 0
0, 0
1, 1
0, 1
1, 0
0, 0
0, 0
0, 0
0, 0
0, 1
0, 0
0, 0
0, 0
0, 0
1, 0
1, 0
0, 0
0, 0
0, 0
0, 0
0, 0
0, 0
0, 0
0, 0
0, 0
0, 0
0, 0
0, 0
0, 0
0, 0
0, 0
0, 0
0, 0
0, 0
0, 0
0, 0
0, 0
0, 0
0, 0
0, 0
0, 0
0, 0
0, 0
0, 0
0, 0
0, 0
0, 0
0, 0
0, 0
0, 0
0, 0
0, 0
0, 0
0, 0
0, 0
0, 0
0, 0
0, 0
0, 0
0, 0
0, 0
0, 0
0, 0
0, 0
0, 0
0, 0
0, 0
0, 0
0, 0
0, 0
0, 0
0, 0
0, 0
0, 0
0, 0
0, 0
0, 0
0, 0
0, 0
0, 0
0, 0
0, 0
0, 0
0, 0
0, 0
0, 0
0, 0
0, 0
0, 0
0, 0
0, 0
0, 0
0, 0
0, 0
0, 0
0, 0
0, 0
0, 0
0, 0
0, 0
0, 0
0, 0
0, 0
0, 0
0, 0
0, 0
0, 0
0, 0
0, 0
0, 0
0, 0
0, 0
0, 0
#ENDOFDATA     end of spectrum data