File: host_upload/02-11-2024/rqc/uplink1/ps__0567_0717304816_000rfs_shot_17.msa
#FORMAT      : EMSA/MAS spectral data file
#VERSION     : TC202v2.0 PIXL
#TITLE       : Novarupta (sol567) subset1
#DATE        : 02-11-2024      Date in the format DD-MMM-YYYY, for example 07-JUL-2010
#TIME        :             The time of day at which the spectrum was recorded, in 24-hour format
#OWNER       : PIXL Flight Model       (PIXL will use this to indicate which instrument took the data.)
#NPOINTS     : 4096     Number of data points in the spectrum (This can be zero for configuration only files)
#NCOLUMNS    : 2     Number of data columns in the spectrum (This can be zero for configuration only files)
#XUNITS      : eV
#YUNITS      : COUNTS
#DATATYPE    : YY
#XPERCHAN    : 7.862, 7.881   eV per channel (separate by commas if more than one detector)
#OFFSET      : 18.5, -22.4         eV of first channel  (separate by commas if more than one detector
#SIGNALTYPE  : XRF
#YP_TEMP     : -4.307
#LIVETIME    : 8.83748, 8.81917   seconds (separate by commas if more than one detector)
#REALTIME    : 10, 10.0   seconds (separate by commas if more than one detector)
#SPECTRUM    : start of spectrum data
0, 0
0, 0
0, 0
0, 0
0, 0
0, 0
0, 0
0, 1
5, 0
2, 3
8, 1
11, 13
6, 12
24, 35
44, 43
127, 143
410, 501
124, 119
38, 31
27, 12
72, 74
247, 323
94, 110
96, 107
223, 221
111, 133
57, 78
31, 21
8, 9
6, 9
34, 35
15, 18
35, 33
261, 287
268, 272
41, 48
56, 56
44, 45
10, 9
8, 10
24, 33
67, 68
33, 28
11, 24
15, 16
20, 26
8, 13
9, 19
19, 13
31, 38
22, 19
16, 11
19, 23
43, 47
41, 46
25, 22
54, 73
645, 775
1672, 1775
715, 664
69, 52
15, 9
22, 31
158, 156
241, 268
111, 105
11, 9
13, 10
13, 17
8, 6
8, 6
6, 5
3, 10
2, 6
6, 3
7, 8
7, 8
2, 8
11, 12
7, 8
5, 1
6, 7
7, 8
4, 3
7, 4
3, 6
8, 6
6, 5
1, 3
3, 6
5, 6
3, 5
6, 4
3, 1
3, 1
4, 1
3, 6
3, 2
4, 4
3, 3
1, 2
4, 5
4, 3
2, 2
2, 4
1, 4
0, 0
1, 3
1, 4
2, 3
3, 2
3, 4
1, 2
1, 3
0, 0
2, 5
4, 1
0, 1
1, 3
5, 0
0, 4
1, 1
1, 3
3, 3
3, 1
0, 1
0, 1
1, 0
2, 0
1, 1
0, 4
0, 3
1, 0
0, 0
0, 0
0, 0
2, 1
0, 1
1, 0
1, 1
0, 1
0, 0
3, 1
0, 0
0, 2
0, 0
1, 1
1, 0
1, 0
0, 0
0, 1
1, 1
3, 1
0, 1
0, 1
0, 1
0, 1
0, 0
0, 1
1, 0
1, 0
1, 0
0, 0
0, 0
0, 1
0, 0
0, 0
0, 1
0, 0
1, 0
0, 0
0, 0
1, 0
0, 0
0, 0
0, 0
0, 0
0, 1
0, 0
0, 0
1, 0
0, 0
0, 0
0, 0
1, 0
1, 0
0, 0
0, 0
0, 0
0, 0
0, 0
0, 0
0, 0
0, 0
0, 0
0, 0
0, 0
0, 0
0, 0
0, 0
0, 0
0, 1
0, 0
0, 0
0, 0
0, 0
0, 0
0, 0
0, 0
0, 0
0, 0
0, 0
0, 0
0, 0
0, 0
0, 0
0, 0
0, 0
0, 0
0, 0
0, 0
0, 0
0, 0
0, 0
0, 0
0, 0
0, 0
0, 0
0, 0
0, 0
0, 0
0, 0
0, 0
0, 0
0, 0
0, 0
0, 0
0, 0
0, 0
0, 0
0, 0
0, 0
0, 0
0, 0
0, 0
0, 0
0, 0
0, 0
0, 0
0, 0
0, 0
0, 0
0, 0
0, 0
0, 0
0, 0
0, 0
0, 0
0, 0
0, 0
0, 0
0, 0
0, 0
0, 0
0, 0
0, 0
0, 0
0, 0
0, 0
0, 0
0, 0
0, 0
0, 0
0, 0
0, 0
0, 0
0, 0
0, 0
0, 0
0, 0
0, 0
0, 0
0, 0
0, 0
0, 0
0, 0
0, 0
0, 0
0, 0
0, 0
0, 0
0, 0
0, 0
0, 0
#ENDOFDATA     end of spectrum data