File: host_upload/02-11-2024/rqc/uplink1/ps__0567_0717304816_000rfs_shot_24.msa
#FORMAT      : EMSA/MAS spectral data file
#VERSION     : TC202v2.0 PIXL
#TITLE       : Novarupta (sol567) subset1
#DATE        : 02-11-2024      Date in the format DD-MMM-YYYY, for example 07-JUL-2010
#TIME        :             The time of day at which the spectrum was recorded, in 24-hour format
#OWNER       : PIXL Flight Model       (PIXL will use this to indicate which instrument took the data.)
#NPOINTS     : 4096     Number of data points in the spectrum (This can be zero for configuration only files)
#NCOLUMNS    : 2     Number of data columns in the spectrum (This can be zero for configuration only files)
#XUNITS      : eV
#YUNITS      : COUNTS
#DATATYPE    : YY
#XPERCHAN    : 7.862, 7.881   eV per channel (separate by commas if more than one detector)
#OFFSET      : 18.5, -22.4         eV of first channel  (separate by commas if more than one detector
#SIGNALTYPE  : XRF
#YP_TEMP     : -4.179
#LIVETIME    : 8.83634, 8.83063   seconds (separate by commas if more than one detector)
#REALTIME    : 10, 10.0   seconds (separate by commas if more than one detector)
#SPECTRUM    : start of spectrum data
0, 0
0, 0
0, 0
0, 0
0, 0
0, 0
0, 1
1, 1
4, 4
3, 6
5, 6
9, 6
8, 11
21, 28
43, 39
125, 137
457, 503
97, 101
37, 35
20, 25
65, 79
280, 337
130, 107
100, 105
253, 249
111, 95
63, 55
30, 30
12, 9
7, 12
24, 32
10, 15
35, 27
269, 263
265, 274
34, 51
41, 48
41, 57
14, 16
11, 7
28, 31
65, 64
23, 31
11, 16
17, 15
16, 13
10, 19
15, 4
21, 16
19, 25
24, 14
7, 9
18, 17
47, 56
45, 40
17, 14
47, 66
583, 719
1594, 1865
782, 768
98, 56
20, 7
26, 25
135, 126
253, 249
91, 89
22, 12
7, 10
9, 14
1, 9
5, 8
4, 3
7, 4
7, 6
7, 9
9, 10
6, 9
9, 8
4, 12
9, 7
7, 7
5, 6
7, 3
5, 5
5, 6
2, 8
6, 8
8, 5
4, 4
4, 4
3, 3
4, 9
2, 3
5, 7
9, 3
5, 1
5, 7
3, 2
1, 4
3, 5
4, 2
4, 0
0, 2
3, 5
3, 1
4, 1
3, 2
1, 3
1, 3
3, 3
2, 1
0, 1
2, 4
3, 1
4, 4
4, 3
2, 2
3, 3
2, 5
1, 3
1, 4
0, 4
1, 6
1, 1
1, 0
1, 0
3, 3
1, 3
1, 1
0, 1
0, 3
1, 3
1, 1
0, 1
1, 3
0, 5
2, 1
0, 0
2, 0
1, 0
0, 2
0, 1
0, 1
0, 0
2, 0
0, 0
0, 0
1, 0
2, 0
0, 0
0, 0
2, 0
0, 1
0, 0
1, 0
0, 0
0, 1
0, 0
0, 0
0, 0
1, 0
0, 2
1, 0
0, 0
0, 0
0, 0
0, 0
0, 1
0, 0
0, 0
0, 0
1, 0
0, 0
0, 1
0, 0
0, 0
0, 0
1, 1
0, 0
0, 1
0, 1
0, 0
0, 0
0, 0
0, 0
0, 0
0, 0
0, 0
0, 0
0, 0
0, 0
0, 0
0, 0
0, 0
0, 0
0, 0
0, 0
0, 1
0, 0
0, 1
0, 0
0, 0
0, 0
0, 0
0, 0
0, 0
0, 0
0, 0
0, 0
0, 0
1, 0
0, 0
0, 0
0, 0
0, 0
0, 0
0, 0
0, 0
0, 0
0, 0
0, 0
0, 0
0, 0
0, 0
0, 0
0, 0
0, 0
0, 0
0, 0
0, 0
0, 1
0, 0
0, 0
0, 0
0, 0
0, 0
0, 0
0, 0
0, 0
0, 0
0, 0
0, 0
0, 0
0, 0
0, 0
0, 0
0, 0
0, 0
0, 0
0, 0
0, 0
0, 0
0, 0
0, 0
0, 0
0, 0
0, 0
0, 0
0, 0
0, 0
0, 0
0, 0
0, 0
0, 0
0, 0
0, 0
0, 0
0, 0
0, 0
0, 0
0, 0
0, 0
0, 0
0, 0
0, 0
0, 0
0, 0
0, 0
0, 0
0, 0
0, 0
0, 0
0, 0
0, 0
0, 0
0, 0
0, 0
0, 0
0, 0
0, 0
0, 0
0, 0
0, 0
0, 0
#ENDOFDATA     end of spectrum data