File: host_upload/02-11-2024/rqc/uplink1/ps__0567_0717304816_000rfs_shot_29.msa
#FORMAT      : EMSA/MAS spectral data file
#VERSION     : TC202v2.0 PIXL
#TITLE       : Novarupta (sol567) subset1
#DATE        : 02-11-2024      Date in the format DD-MMM-YYYY, for example 07-JUL-2010
#TIME        :             The time of day at which the spectrum was recorded, in 24-hour format
#OWNER       : PIXL Flight Model       (PIXL will use this to indicate which instrument took the data.)
#NPOINTS     : 4096     Number of data points in the spectrum (This can be zero for configuration only files)
#NCOLUMNS    : 2     Number of data columns in the spectrum (This can be zero for configuration only files)
#XUNITS      : eV
#YUNITS      : COUNTS
#DATATYPE    : YY
#XPERCHAN    : 7.862, 7.881   eV per channel (separate by commas if more than one detector)
#OFFSET      : 18.5, -22.4         eV of first channel  (separate by commas if more than one detector
#SIGNALTYPE  : XRF
#YP_TEMP     : -4.371
#LIVETIME    : 8.84097, 8.8216   seconds (separate by commas if more than one detector)
#REALTIME    : 10, 10.0   seconds (separate by commas if more than one detector)
#SPECTRUM    : start of spectrum data
0, 0
0, 0
0, 0
0, 0
0, 0
0, 0
0, 0
2, 3
2, 1
1, 4
5, 8
8, 4
12, 13
19, 19
34, 38
134, 120
463, 487
112, 115
49, 27
30, 18
73, 73
299, 294
107, 104
93, 86
234, 251
127, 119
63, 76
24, 22
8, 6
5, 11
28, 28
13, 10
26, 34
229, 271
276, 325
53, 53
44, 43
45, 49
11, 13
8, 7
22, 32
50, 69
33, 34
16, 14
22, 17
15, 18
18, 12
11, 11
15, 23
32, 39
27, 20
8, 10
15, 17
32, 36
50, 45
16, 18
48, 54
535, 653
1679, 1788
781, 748
81, 55
14, 16
34, 20
127, 140
236, 276
134, 103
17, 11
11, 10
9, 14
10, 11
5, 2
8, 8
9, 5
5, 9
5, 9
7, 9
3, 7
6, 3
9, 8
8, 15
10, 8
6, 11
3, 8
7, 9
4, 3
3, 7
4, 7
3, 4
3, 6
4, 5
4, 6
2, 4
5, 4
1, 3
4, 3
4, 5
3, 8
3, 3
3, 1
3, 1
4, 4
3, 1
2, 1
4, 1
3, 3
4, 0
1, 6
4, 3
2, 6
2, 2
1, 4
0, 1
0, 2
1, 2
0, 1
3, 7
4, 5
4, 3
2, 0
4, 2
2, 2
1, 1
2, 3
0, 1
0, 0
0, 3
0, 1
1, 4
0, 1
1, 5
0, 0
0, 0
0, 1
0, 1
2, 1
0, 2
0, 0
0, 0
0, 0
1, 1
2, 0
1, 0
0, 3
0, 2
1, 1
0, 0
1, 0
1, 0
1, 2
0, 0
1, 0
1, 0
1, 0
0, 0
1, 0
1, 0
0, 0
0, 0
0, 0
0, 2
0, 1
0, 1
0, 0
0, 0
0, 0
0, 1
0, 2
1, 0
0, 0
1, 0
1, 0
1, 0
0, 1
0, 0
0, 1
0, 2
0, 0
1, 0
0, 0
0, 0
1, 1
0, 0
0, 0
0, 1
0, 0
0, 0
0, 0
0, 0
0, 0
1, 0
0, 1
0, 0
0, 0
0, 0
0, 0
0, 0
0, 0
0, 0
0, 0
0, 0
0, 0
0, 0
0, 0
0, 0
0, 0
0, 0
0, 0
0, 0
0, 0
0, 0
0, 0
0, 0
0, 0
0, 0
0, 0
0, 0
0, 0
0, 0
0, 0
0, 0
0, 0
0, 0
0, 0
0, 0
0, 0
0, 0
0, 0
0, 0
0, 0
0, 0
0, 0
0, 0
0, 0
0, 0
0, 0
0, 0
0, 0
0, 0
0, 0
0, 0
0, 0
0, 0
0, 0
0, 0
0, 0
0, 0
0, 0
0, 0
0, 0
0, 0
0, 0
0, 0
0, 0
0, 0
0, 0
0, 0
0, 0
0, 0
0, 0
0, 0
0, 0
0, 0
0, 0
0, 0
0, 0
0, 0
0, 0
0, 0
0, 0
0, 0
0, 0
0, 0
0, 0
0, 0
0, 0
0, 0
0, 0
0, 0
0, 0
0, 0
0, 0
0, 0
0, 0
0, 0
0, 0
0, 0
0, 0
0, 0
0, 0
0, 0
0, 0
0, 0
0, 0
0, 0
#ENDOFDATA     end of spectrum data