File: host_upload/02-11-2024/rqc/uplink1/ps__0567_0717304816_000rfs_shot_347.msa
#FORMAT      : EMSA/MAS spectral data file
#VERSION     : TC202v2.0 PIXL
#TITLE       : Novarupta (sol567) subset1
#DATE        : 02-11-2024      Date in the format DD-MMM-YYYY, for example 07-JUL-2010
#TIME        :             The time of day at which the spectrum was recorded, in 24-hour format
#OWNER       : PIXL Flight Model       (PIXL will use this to indicate which instrument took the data.)
#NPOINTS     : 4096     Number of data points in the spectrum (This can be zero for configuration only files)
#NCOLUMNS    : 2     Number of data columns in the spectrum (This can be zero for configuration only files)
#XUNITS      : eV
#YUNITS      : COUNTS
#DATATYPE    : YY
#XPERCHAN    : 7.862, 7.881   eV per channel (separate by commas if more than one detector)
#OFFSET      : 18.5, -22.4         eV of first channel  (separate by commas if more than one detector
#SIGNALTYPE  : XRF
#YP_TEMP     : 1.466
#LIVETIME    : 8.83262, 8.81681   seconds (separate by commas if more than one detector)
#REALTIME    : 10, 10.0   seconds (separate by commas if more than one detector)
#SPECTRUM    : start of spectrum data
0, 0
0, 0
0, 0
0, 0
0, 0
0, 0
0, 0
1, 0
3, 3
0, 2
3, 3
13, 12
10, 16
23, 22
40, 51
106, 117
460, 515
132, 114
29, 24
23, 22
57, 50
276, 306
96, 125
53, 76
207, 224
120, 113
69, 68
19, 35
9, 9
11, 5
33, 23
16, 18
19, 17
173, 227
302, 357
46, 46
32, 41
40, 45
12, 22
11, 6
19, 31
68, 70
30, 53
20, 17
13, 9
16, 16
7, 13
9, 12
7, 11
25, 35
25, 28
12, 9
11, 22
37, 25
40, 46
15, 21
17, 36
368, 500
1555, 1814
1029, 1058
119, 97
17, 8
16, 20
80, 121
270, 299
169, 137
21, 19
3, 14
12, 17
10, 8
6, 9
7, 4
8, 4
6, 12
7, 8
4, 9
10, 13
7, 3
10, 18
13, 16
5, 10
14, 7
6, 8
8, 2
3, 4
2, 8
4, 2
3, 5
5, 3
4, 6
5, 7
2, 3
1, 6
6, 5
5, 4
1, 5
1, 3
4, 3
2, 5
3, 3
3, 3
2, 1
1, 3
3, 5
2, 3
1, 1
2, 1
5, 1
3, 4
1, 0
4, 2
0, 4
1, 2
0, 1
2, 2
0, 2
2, 1
2, 2
2, 3
1, 1
2, 1
1, 1
1, 2
1, 2
1, 2
1, 2
1, 1
1, 2
2, 0
0, 1
2, 1
0, 0
1, 0
0, 0
0, 0
1, 2
0, 1
0, 1
0, 0
2, 1
0, 2
0, 1
0, 0
0, 0
0, 2
2, 0
0, 0
1, 0
1, 1
0, 0
0, 1
0, 0
2, 0
0, 1
0, 0
1, 1
0, 1
2, 1
0, 1
1, 0
0, 0
0, 0
0, 0
0, 0
0, 0
0, 1
0, 1
0, 1
0, 0
1, 0
0, 0
0, 1
2, 1
0, 1
0, 0
0, 0
0, 0
0, 0
0, 0
0, 0
0, 0
0, 0
0, 0
0, 0
0, 0
0, 0
0, 0
1, 0
0, 0
0, 0
0, 0
0, 0
0, 0
0, 0
0, 0
0, 0
0, 0
0, 1
0, 0
0, 0
0, 0
0, 0
0, 0
1, 0
0, 0
0, 0
0, 0
1, 1
0, 0
0, 0
0, 0
0, 0
0, 0
0, 0
0, 0
0, 0
0, 0
0, 0
0, 0
0, 0
0, 0
0, 0
0, 0
0, 0
0, 0
0, 0
0, 0
0, 0
0, 0
0, 0
0, 0
0, 0
0, 0
0, 0
0, 0
0, 0
0, 0
0, 0
0, 0
0, 0
0, 0
0, 0
0, 0
0, 0
0, 0
0, 0
0, 0
0, 0
0, 0
0, 0
0, 0
0, 0
0, 0
0, 0
0, 0
0, 0
0, 0
0, 0
0, 0
0, 0
0, 0
0, 0
0, 0
0, 0
0, 0
0, 0
0, 0
0, 0
0, 0
0, 0
0, 0
0, 0
0, 0
0, 0
0, 0
0, 0
0, 0
0, 0
0, 0
0, 0
0, 0
0, 0
0, 0
0, 0
0, 0
0, 0
0, 0
0, 0
0, 0
0, 0
0, 0
0, 0
0, 0
0, 0
#ENDOFDATA     end of spectrum data