File: host_upload/02-11-2024/rqc/uplink1/ps__0567_0717304816_000rfs_shot_392.msa
#FORMAT      : EMSA/MAS spectral data file
#VERSION     : TC202v2.0 PIXL
#TITLE       : Novarupta (sol567) subset1
#DATE        : 02-11-2024      Date in the format DD-MMM-YYYY, for example 07-JUL-2010
#TIME        :             The time of day at which the spectrum was recorded, in 24-hour format
#OWNER       : PIXL Flight Model       (PIXL will use this to indicate which instrument took the data.)
#NPOINTS     : 4096     Number of data points in the spectrum (This can be zero for configuration only files)
#NCOLUMNS    : 2     Number of data columns in the spectrum (This can be zero for configuration only files)
#XUNITS      : eV
#YUNITS      : COUNTS
#DATATYPE    : YY
#XPERCHAN    : 7.862, 7.881   eV per channel (separate by commas if more than one detector)
#OFFSET      : 18.5, -22.4         eV of first channel  (separate by commas if more than one detector
#SIGNALTYPE  : XRF
#YP_TEMP     : 1.658
#LIVETIME    : 8.81832, 8.8065   seconds (separate by commas if more than one detector)
#REALTIME    : 10, 10.0   seconds (separate by commas if more than one detector)
#SPECTRUM    : start of spectrum data
0, 0
0, 0
0, 0
0, 0
0, 0
0, 0
0, 0
0, 0
3, 0
3, 3
0, 4
5, 12
10, 12
26, 14
42, 42
108, 144
523, 504
113, 115
22, 40
22, 19
52, 51
348, 310
115, 102
57, 87
192, 199
110, 93
67, 73
28, 28
10, 9
8, 14
23, 48
24, 23
20, 24
212, 279
365, 382
63, 56
44, 63
53, 62
14, 17
10, 14
23, 31
63, 64
36, 38
16, 18
16, 14
19, 24
14, 14
11, 9
15, 16
38, 35
33, 31
12, 15
17, 17
38, 33
54, 50
30, 21
31, 35
382, 476
1598, 1893
1097, 1014
119, 121
23, 13
23, 28
77, 108
249, 281
143, 140
32, 21
4, 14
13, 16
11, 13
8, 7
7, 6
4, 7
7, 7
12, 6
4, 13
7, 5
3, 4
7, 8
6, 12
8, 3
6, 6
7, 8
2, 4
5, 2
4, 11
7, 5
6, 7
1, 3
6, 7
5, 4
8, 4
1, 4
4, 4
4, 4
6, 5
3, 5
2, 3
6, 7
8, 6
5, 1
3, 2
3, 3
5, 4
2, 3
2, 1
2, 1
2, 3
3, 3
6, 3
1, 1
0, 4
1, 1
0, 2
1, 2
0, 1
4, 5
1, 2
0, 2
2, 1
1, 2
1, 2
6, 1
2, 3
2, 0
1, 1
1, 1
1, 0
0, 0
0, 0
0, 1
1, 1
1, 0
0, 0
1, 2
1, 1
0, 0
0, 1
0, 1
0, 2
0, 0
1, 1
0, 2
1, 0
0, 0
0, 0
0, 0
0, 0
0, 0
0, 0
3, 1
1, 0
1, 0
0, 1
0, 0
2, 1
1, 1
0, 0
0, 1
2, 1
0, 1
1, 0
0, 0
2, 0
2, 1
0, 0
0, 1
1, 0
0, 1
0, 0
0, 0
0, 1
1, 1
0, 0
1, 0
0, 0
0, 1
0, 0
0, 0
0, 0
0, 0
0, 0
0, 0
0, 0
0, 0
0, 0
0, 0
0, 0
0, 0
0, 0
0, 0
0, 1
0, 1
0, 0
0, 0
0, 0
0, 0
0, 0
0, 0
0, 0
0, 0
0, 0
0, 0
0, 0
0, 0
0, 0
0, 0
0, 0
0, 0
0, 0
0, 0
0, 0
0, 0
0, 0
0, 0
0, 0
0, 0
0, 0
0, 0
0, 0
0, 0
0, 0
0, 0
0, 0
0, 0
0, 0
0, 0
0, 0
0, 0
0, 0
0, 0
0, 0
0, 0
0, 0
0, 0
0, 0
0, 0
0, 0
0, 0
0, 0
0, 0
0, 0
0, 0
0, 0
0, 0
0, 0
0, 0
0, 0
0, 0
0, 0
0, 0
0, 0
0, 0
0, 0
0, 0
0, 0
0, 0
0, 0
0, 0
0, 0
0, 0
0, 0
0, 0
0, 0
0, 0
0, 0
0, 0
0, 0
0, 0
0, 0
0, 0
0, 0
0, 0
0, 0
0, 0
0, 0
0, 0
0, 0
0, 0
0, 0
0, 0
0, 0
0, 0
0, 0
0, 0
0, 0
0, 0
0, 0
0, 0
0, 0
0, 0
0, 0
0, 0
0, 0
#ENDOFDATA     end of spectrum data