File: host_upload/02-11-2024/rqc/uplink1/ps__0567_0717304816_000rfs_shot_219.msa
#FORMAT      : EMSA/MAS spectral data file
#VERSION     : TC202v2.0 PIXL
#TITLE       : Novarupta (sol567) subset1
#DATE        : 02-11-2024      Date in the format DD-MMM-YYYY, for example 07-JUL-2010
#TIME        :             The time of day at which the spectrum was recorded, in 24-hour format
#OWNER       : PIXL Flight Model       (PIXL will use this to indicate which instrument took the data.)
#NPOINTS     : 4096     Number of data points in the spectrum (This can be zero for configuration only files)
#NCOLUMNS    : 2     Number of data columns in the spectrum (This can be zero for configuration only files)
#XUNITS      : eV
#YUNITS      : COUNTS
#DATATYPE    : YY
#XPERCHAN    : 7.862, 7.881   eV per channel (separate by commas if more than one detector)
#OFFSET      : 18.5, -22.4         eV of first channel  (separate by commas if more than one detector
#SIGNALTYPE  : XRF
#YP_TEMP     : 0.92
#LIVETIME    : 8.85311, 8.83383   seconds (separate by commas if more than one detector)
#REALTIME    : 10, 10.0   seconds (separate by commas if more than one detector)
#SPECTRUM    : start of spectrum data
0, 0
0, 0
0, 0
0, 0
0, 0
0, 0
0, 0
0, 2
2, 3
3, 1
2, 5
7, 16
15, 10
20, 27
33, 36
103, 132
420, 492
102, 111
28, 36
23, 23
59, 52
256, 329
109, 102
62, 88
197, 216
104, 110
61, 85
18, 41
9, 6
15, 5
28, 32
20, 18
12, 13
166, 222
298, 318
46, 45
40, 52
56, 44
10, 15
10, 10
18, 26
57, 73
35, 29
19, 11
14, 8
18, 23
9, 8
13, 8
11, 11
32, 32
26, 31
15, 10
11, 16
32, 46
42, 41
18, 19
18, 37
338, 510
1486, 1755
997, 957
118, 101
13, 14
21, 29
83, 102
252, 243
152, 135
20, 21
4, 7
15, 11
9, 7
2, 7
9, 6
4, 3
6, 5
5, 5
8, 8
6, 4
8, 12
8, 13
6, 6
3, 6
2, 9
7, 4
9, 4
3, 5
4, 4
5, 1
8, 8
10, 6
3, 3
7, 6
8, 5
3, 2
6, 4
5, 4
0, 3
6, 5
2, 2
2, 1
3, 3
4, 3
3, 4
0, 2
1, 1
2, 1
2, 1
3, 3
2, 2
3, 1
2, 5
0, 1
5, 0
3, 5
1, 3
2, 2
2, 4
3, 4
1, 2
1, 1
1, 0
0, 3
1, 2
1, 1
3, 2
0, 2
2, 3
0, 1
1, 0
1, 1
0, 0
1, 0
0, 0
0, 1
0, 2
0, 0
4, 0
0, 0
0, 2
2, 1
0, 0
0, 0
0, 2
0, 1
2, 0
0, 0
1, 1
0, 0
1, 0
1, 0
0, 0
0, 0
0, 1
1, 1
1, 0
0, 0
0, 0
0, 1
1, 0
1, 1
1, 0
0, 0
1, 0
1, 1
0, 0
0, 0
0, 1
0, 1
0, 0
0, 0
0, 0
0, 1
1, 2
1, 0
0, 0
0, 0
0, 1
0, 0
0, 0
0, 0
1, 0
0, 1
1, 0
0, 1
0, 1
0, 1
0, 0
0, 0
0, 0
0, 0
0, 0
0, 0
0, 1
0, 0
0, 0
0, 0
0, 0
0, 0
0, 0
0, 0
0, 0
0, 0
0, 0
0, 1
0, 0
0, 0
0, 0
0, 0
0, 0
0, 0
0, 0
0, 0
0, 0
0, 0
0, 0
0, 0
0, 0
0, 0
0, 0
0, 0
0, 0
0, 0
0, 0
0, 0
0, 0
0, 0
0, 0
0, 0
0, 0
0, 0
0, 0
0, 0
0, 0
0, 0
0, 0
0, 0
0, 0
0, 0
0, 0
0, 0
0, 0
0, 0
0, 0
0, 0
0, 0
0, 0
0, 0
0, 0
0, 0
0, 0
0, 0
0, 0
0, 0
0, 0
0, 0
0, 0
0, 0
0, 0
0, 0
0, 0
0, 0
0, 0
0, 0
0, 0
0, 0
0, 0
0, 0
0, 0
0, 0
0, 0
0, 0
0, 0
0, 0
0, 0
0, 0
0, 0
0, 0
0, 0
0, 0
0, 0
0, 0
0, 0
0, 0
0, 0
0, 0
0, 0
0, 0
0, 0
0, 0
0, 0
0, 0
0, 0
0, 0
0, 0
0, 0
#ENDOFDATA     end of spectrum data