File: host_upload/02-11-2024/rqc/uplink1/ps__0567_0717304816_000rfs_shot_221.msa
#FORMAT      : EMSA/MAS spectral data file
#VERSION     : TC202v2.0 PIXL
#TITLE       : Novarupta (sol567) subset1
#DATE        : 02-11-2024      Date in the format DD-MMM-YYYY, for example 07-JUL-2010
#TIME        :             The time of day at which the spectrum was recorded, in 24-hour format
#OWNER       : PIXL Flight Model       (PIXL will use this to indicate which instrument took the data.)
#NPOINTS     : 4096     Number of data points in the spectrum (This can be zero for configuration only files)
#NCOLUMNS    : 2     Number of data columns in the spectrum (This can be zero for configuration only files)
#XUNITS      : eV
#YUNITS      : COUNTS
#DATATYPE    : YY
#XPERCHAN    : 7.862, 7.881   eV per channel (separate by commas if more than one detector)
#OFFSET      : 18.5, -22.4         eV of first channel  (separate by commas if more than one detector
#SIGNALTYPE  : XRF
#YP_TEMP     : 0.504
#LIVETIME    : 8.8419, 8.83019   seconds (separate by commas if more than one detector)
#REALTIME    : 10, 10.0   seconds (separate by commas if more than one detector)
#SPECTRUM    : start of spectrum data
0, 0
0, 0
0, 0
0, 0
0, 0
0, 0
0, 0
0, 1
2, 7
1, 2
0, 3
11, 10
21, 9
21, 23
41, 42
103, 137
474, 547
117, 97
36, 29
26, 15
51, 49
279, 293
108, 105
67, 75
219, 218
105, 114
70, 68
32, 28
9, 7
11, 7
22, 26
25, 21
24, 22
203, 251
313, 360
54, 45
40, 45
53, 48
18, 12
8, 10
13, 24
70, 61
34, 29
10, 14
13, 16
10, 16
18, 12
11, 11
11, 16
32, 35
18, 25
19, 11
9, 16
45, 36
51, 48
22, 21
27, 37
371, 449
1609, 1730
1050, 919
127, 103
13, 13
17, 18
95, 135
254, 295
163, 134
25, 21
13, 18
19, 12
10, 7
9, 7
6, 3
5, 10
5, 10
11, 3
2, 8
9, 4
10, 8
11, 17
10, 9
8, 8
6, 5
5, 5
1, 3
6, 9
4, 3
5, 4
3, 7
6, 7
4, 3
4, 3
5, 7
4, 3
3, 5
4, 2
3, 4
2, 4
3, 1
4, 4
5, 3
5, 3
5, 3
5, 4
3, 4
1, 3
3, 5
5, 5
2, 4
4, 4
4, 7
3, 3
3, 0
0, 3
3, 2
1, 1
1, 1
3, 3
4, 0
5, 1
1, 0
0, 1
1, 2
0, 2
3, 1
2, 0
1, 2
0, 2
1, 1
1, 2
1, 2
1, 1
1, 0
2, 3
1, 1
1, 0
1, 0
3, 1
1, 1
2, 0
0, 2
0, 0
1, 0
1, 2
2, 1
1, 0
0, 0
0, 1
0, 1
0, 0
0, 0
0, 0
0, 0
0, 1
1, 1
1, 0
0, 0
2, 0
1, 0
0, 0
0, 0
0, 1
1, 0
0, 0
0, 0
0, 1
0, 1
0, 0
0, 0
0, 1
0, 1
0, 0
1, 0
0, 0
0, 0
0, 0
0, 1
0, 0
0, 0
0, 0
1, 0
0, 0
0, 0
0, 2
0, 0
1, 1
0, 0
0, 0
0, 0
0, 0
0, 0
0, 1
0, 0
0, 0
0, 0
0, 0
0, 0
0, 0
0, 0
0, 0
0, 0
0, 0
0, 0
0, 0
0, 0
0, 0
0, 0
0, 0
0, 0
0, 0
0, 0
0, 0
0, 0
0, 0
0, 0
0, 0
0, 0
0, 0
0, 0
0, 0
0, 0
0, 0
0, 0
0, 0
0, 0
0, 0
0, 0
0, 0
0, 0
0, 0
0, 0
0, 0
0, 0
0, 0
0, 0
0, 0
0, 0
0, 0
0, 0
0, 0
0, 0
0, 0
0, 0
0, 0
0, 0
0, 0
0, 0
0, 0
0, 0
0, 0
0, 0
0, 0
0, 0
0, 0
0, 0
0, 0
0, 0
0, 0
0, 0
0, 0
0, 0
0, 0
0, 0
0, 0
0, 0
0, 0
0, 0
0, 0
0, 0
0, 0
0, 0
0, 0
0, 0
0, 0
0, 0
0, 0
0, 0
0, 0
0, 0
0, 0
0, 0
0, 0
0, 0
0, 0
0, 0
0, 0
0, 0
0, 0
0, 0
0, 0
0, 0
0, 0
0, 0
0, 0
0, 0
#ENDOFDATA     end of spectrum data