File: host_upload/02-11-2024/rqc/uplink1/ps__0567_0717304816_000rfs_shot_298.msa
#FORMAT      : EMSA/MAS spectral data file
#VERSION     : TC202v2.0 PIXL
#TITLE       : Novarupta (sol567) subset1
#DATE        : 02-11-2024      Date in the format DD-MMM-YYYY, for example 07-JUL-2010
#TIME        :             The time of day at which the spectrum was recorded, in 24-hour format
#OWNER       : PIXL Flight Model       (PIXL will use this to indicate which instrument took the data.)
#NPOINTS     : 4096     Number of data points in the spectrum (This can be zero for configuration only files)
#NCOLUMNS    : 2     Number of data columns in the spectrum (This can be zero for configuration only files)
#XUNITS      : eV
#YUNITS      : COUNTS
#DATATYPE    : YY
#XPERCHAN    : 7.862, 7.881   eV per channel (separate by commas if more than one detector)
#OFFSET      : 18.5, -22.4         eV of first channel  (separate by commas if more than one detector
#SIGNALTYPE  : XRF
#YP_TEMP     : 1.369
#LIVETIME    : 8.83162, 8.81338   seconds (separate by commas if more than one detector)
#REALTIME    : 10, 10.0   seconds (separate by commas if more than one detector)
#SPECTRUM    : start of spectrum data
0, 0
0, 0
0, 0
0, 0
0, 0
0, 0
0, 0
1, 2
6, 4
4, 5
4, 2
9, 12
8, 7
21, 22
40, 37
102, 122
454, 586
113, 118
33, 42
19, 33
58, 37
315, 368
133, 116
68, 86
227, 215
99, 109
65, 79
24, 30
5, 12
10, 8
38, 42
16, 17
13, 21
216, 278
333, 350
55, 59
37, 40
36, 59
13, 10
5, 9
18, 24
60, 72
36, 34
16, 14
20, 19
20, 17
9, 17
8, 14
14, 17
27, 30
14, 26
12, 9
8, 19
24, 29
43, 46
29, 23
33, 36
361, 497
1578, 1842
1053, 1030
121, 101
13, 14
16, 24
81, 121
267, 297
151, 142
33, 19
10, 9
14, 16
9, 12
5, 3
4, 4
7, 10
8, 11
8, 5
6, 4
7, 6
5, 6
6, 19
16, 12
5, 7
5, 4
5, 3
7, 5
8, 4
9, 3
5, 2
3, 10
5, 4
7, 4
0, 4
4, 5
7, 4
3, 7
4, 3
5, 3
2, 7
2, 4
6, 4
3, 2
6, 2
5, 7
1, 3
0, 3
2, 1
3, 7
3, 2
2, 1
1, 0
3, 1
1, 5
1, 2
2, 1
0, 4
2, 3
3, 1
0, 6
0, 3
1, 1
3, 1
3, 2
1, 2
1, 4
2, 1
2, 2
3, 2
0, 0
1, 1
0, 0
1, 1
5, 1
1, 2
0, 3
0, 2
3, 0
1, 1
2, 2
0, 2
0, 0
0, 1
0, 1
0, 1
1, 0
0, 1
0, 0
1, 0
0, 3
0, 0
0, 0
0, 0
0, 0
3, 2
0, 0
0, 0
0, 1
0, 0
1, 0
2, 0
1, 1
1, 1
1, 0
0, 0
0, 0
0, 2
0, 1
2, 0
0, 1
0, 1
0, 1
0, 1
0, 0
0, 0
0, 0
0, 0
0, 0
0, 0
1, 0
0, 0
0, 1
0, 0
0, 0
0, 0
0, 0
0, 0
0, 0
0, 0
0, 0
0, 0
0, 0
0, 0
0, 0
0, 0
0, 0
0, 0
0, 1
0, 0
0, 0
0, 0
0, 0
0, 0
0, 0
0, 0
0, 0
0, 0
0, 0
0, 0
0, 0
0, 0
0, 0
0, 0
0, 0
0, 0
0, 0
0, 0
0, 0
0, 0
0, 0
0, 0
0, 0
0, 0
0, 0
0, 0
0, 0
0, 0
0, 0
0, 0
0, 0
0, 0
0, 0
0, 0
0, 0
0, 0
0, 0
0, 0
0, 0
0, 0
0, 0
0, 0
0, 0
0, 0
0, 0
0, 0
0, 0
0, 0
0, 0
0, 0
0, 0
0, 0
0, 0
0, 0
0, 0
0, 0
0, 0
0, 0
0, 0
0, 0
0, 0
0, 0
0, 0
0, 0
0, 0
0, 0
0, 0
0, 0
0, 0
0, 0
0, 0
0, 0
0, 0
0, 0
0, 0
0, 0
0, 0
0, 0
0, 0
0, 0
0, 0
0, 0
0, 0
0, 0
0, 0
0, 0
0, 0
0, 0
0, 0
0, 0
0, 0
0, 0
0, 0
0, 0
0, 0
0, 0
0, 0
0, 0
#ENDOFDATA     end of spectrum data