File: host_upload/02-11-2024/rqc/uplink1/ps__0567_0717304816_000rfs_shot_51.msa
#FORMAT      : EMSA/MAS spectral data file
#VERSION     : TC202v2.0 PIXL
#TITLE       : Novarupta (sol567) subset1
#DATE        : 02-11-2024      Date in the format DD-MMM-YYYY, for example 07-JUL-2010
#TIME        :             The time of day at which the spectrum was recorded, in 24-hour format
#OWNER       : PIXL Flight Model       (PIXL will use this to indicate which instrument took the data.)
#NPOINTS     : 4096     Number of data points in the spectrum (This can be zero for configuration only files)
#NCOLUMNS    : 2     Number of data columns in the spectrum (This can be zero for configuration only files)
#XUNITS      : eV
#YUNITS      : COUNTS
#DATATYPE    : YY
#XPERCHAN    : 7.862, 7.881   eV per channel (separate by commas if more than one detector)
#OFFSET      : 18.5, -22.4         eV of first channel  (separate by commas if more than one detector
#SIGNALTYPE  : XRF
#YP_TEMP     : -2.575
#LIVETIME    : 8.84283, 8.82895   seconds (separate by commas if more than one detector)
#REALTIME    : 10, 10.0   seconds (separate by commas if more than one detector)
#SPECTRUM    : start of spectrum data
0, 0
0, 0
0, 0
0, 0
0, 0
0, 0
0, 1
0, 0
1, 0
4, 3
7, 2
9, 6
8, 17
35, 20
35, 47
149, 130
472, 504
113, 102
30, 28
20, 26
64, 76
254, 311
110, 99
70, 89
230, 233
97, 115
73, 58
25, 32
11, 6
8, 8
29, 36
19, 11
21, 32
219, 275
362, 334
52, 57
48, 45
50, 47
7, 7
5, 14
15, 33
57, 50
28, 35
10, 12
12, 16
15, 14
11, 12
10, 13
17, 17
32, 24
18, 14
12, 11
13, 17
22, 38
40, 42
23, 27
42, 47
513, 601
1619, 1668
840, 770
87, 69
10, 18
15, 22
87, 115
251, 279
130, 124
23, 15
13, 8
10, 12
3, 8
9, 11
6, 11
6, 5
6, 14
9, 8
4, 11
5, 9
7, 6
16, 8
5, 13
9, 8
8, 1
5, 6
11, 6
3, 9
5, 9
5, 3
4, 9
9, 4
5, 2
2, 3
9, 1
7, 4
2, 2
4, 5
3, 1
2, 5
4, 3
3, 5
2, 2
2, 3
2, 1
4, 6
5, 4
5, 3
2, 4
3, 2
3, 2
5, 0
2, 3
5, 0
2, 2
2, 0
2, 2
1, 3
1, 4
4, 4
4, 0
1, 3
1, 2
0, 1
3, 1
0, 3
0, 0
2, 2
2, 1
1, 0
1, 1
3, 0
1, 0
0, 0
0, 0
1, 0
0, 0
0, 1
1, 1
0, 3
1, 0
0, 0
0, 1
0, 3
0, 0
0, 2
0, 0
1, 0
1, 2
0, 0
0, 1
1, 1
1, 0
0, 0
0, 0
0, 0
0, 0
0, 0
0, 1
0, 0
0, 0
0, 0
0, 0
0, 0
0, 0
0, 0
1, 0
0, 0
0, 1
2, 0
0, 1
0, 0
0, 0
0, 1
0, 0
0, 1
0, 0
0, 0
0, 0
0, 0
0, 0
1, 0
0, 0
1, 0
0, 1
0, 0
0, 1
0, 0
0, 0
0, 0
0, 0
0, 0
0, 0
0, 0
0, 0
0, 0
0, 0
0, 0
0, 0
0, 0
0, 0
0, 0
0, 0
0, 0
0, 0
0, 0
0, 0
0, 0
0, 0
0, 0
0, 0
0, 0
0, 0
0, 0
0, 1
0, 0
0, 0
0, 0
0, 0
0, 0
0, 0
0, 0
0, 0
0, 0
0, 0
0, 0
0, 0
0, 0
0, 0
0, 0
0, 0
0, 0
0, 0
0, 0
0, 0
0, 0
0, 0
0, 0
0, 0
0, 0
0, 0
0, 0
0, 0
0, 0
0, 0
0, 0
0, 0
0, 0
0, 0
0, 0
0, 0
0, 0
0, 0
0, 0
0, 0
0, 0
0, 0
0, 0
0, 0
0, 0
0, 0
0, 0
0, 0
0, 0
0, 0
0, 0
0, 0
0, 0
0, 0
0, 0
0, 0
0, 0
0, 0
0, 0
0, 0
0, 0
0, 0
0, 0
0, 0
0, 0
0, 0
0, 0
0, 0
0, 0
0, 0
0, 0
0, 0
0, 0
0, 0
0, 0
0, 0
0, 0
0, 0
0, 0
0, 0
0, 0
0, 0
#ENDOFDATA     end of spectrum data