File: host_upload/02-11-2024/rqc/uplink1/ps__0567_0717304816_000rfs_shot_338.msa
#FORMAT      : EMSA/MAS spectral data file
#VERSION     : TC202v2.0 PIXL
#TITLE       : Novarupta (sol567) subset1
#DATE        : 02-11-2024      Date in the format DD-MMM-YYYY, for example 07-JUL-2010
#TIME        :             The time of day at which the spectrum was recorded, in 24-hour format
#OWNER       : PIXL Flight Model       (PIXL will use this to indicate which instrument took the data.)
#NPOINTS     : 4096     Number of data points in the spectrum (This can be zero for configuration only files)
#NCOLUMNS    : 2     Number of data columns in the spectrum (This can be zero for configuration only files)
#XUNITS      : eV
#YUNITS      : COUNTS
#DATATYPE    : YY
#XPERCHAN    : 7.862, 7.881   eV per channel (separate by commas if more than one detector)
#OFFSET      : 18.5, -22.4         eV of first channel  (separate by commas if more than one detector
#SIGNALTYPE  : XRF
#YP_TEMP     : 1.658
#LIVETIME    : 8.84776, 8.63567   seconds (separate by commas if more than one detector)
#REALTIME    : 10, 10.0   seconds (separate by commas if more than one detector)
#SPECTRUM    : start of spectrum data
0, 0
0, 0
0, 0
0, 0
0, 0
0, 0
0, 0
0, 1
2, 3
2, 2
4, 3
12, 13
16, 17
27, 19
45, 35
127, 140
508, 512
118, 107
24, 33
21, 28
51, 57
270, 309
122, 106
67, 76
213, 192
112, 100
69, 71
25, 29
10, 18
6, 13
35, 25
18, 20
18, 22
201, 261
335, 330
48, 41
47, 35
39, 48
11, 15
7, 16
16, 23
58, 63
50, 39
15, 18
17, 18
24, 24
10, 16
5, 13
17, 10
28, 37
23, 25
8, 12
18, 12
26, 38
60, 56
22, 13
17, 41
317, 398
1590, 1690
1037, 950
122, 95
8, 11
19, 18
68, 82
257, 266
167, 164
13, 23
7, 10
9, 11
6, 8
5, 9
4, 3
3, 6
9, 7
6, 13
6, 6
4, 8
10, 6
8, 5
10, 7
8, 8
8, 6
8, 10
3, 7
6, 7
4, 3
2, 4
5, 3
4, 5
6, 3
4, 6
2, 8
5, 3
3, 5
3, 4
5, 2
1, 3
4, 3
5, 5
4, 4
1, 4
2, 2
3, 2
2, 3
6, 0
4, 2
3, 2
2, 6
2, 3
3, 1
5, 1
0, 0
2, 4
5, 3
1, 3
2, 3
1, 3
2, 2
0, 3
1, 4
2, 1
2, 1
1, 0
1, 5
1, 0
2, 2
3, 0
0, 2
1, 2
1, 1
3, 1
0, 0
0, 0
0, 0
1, 0
1, 1
2, 0
0, 2
0, 1
0, 0
0, 3
0, 0
0, 1
0, 1
0, 1
0, 1
0, 0
0, 2
0, 0
1, 1
0, 0
1, 3
0, 2
1, 0
0, 1
0, 0
1, 1
0, 0
1, 0
0, 0
2, 0
0, 0
0, 0
0, 1
0, 1
0, 1
0, 0
1, 0
1, 0
1, 0
0, 0
0, 0
0, 1
0, 0
0, 0
0, 0
0, 0
0, 0
0, 1
0, 0
0, 0
0, 0
0, 0
1, 1
0, 0
0, 0
0, 0
0, 0
0, 0
0, 0
0, 1
0, 0
0, 0
0, 0
1, 0
0, 0
0, 0
0, 0
0, 0
0, 0
1, 0
0, 0
0, 0
1, 0
0, 0
0, 0
0, 0
0, 0
0, 0
0, 0
0, 0
0, 0
0, 0
0, 0
0, 0
0, 0
0, 0
0, 0
0, 0
0, 0
0, 0
0, 0
0, 0
0, 0
0, 0
0, 0
0, 0
0, 0
0, 0
0, 0
0, 0
0, 0
0, 0
0, 0
0, 0
0, 0
0, 0
0, 0
0, 0
0, 0
0, 0
0, 0
0, 0
0, 0
0, 0
0, 0
0, 0
0, 0
0, 0
0, 0
0, 0
0, 0
0, 0
0, 0
0, 0
0, 0
0, 0
0, 0
0, 0
0, 0
0, 0
0, 0
0, 0
0, 0
0, 0
0, 0
0, 0
0, 0
0, 0
0, 0
0, 0
0, 0
0, 0
0, 0
0, 0
0, 0
0, 0
0, 0
0, 0
0, 0
0, 0
0, 0
0, 0
0, 0
0, 0
0, 0
0, 0
0, 0
0, 0
0, 0
0, 0
0, 0
0, 0
0, 0
#ENDOFDATA     end of spectrum data