File: host_upload/02-11-2024/rqc/uplink1/ps__0567_0717304816_000rfs_shot_262.msa
#FORMAT      : EMSA/MAS spectral data file
#VERSION     : TC202v2.0 PIXL
#TITLE       : Novarupta (sol567) subset1
#DATE        : 02-11-2024      Date in the format DD-MMM-YYYY, for example 07-JUL-2010
#TIME        :             The time of day at which the spectrum was recorded, in 24-hour format
#OWNER       : PIXL Flight Model       (PIXL will use this to indicate which instrument took the data.)
#NPOINTS     : 4096     Number of data points in the spectrum (This can be zero for configuration only files)
#NCOLUMNS    : 2     Number of data columns in the spectrum (This can be zero for configuration only files)
#XUNITS      : eV
#YUNITS      : COUNTS
#DATATYPE    : YY
#XPERCHAN    : 7.862, 7.881   eV per channel (separate by commas if more than one detector)
#OFFSET      : 18.5, -22.4         eV of first channel  (separate by commas if more than one detector
#SIGNALTYPE  : XRF
#YP_TEMP     : 1.209
#LIVETIME    : 8.83874, 8.81379   seconds (separate by commas if more than one detector)
#REALTIME    : 10, 10.0   seconds (separate by commas if more than one detector)
#SPECTRUM    : start of spectrum data
0, 0
0, 0
0, 0
0, 0
0, 0
0, 0
0, 0
1, 1
3, 1
2, 3
3, 4
9, 10
13, 11
27, 31
34, 45
107, 130
462, 545
119, 139
22, 31
25, 17
47, 75
262, 290
94, 114
82, 72
216, 251
126, 124
57, 66
33, 27
6, 11
10, 4
25, 28
6, 11
21, 11
210, 286
303, 364
55, 49
39, 61
47, 53
12, 14
6, 8
22, 32
54, 64
38, 33
19, 21
20, 17
17, 28
16, 15
15, 8
16, 15
30, 50
22, 28
14, 10
8, 14
18, 44
36, 59
27, 24
29, 42
334, 480
1558, 1911
1033, 987
142, 89
21, 23
15, 23
86, 93
248, 309
152, 146
20, 31
4, 14
13, 13
6, 7
4, 8
9, 4
4, 8
4, 4
5, 8
5, 5
7, 7
5, 5
10, 9
13, 10
12, 11
1, 2
6, 7
6, 5
4, 6
4, 4
3, 8
5, 1
4, 3
3, 6
2, 3
5, 2
5, 3
6, 1
6, 5
2, 6
4, 7
4, 1
1, 2
4, 3
8, 5
4, 2
4, 5
3, 2
3, 3
2, 1
2, 3
2, 3
1, 1
4, 2
2, 1
1, 6
0, 3
0, 2
2, 3
4, 6
3, 1
2, 2
2, 0
1, 0
0, 2
3, 3
1, 2
5, 0
0, 0
1, 3
3, 0
1, 1
1, 3
0, 1
0, 1
0, 0
1, 1
0, 0
1, 0
2, 0
0, 2
1, 0
0, 0
1, 0
0, 0
0, 0
1, 1
1, 2
0, 1
1, 1
0, 1
0, 0
1, 1
0, 0
0, 1
1, 0
1, 4
2, 0
0, 0
0, 1
0, 0
0, 2
0, 0
0, 0
0, 0
0, 4
1, 1
0, 0
1, 0
2, 0
0, 0
0, 0
0, 1
1, 1
0, 0
0, 1
0, 0
0, 2
0, 0
0, 0
0, 0
0, 2
0, 0
0, 0
0, 0
0, 0
1, 0
0, 1
0, 0
1, 1
0, 0
0, 0
0, 0
0, 0
0, 0
0, 0
0, 0
0, 0
0, 0
0, 0
0, 0
0, 0
0, 0
0, 0
0, 0
0, 0
0, 0
0, 0
0, 0
0, 0
0, 0
0, 1
0, 0
0, 0
0, 0
0, 0
0, 0
0, 0
0, 0
0, 0
0, 0
0, 0
0, 0
0, 0
0, 0
0, 0
0, 0
0, 0
0, 0
0, 0
0, 0
0, 0
0, 0
0, 0
0, 0
0, 0
0, 0
0, 0
0, 0
0, 0
0, 0
0, 0
0, 0
0, 0
0, 0
0, 0
0, 0
0, 0
0, 0
0, 0
0, 0
0, 0
0, 0
0, 0
0, 0
0, 0
0, 0
0, 0
0, 0
0, 0
0, 0
0, 0
0, 0
0, 0
0, 0
0, 0
0, 0
0, 0
0, 0
0, 0
0, 0
0, 0
0, 0
0, 0
0, 0
0, 0
0, 0
0, 0
0, 0
0, 0
0, 0
0, 0
0, 0
0, 0
0, 0
0, 0
0, 0
0, 0
0, 0
0, 0
0, 0
0, 0
0, 0
0, 0
0, 0
0, 0
0, 0
0, 0
#ENDOFDATA     end of spectrum data