File: host_upload/02-11-2024/rqc/uplink1/ps__0567_0717304816_000rfs_shot_82.msa
#FORMAT      : EMSA/MAS spectral data file
#VERSION     : TC202v2.0 PIXL
#TITLE       : Novarupta (sol567) subset1
#DATE        : 02-11-2024      Date in the format DD-MMM-YYYY, for example 07-JUL-2010
#TIME        :             The time of day at which the spectrum was recorded, in 24-hour format
#OWNER       : PIXL Flight Model       (PIXL will use this to indicate which instrument took the data.)
#NPOINTS     : 4096     Number of data points in the spectrum (This can be zero for configuration only files)
#NCOLUMNS    : 2     Number of data columns in the spectrum (This can be zero for configuration only files)
#XUNITS      : eV
#YUNITS      : COUNTS
#DATATYPE    : YY
#XPERCHAN    : 7.862, 7.881   eV per channel (separate by commas if more than one detector)
#OFFSET      : 18.5, -22.4         eV of first channel  (separate by commas if more than one detector
#SIGNALTYPE  : XRF
#YP_TEMP     : -1.517
#LIVETIME    : 8.8366, 8.82811   seconds (separate by commas if more than one detector)
#REALTIME    : 10, 10.0   seconds (separate by commas if more than one detector)
#SPECTRUM    : start of spectrum data
0, 0
0, 0
0, 0
0, 0
0, 0
0, 0
0, 0
0, 0
2, 7
4, 3
2, 2
4, 14
4, 13
28, 26
43, 35
120, 128
453, 528
131, 112
27, 42
19, 26
60, 56
271, 317
119, 109
73, 82
189, 240
111, 117
64, 73
29, 23
7, 9
7, 10
18, 27
16, 11
14, 26
211, 228
272, 327
46, 41
42, 40
38, 41
10, 23
11, 6
30, 32
64, 68
45, 27
14, 18
13, 18
15, 22
14, 12
11, 8
22, 12
25, 30
19, 35
16, 10
14, 16
33, 55
38, 42
23, 24
33, 33
445, 519
1612, 1798
941, 860
96, 66
12, 17
14, 34
106, 109
260, 266
147, 137
29, 18
5, 16
9, 8
6, 7
8, 4
6, 6
5, 4
4, 1
11, 6
6, 15
3, 8
10, 8
9, 10
6, 11
7, 4
2, 10
2, 5
4, 4
1, 4
5, 7
6, 7
7, 6
4, 9
4, 5
4, 1
5, 8
5, 5
1, 6
2, 6
5, 6
3, 3
4, 2
4, 0
1, 3
1, 5
1, 2
5, 4
1, 2
3, 1
1, 5
3, 3
1, 5
2, 0
5, 2
0, 1
1, 2
0, 1
3, 1
2, 7
2, 3
1, 2
2, 6
0, 2
1, 1
1, 0
1, 5
0, 2
0, 2
1, 3
0, 1
1, 1
3, 2
1, 2
2, 1
0, 2
3, 1
0, 0
0, 1
0, 2
0, 2
0, 2
0, 0
1, 0
1, 2
2, 0
0, 0
0, 0
0, 1
2, 1
1, 1
0, 1
0, 3
0, 0
0, 0
0, 2
0, 1
1, 0
0, 0
0, 0
1, 0
0, 0
0, 2
0, 1
0, 0
1, 1
0, 0
1, 1
0, 0
0, 1
2, 0
0, 0
0, 0
0, 0
0, 0
2, 0
1, 0
0, 0
0, 0
0, 0
0, 0
0, 0
0, 1
0, 0
0, 0
0, 0
0, 0
0, 1
1, 0
0, 0
0, 0
0, 0
0, 0
1, 0
0, 0
0, 0
0, 0
0, 0
0, 0
0, 0
0, 0
0, 0
0, 0
0, 0
0, 0
0, 0
0, 0
0, 0
0, 0
0, 0
0, 0
0, 0
0, 0
0, 0
0, 0
0, 0
0, 0
0, 0
0, 0
0, 0
0, 0
0, 0
0, 0
0, 0
0, 0
0, 0
0, 0
0, 0
0, 0
0, 0
0, 0
0, 0
0, 0
0, 0
0, 0
0, 0
0, 0
0, 0
0, 0
0, 0
0, 0
0, 0
0, 0
0, 0
0, 0
0, 0
0, 0
0, 0
0, 0
0, 0
0, 0
0, 0
0, 0
0, 0
0, 0
0, 0
0, 0
0, 0
0, 0
0, 0
0, 0
0, 0
0, 0
0, 0
0, 0
0, 0
0, 0
0, 0
0, 0
0, 0
0, 0
0, 0
0, 0
0, 0
0, 0
0, 0
0, 0
0, 0
0, 0
0, 0
0, 0
0, 0
0, 0
0, 0
0, 0
0, 0
0, 0
0, 0
0, 0
0, 0
0, 0
0, 0
0, 0
0, 0
0, 0
0, 0
0, 0
0, 0
0, 0
#ENDOFDATA     end of spectrum data