File: host_upload/02-11-2024/rqc/uplink1/ps__0567_0717304816_000rfs_shot_410.msa
#FORMAT      : EMSA/MAS spectral data file
#VERSION     : TC202v2.0 PIXL
#TITLE       : Novarupta (sol567) subset1
#DATE        : 02-11-2024      Date in the format DD-MMM-YYYY, for example 07-JUL-2010
#TIME        :             The time of day at which the spectrum was recorded, in 24-hour format
#OWNER       : PIXL Flight Model       (PIXL will use this to indicate which instrument took the data.)
#NPOINTS     : 4096     Number of data points in the spectrum (This can be zero for configuration only files)
#NCOLUMNS    : 2     Number of data columns in the spectrum (This can be zero for configuration only files)
#XUNITS      : eV
#YUNITS      : COUNTS
#DATATYPE    : YY
#XPERCHAN    : 7.862, 7.881   eV per channel (separate by commas if more than one detector)
#OFFSET      : 18.5, -22.4         eV of first channel  (separate by commas if more than one detector
#SIGNALTYPE  : XRF
#YP_TEMP     : 1.851
#LIVETIME    : 8.841, 8.82054   seconds (separate by commas if more than one detector)
#REALTIME    : 10, 10.0   seconds (separate by commas if more than one detector)
#SPECTRUM    : start of spectrum data
0, 0
0, 0
0, 0
0, 0
0, 0
0, 0
0, 0
1, 0
1, 4
4, 4
5, 1
3, 13
16, 12
17, 30
43, 56
117, 128
495, 549
137, 119
25, 25
25, 25
48, 57
307, 360
125, 117
70, 78
210, 256
124, 119
84, 95
38, 29
11, 17
6, 10
26, 22
7, 23
14, 22
220, 260
343, 386
52, 51
39, 50
44, 47
19, 8
9, 10
20, 29
58, 84
32, 43
15, 17
17, 20
21, 19
18, 16
14, 9
11, 12
25, 39
30, 19
14, 12
14, 17
27, 38
39, 51
22, 27
29, 32
336, 458
1503, 1819
1069, 1051
135, 85
18, 17
24, 28
86, 104
237, 271
156, 173
24, 18
11, 8
12, 16
11, 8
3, 5
7, 5
2, 6
2, 11
9, 5
6, 13
6, 6
8, 7
13, 8
13, 11
11, 5
6, 15
8, 2
4, 6
4, 4
7, 12
7, 7
6, 2
3, 10
8, 10
6, 3
5, 4
6, 10
2, 3
3, 3
2, 3
4, 7
6, 3
3, 0
3, 2
2, 7
3, 2
1, 5
1, 3
3, 6
3, 3
4, 1
3, 5
3, 5
4, 1
1, 1
0, 2
0, 1
3, 2
3, 5
3, 3
1, 4
1, 3
1, 1
1, 1
2, 1
0, 0
4, 2
1, 2
1, 1
1, 1
1, 0
0, 2
1, 0
0, 0
1, 0
1, 1
2, 2
1, 0
1, 0
1, 2
1, 1
2, 0
0, 1
0, 2
0, 1
0, 2
1, 0
2, 0
0, 0
1, 1
0, 0
0, 0
0, 0
1, 0
0, 0
0, 1
2, 0
0, 0
0, 0
1, 0
0, 1
0, 0
0, 0
0, 0
0, 0
0, 1
0, 1
0, 0
1, 0
0, 0
0, 0
0, 0
0, 0
0, 1
0, 0
0, 0
0, 0
0, 0
0, 0
0, 0
0, 0
0, 0
0, 0
0, 0
0, 0
0, 0
0, 0
0, 0
0, 0
0, 0
0, 0
0, 0
0, 0
0, 0
1, 0
0, 0
0, 0
0, 0
0, 0
0, 0
0, 0
0, 0
0, 0
0, 0
0, 0
0, 0
0, 0
0, 0
0, 0
0, 0
0, 0
0, 0
0, 0
0, 0
0, 0
0, 0
0, 0
0, 0
0, 0
0, 0
0, 0
0, 0
0, 0
0, 0
0, 0
0, 0
0, 0
0, 0
0, 0
0, 0
0, 0
0, 0
0, 0
0, 0
0, 0
0, 0
0, 0
0, 0
0, 0
0, 0
0, 0
0, 0
0, 0
0, 0
0, 0
0, 0
0, 0
0, 0
0, 0
0, 0
0, 0
0, 0
0, 0
0, 0
0, 0
0, 0
0, 0
0, 0
0, 0
0, 0
0, 0
0, 0
0, 0
0, 0
0, 0
0, 0
0, 0
0, 0
0, 0
0, 0
0, 0
0, 0
0, 0
0, 0
0, 0
0, 0
0, 0
0, 0
0, 0
0, 0
0, 0
0, 0
0, 0
0, 0
0, 0
0, 0
0, 0
0, 0
0, 0
0, 0
0, 0
0, 0
0, 0
0, 0
0, 0
0, 0
0, 0
0, 0
#ENDOFDATA     end of spectrum data