File: host_upload/02-11-2024/rqc/uplink1/ps__0567_0717304816_000rfs_shot_19.msa
#FORMAT      : EMSA/MAS spectral data file
#VERSION     : TC202v2.0 PIXL
#TITLE       : Novarupta (sol567) subset1
#DATE        : 02-11-2024      Date in the format DD-MMM-YYYY, for example 07-JUL-2010
#TIME        :             The time of day at which the spectrum was recorded, in 24-hour format
#OWNER       : PIXL Flight Model       (PIXL will use this to indicate which instrument took the data.)
#NPOINTS     : 4096     Number of data points in the spectrum (This can be zero for configuration only files)
#NCOLUMNS    : 2     Number of data columns in the spectrum (This can be zero for configuration only files)
#XUNITS      : eV
#YUNITS      : COUNTS
#DATATYPE    : YY
#XPERCHAN    : 7.862, 7.881   eV per channel (separate by commas if more than one detector)
#OFFSET      : 18.5, -22.4         eV of first channel  (separate by commas if more than one detector
#SIGNALTYPE  : XRF
#YP_TEMP     : -4.243
#LIVETIME    : 8.84589, 8.82829   seconds (separate by commas if more than one detector)
#REALTIME    : 10, 10.0   seconds (separate by commas if more than one detector)
#SPECTRUM    : start of spectrum data
0, 0
0, 0
0, 0
0, 0
0, 0
0, 0
0, 0
0, 1
5, 1
6, 2
5, 1
18, 8
14, 12
25, 33
39, 38
145, 141
468, 468
105, 110
28, 33
15, 20
72, 74
270, 308
107, 84
101, 82
210, 234
130, 108
70, 65
27, 19
15, 13
12, 9
20, 25
8, 15
34, 36
247, 268
279, 271
54, 41
44, 41
52, 41
12, 9
9, 6
27, 32
66, 68
31, 27
12, 11
11, 13
19, 15
10, 13
7, 14
21, 17
28, 34
21, 20
11, 15
13, 18
47, 52
38, 48
14, 18
57, 63
638, 774
1726, 1724
744, 643
82, 65
17, 9
25, 18
132, 166
290, 272
119, 91
10, 9
15, 8
9, 11
9, 6
6, 5
8, 7
8, 7
4, 7
10, 9
5, 3
11, 5
6, 8
5, 10
7, 4
5, 6
6, 7
9, 6
4, 7
5, 8
7, 4
8, 6
3, 6
4, 2
5, 2
5, 6
10, 4
2, 5
7, 6
3, 2
3, 4
3, 4
6, 5
5, 2
3, 4
4, 2
3, 1
6, 2
2, 2
3, 2
4, 4
0, 3
1, 1
3, 2
2, 2
2, 4
1, 6
2, 1
2, 1
2, 2
2, 1
2, 5
2, 0
1, 3
0, 1
2, 2
2, 2
4, 2
1, 2
1, 1
0, 0
2, 0
2, 1
0, 1
2, 1
0, 2
0, 1
0, 0
1, 0
0, 0
0, 1
0, 0
0, 1
0, 0
1, 0
0, 0
0, 0
0, 1
0, 2
1, 0
0, 1
1, 0
0, 2
0, 2
1, 0
0, 2
0, 0
0, 0
0, 0
1, 0
0, 0
1, 1
0, 0
0, 0
0, 0
0, 1
0, 1
0, 0
0, 0
0, 0
0, 0
0, 0
0, 1
0, 0
0, 0
0, 0
0, 0
0, 0
0, 0
0, 0
1, 0
0, 0
0, 0
0, 0
0, 0
0, 0
0, 0
0, 0
1, 0
0, 0
0, 0
0, 0
0, 0
0, 0
0, 0
0, 0
0, 0
0, 0
0, 0
0, 0
0, 0
0, 0
0, 0
0, 0
0, 0
0, 0
0, 0
0, 0
0, 0
0, 0
0, 0
0, 0
0, 0
0, 0
1, 0
0, 0
0, 0
0, 0
0, 0
0, 0
0, 0
0, 0
0, 0
0, 0
0, 0
0, 0
0, 0
0, 0
0, 0
0, 0
0, 0
0, 0
0, 0
0, 0
0, 0
0, 0
0, 0
0, 0
0, 0
0, 0
0, 0
0, 0
0, 0
0, 0
0, 0
0, 0
0, 0
0, 0
0, 0
0, 0
0, 0
0, 0
0, 0
0, 0
0, 0
0, 0
0, 0
0, 0
0, 0
0, 0
0, 0
0, 0
0, 0
0, 0
0, 0
0, 0
0, 0
0, 0
0, 0
0, 0
0, 0
0, 0
0, 0
0, 0
0, 0
0, 0
0, 0
0, 0
0, 0
0, 0
0, 0
0, 0
0, 0
0, 0
0, 0
0, 0
0, 0
0, 0
0, 0
0, 0
0, 0
0, 0
0, 0
0, 0
0, 0
0, 0
0, 0
0, 0
0, 0
#ENDOFDATA     end of spectrum data