File: host_upload/02-11-2024/rqc/uplink1/ps__0567_0717304816_000rfs_shot_39.msa
#FORMAT      : EMSA/MAS spectral data file
#VERSION     : TC202v2.0 PIXL
#TITLE       : Novarupta (sol567) subset1
#DATE        : 02-11-2024      Date in the format DD-MMM-YYYY, for example 07-JUL-2010
#TIME        :             The time of day at which the spectrum was recorded, in 24-hour format
#OWNER       : PIXL Flight Model       (PIXL will use this to indicate which instrument took the data.)
#NPOINTS     : 4096     Number of data points in the spectrum (This can be zero for configuration only files)
#NCOLUMNS    : 2     Number of data columns in the spectrum (This can be zero for configuration only files)
#XUNITS      : eV
#YUNITS      : COUNTS
#DATATYPE    : YY
#XPERCHAN    : 7.862, 7.881   eV per channel (separate by commas if more than one detector)
#OFFSET      : 18.5, -22.4         eV of first channel  (separate by commas if more than one detector
#SIGNALTYPE  : XRF
#YP_TEMP     : -3.056
#LIVETIME    : 8.84626, 8.81014   seconds (separate by commas if more than one detector)
#REALTIME    : 10, 10.0   seconds (separate by commas if more than one detector)
#SPECTRUM    : start of spectrum data
0, 0
0, 0
0, 0
0, 0
0, 0
0, 0
0, 0
0, 0
1, 9
4, 4
5, 3
6, 9
11, 9
25, 33
37, 41
114, 156
428, 549
123, 113
32, 33
23, 20
69, 81
333, 366
121, 120
70, 96
245, 263
103, 112
68, 68
37, 38
10, 10
9, 16
33, 36
11, 23
28, 25
219, 319
285, 343
60, 59
48, 44
41, 60
14, 13
13, 7
15, 33
50, 66
29, 36
14, 10
20, 13
23, 18
14, 20
13, 11
15, 24
40, 27
18, 30
14, 9
6, 15
34, 43
45, 54
24, 20
46, 69
521, 686
1612, 1871
762, 808
72, 65
18, 24
21, 35
121, 142
221, 281
124, 115
22, 13
13, 9
13, 12
11, 3
10, 7
9, 7
3, 4
3, 7
6, 9
6, 9
7, 6
13, 8
11, 11
8, 6
5, 7
5, 6
1, 5
6, 7
9, 5
2, 7
8, 12
5, 8
2, 7
9, 2
6, 6
5, 5
5, 4
3, 7
2, 6
6, 4
5, 2
3, 5
6, 5
0, 5
3, 6
1, 4
2, 4
7, 3
4, 5
3, 1
1, 3
4, 2
1, 1
6, 5
5, 3
1, 2
5, 3
1, 3
5, 4
0, 7
0, 1
3, 2
0, 1
1, 3
0, 1
1, 0
1, 4
1, 3
1, 0
1, 2
0, 1
1, 1
0, 2
0, 1
2, 1
1, 2
0, 0
2, 1
1, 0
2, 1
0, 0
0, 2
0, 0
1, 0
0, 0
2, 0
1, 1
1, 2
1, 0
0, 0
0, 0
0, 1
1, 1
1, 2
0, 2
0, 0
1, 0
0, 0
1, 1
0, 0
2, 0
0, 0
0, 1
0, 0
0, 0
0, 0
0, 1
1, 0
0, 1
0, 1
0, 0
2, 1
0, 0
0, 0
0, 0
0, 0
0, 0
0, 0
0, 0
0, 2
0, 1
0, 0
0, 0
0, 0
0, 0
0, 1
0, 0
0, 0
0, 1
0, 0
0, 0
0, 0
0, 0
0, 0
0, 0
0, 0
0, 0
0, 0
1, 1
0, 0
0, 0
0, 0
0, 0
0, 0
0, 0
0, 0
1, 0
0, 0
0, 0
0, 0
0, 0
0, 0
0, 0
0, 0
0, 0
0, 0
0, 0
0, 0
0, 0
0, 0
0, 0
0, 0
0, 0
0, 0
0, 0
0, 0
0, 0
0, 0
0, 0
0, 0
0, 0
0, 0
0, 0
0, 0
0, 0
0, 0
0, 0
0, 0
0, 0
0, 0
0, 0
0, 0
0, 0
0, 0
0, 0
0, 0
0, 0
0, 0
0, 0
0, 0
0, 0
0, 0
0, 0
0, 0
0, 0
0, 0
0, 0
0, 0
0, 0
0, 0
0, 0
0, 0
0, 0
0, 0
0, 0
0, 0
0, 0
0, 0
0, 0
0, 0
0, 0
0, 0
0, 0
0, 0
0, 0
0, 0
0, 0
0, 0
0, 0
0, 0
0, 0
0, 0
0, 0
0, 0
0, 0
0, 0
0, 0
0, 0
0, 0
0, 0
0, 0
0, 0
0, 0
0, 0
0, 0
0, 0
0, 0
0, 0
#ENDOFDATA     end of spectrum data