File: host_upload/02-11-2024/rqc/uplink1/ps__0567_0717304816_000rfs_shot_472.msa
#FORMAT      : EMSA/MAS spectral data file
#VERSION     : TC202v2.0 PIXL
#TITLE       : Novarupta (sol567) subset1
#DATE        : 02-11-2024      Date in the format DD-MMM-YYYY, for example 07-JUL-2010
#TIME        :             The time of day at which the spectrum was recorded, in 24-hour format
#OWNER       : PIXL Flight Model       (PIXL will use this to indicate which instrument took the data.)
#NPOINTS     : 4096     Number of data points in the spectrum (This can be zero for configuration only files)
#NCOLUMNS    : 2     Number of data columns in the spectrum (This can be zero for configuration only files)
#XUNITS      : eV
#YUNITS      : COUNTS
#DATATYPE    : YY
#XPERCHAN    : 7.862, 7.881   eV per channel (separate by commas if more than one detector)
#OFFSET      : 18.5, -22.4         eV of first channel  (separate by commas if more than one detector
#SIGNALTYPE  : XRF
#YP_TEMP     : 1.754
#LIVETIME    : 8.83716, 8.80729   seconds (separate by commas if more than one detector)
#REALTIME    : 10, 10.0   seconds (separate by commas if more than one detector)
#SPECTRUM    : start of spectrum data
0, 0
0, 0
0, 0
0, 0
0, 0
0, 0
0, 0
0, 0
0, 8
0, 3
3, 0
5, 8
10, 11
18, 23
47, 43
75, 118
462, 497
108, 108
27, 37
27, 30
52, 55
317, 314
125, 123
80, 88
251, 237
118, 120
71, 71
34, 28
10, 9
7, 10
25, 35
20, 22
25, 27
214, 257
359, 383
59, 65
47, 42
62, 52
6, 15
9, 8
14, 23
58, 75
39, 35
14, 10
13, 15
15, 18
14, 14
8, 9
11, 19
20, 40
19, 21
14, 11
11, 14
34, 31
49, 64
28, 25
18, 33
337, 460
1519, 1866
1124, 1055
126, 110
17, 13
21, 20
76, 108
220, 294
150, 164
21, 23
9, 12
15, 14
9, 15
3, 7
8, 5
4, 6
7, 13
7, 7
7, 6
5, 7
3, 7
9, 14
12, 7
8, 4
2, 5
6, 4
10, 5
1, 4
7, 6
9, 2
5, 2
5, 2
2, 5
7, 1
5, 7
7, 7
5, 2
1, 5
5, 3
6, 4
1, 2
3, 4
4, 6
1, 3
2, 1
2, 2
1, 3
3, 4
2, 2
1, 4
2, 1
1, 3
0, 2
0, 1
4, 3
1, 0
1, 1
1, 4
2, 4
4, 5
0, 5
0, 4
2, 2
0, 2
1, 2
1, 4
1, 1
2, 2
2, 0
0, 1
2, 0
3, 3
2, 2
0, 1
1, 1
1, 2
1, 1
0, 1
0, 1
2, 1
1, 0
4, 2
0, 1
1, 1
0, 1
0, 2
0, 0
2, 0
2, 0
0, 2
1, 1
0, 0
0, 1
1, 0
0, 0
0, 1
0, 0
1, 0
0, 0
0, 0
0, 0
0, 0
0, 1
0, 0
0, 1
0, 0
0, 0
0, 0
0, 0
0, 0
0, 1
0, 0
0, 0
0, 0
0, 0
0, 0
1, 1
0, 1
0, 0
0, 0
0, 0
0, 0
0, 0
0, 0
0, 0
0, 0
0, 0
0, 0
0, 0
0, 0
0, 0
0, 0
0, 0
0, 0
0, 0
0, 0
0, 0
0, 0
0, 0
0, 0
0, 0
0, 0
0, 0
0, 0
0, 0
0, 0
0, 0
0, 0
1, 0
0, 0
0, 0
0, 0
0, 0
0, 0
0, 0
0, 0
0, 0
0, 0
0, 0
0, 0
0, 0
0, 0
0, 0
0, 0
0, 0
0, 0
0, 0
0, 0
0, 0
0, 0
0, 0
0, 0
0, 0
0, 0
0, 0
0, 0
0, 0
0, 0
0, 0
0, 0
0, 0
0, 0
0, 0
0, 0
0, 0
0, 0
0, 0
0, 0
0, 0
0, 0
0, 0
0, 0
0, 0
0, 0
0, 0
0, 0
0, 0
0, 0
0, 0
0, 0
0, 0
0, 0
0, 0
0, 0
0, 0
0, 0
0, 0
0, 0
0, 0
0, 0
0, 0
0, 0
0, 0
0, 0
0, 0
0, 0
0, 0
0, 0
0, 0
0, 0
0, 0
0, 0
0, 0
0, 0
0, 0
0, 0
0, 0
0, 0
0, 0
0, 0
0, 0
0, 0
0, 0
0, 0
0, 0
0, 0
0, 0
#ENDOFDATA     end of spectrum data