File: host_upload/02-11-2024/rqc/uplink1/ps__0567_0717304816_000rfs_shot_201.msa
#FORMAT      : EMSA/MAS spectral data file
#VERSION     : TC202v2.0 PIXL
#TITLE       : Novarupta (sol567) subset1
#DATE        : 02-11-2024      Date in the format DD-MMM-YYYY, for example 07-JUL-2010
#TIME        :             The time of day at which the spectrum was recorded, in 24-hour format
#OWNER       : PIXL Flight Model       (PIXL will use this to indicate which instrument took the data.)
#NPOINTS     : 4096     Number of data points in the spectrum (This can be zero for configuration only files)
#NCOLUMNS    : 2     Number of data columns in the spectrum (This can be zero for configuration only files)
#XUNITS      : eV
#YUNITS      : COUNTS
#DATATYPE    : YY
#XPERCHAN    : 7.862, 7.881   eV per channel (separate by commas if more than one detector)
#OFFSET      : 18.5, -22.4         eV of first channel  (separate by commas if more than one detector
#SIGNALTYPE  : XRF
#YP_TEMP     : 0.632
#LIVETIME    : 8.8531, 8.83208   seconds (separate by commas if more than one detector)
#REALTIME    : 10, 10.0   seconds (separate by commas if more than one detector)
#SPECTRUM    : start of spectrum data
0, 0
0, 0
0, 0
0, 0
0, 0
0, 0
0, 0
1, 1
5, 5
2, 3
0, 1
6, 8
12, 16
30, 26
40, 36
99, 121
449, 504
123, 118
40, 28
25, 32
48, 56
270, 293
107, 111
78, 74
206, 230
129, 127
67, 72
24, 35
9, 9
11, 5
21, 32
21, 21
10, 23
222, 257
326, 311
60, 44
37, 56
45, 45
14, 9
8, 11
18, 32
62, 60
35, 30
12, 12
13, 9
22, 28
18, 12
5, 8
15, 15
35, 34
24, 15
10, 10
8, 15
26, 25
37, 41
28, 26
25, 41
392, 469
1587, 1758
1026, 956
116, 101
18, 15
20, 22
80, 112
257, 286
147, 128
22, 20
8, 9
12, 11
6, 15
4, 5
4, 5
4, 9
4, 6
5, 7
5, 10
5, 2
4, 3
9, 16
9, 17
6, 9
11, 2
7, 4
8, 4
5, 9
3, 2
8, 5
6, 7
8, 4
2, 2
5, 4
4, 5
2, 3
3, 4
3, 2
9, 2
5, 6
1, 3
2, 4
3, 0
4, 6
1, 6
2, 4
3, 3
0, 3
3, 3
2, 3
4, 7
1, 2
3, 3
2, 3
2, 2
3, 4
3, 0
1, 2
1, 2
1, 3
6, 2
3, 0
1, 2
0, 1
1, 1
1, 0
2, 1
2, 2
0, 0
3, 1
1, 0
4, 2
0, 1
6, 1
1, 0
0, 2
0, 1
0, 1
1, 0
0, 0
0, 2
1, 0
3, 0
0, 0
0, 0
1, 2
0, 1
1, 2
0, 1
0, 0
1, 0
0, 0
0, 0
0, 0
0, 0
1, 2
0, 0
0, 0
1, 0
1, 0
1, 0
0, 1
1, 0
1, 0
0, 0
0, 0
0, 0
0, 0
0, 0
1, 0
0, 0
0, 0
1, 1
0, 1
0, 1
1, 0
0, 0
0, 0
0, 1
0, 1
0, 1
0, 0
0, 0
0, 0
0, 0
0, 0
0, 0
0, 0
0, 1
0, 1
0, 0
0, 0
0, 0
0, 0
0, 0
1, 0
0, 0
1, 0
0, 0
0, 0
0, 0
0, 0
0, 0
0, 0
0, 0
0, 0
0, 0
0, 0
0, 0
0, 0
0, 0
0, 0
0, 0
0, 0
0, 0
0, 0
0, 0
0, 0
0, 0
0, 0
0, 0
0, 0
0, 0
0, 0
0, 0
0, 0
0, 0
0, 0
0, 0
0, 0
0, 0
0, 0
0, 0
0, 0
0, 0
0, 0
0, 0
0, 0
0, 0
0, 0
0, 0
0, 0
0, 0
0, 0
0, 0
0, 0
0, 0
0, 0
0, 0
0, 0
0, 0
0, 0
0, 0
0, 0
0, 0
0, 0
0, 0
0, 0
0, 0
0, 0
0, 0
0, 0
0, 0
0, 0
0, 0
0, 0
0, 0
0, 0
0, 0
0, 0
0, 0
0, 0
0, 0
0, 0
0, 0
0, 0
0, 0
0, 0
0, 0
0, 0
0, 0
0, 0
0, 0
0, 0
0, 0
0, 0
0, 0
0, 0
0, 0
0, 0
0, 0
0, 0
0, 0
0, 0
0, 0
0, 0
0, 0
#ENDOFDATA     end of spectrum data