File: host_upload/02-11-2024/rqc/uplink1/ps__0567_0717304816_000rfs_shot_104.msa
#FORMAT      : EMSA/MAS spectral data file
#VERSION     : TC202v2.0 PIXL
#TITLE       : Novarupta (sol567) subset1
#DATE        : 02-11-2024      Date in the format DD-MMM-YYYY, for example 07-JUL-2010
#TIME        :             The time of day at which the spectrum was recorded, in 24-hour format
#OWNER       : PIXL Flight Model       (PIXL will use this to indicate which instrument took the data.)
#NPOINTS     : 4096     Number of data points in the spectrum (This can be zero for configuration only files)
#NCOLUMNS    : 2     Number of data columns in the spectrum (This can be zero for configuration only files)
#XUNITS      : eV
#YUNITS      : COUNTS
#DATATYPE    : YY
#XPERCHAN    : 7.862, 7.881   eV per channel (separate by commas if more than one detector)
#OFFSET      : 18.5, -22.4         eV of first channel  (separate by commas if more than one detector
#SIGNALTYPE  : XRF
#YP_TEMP     : -0.94
#LIVETIME    : 8.84433, 8.82757   seconds (separate by commas if more than one detector)
#REALTIME    : 10, 10.0   seconds (separate by commas if more than one detector)
#SPECTRUM    : start of spectrum data
0, 0
0, 0
0, 0
0, 0
0, 0
0, 0
0, 0
0, 1
2, 3
1, 5
2, 5
10, 3
15, 13
16, 28
36, 45
96, 122
475, 488
100, 118
22, 21
36, 25
48, 55
243, 304
109, 108
78, 91
211, 244
99, 118
59, 75
24, 33
9, 8
10, 10
21, 28
15, 11
25, 30
191, 211
315, 333
48, 41
52, 56
55, 41
9, 13
8, 11
20, 25
56, 65
30, 33
13, 12
9, 17
16, 26
12, 16
13, 15
16, 21
17, 23
24, 24
10, 19
13, 15
28, 35
35, 50
16, 22
35, 44
408, 535
1590, 1814
939, 932
104, 81
13, 16
26, 23
97, 108
263, 287
144, 138
16, 15
7, 9
11, 10
8, 8
9, 5
4, 3
7, 7
11, 5
6, 6
9, 6
7, 8
6, 10
14, 10
12, 9
8, 7
4, 9
2, 6
3, 8
4, 5
4, 11
5, 4
4, 4
7, 7
7, 1
4, 4
7, 0
5, 4
2, 3
4, 3
2, 2
5, 4
2, 3
2, 4
1, 3
2, 4
1, 2
1, 2
2, 7
3, 6
4, 2
2, 4
4, 2
6, 2
1, 4
1, 0
0, 4
2, 0
1, 2
2, 0
5, 3
2, 5
3, 4
2, 0
0, 1
0, 0
2, 1
2, 2
1, 1
4, 1
2, 3
2, 1
0, 1
1, 0
1, 1
0, 2
2, 1
0, 0
1, 0
1, 0
0, 2
1, 0
1, 1
0, 1
1, 1
0, 1
0, 1
0, 1
0, 0
1, 0
0, 0
0, 0
0, 0
0, 1
0, 0
0, 1
0, 0
0, 0
1, 1
1, 0
0, 1
2, 1
0, 0
0, 0
0, 0
0, 0
1, 1
0, 0
0, 0
0, 0
0, 2
0, 0
0, 0
0, 0
0, 0
0, 0
0, 0
0, 0
0, 0
0, 0
0, 0
0, 0
0, 0
0, 0
0, 0
0, 1
1, 0
0, 0
0, 0
0, 0
0, 0
0, 0
0, 0
0, 0
0, 0
0, 0
0, 0
0, 1
0, 0
0, 0
0, 0
1, 0
0, 0
0, 1
0, 0
0, 0
0, 0
0, 0
0, 0
0, 0
0, 0
0, 0
0, 0
0, 0
0, 0
0, 0
0, 0
0, 0
0, 0
0, 0
0, 0
0, 0
0, 1
0, 0
0, 0
0, 0
0, 0
0, 0
0, 0
0, 0
0, 0
0, 0
0, 0
0, 0
0, 0
0, 0
0, 0
0, 0
0, 0
0, 0
0, 0
0, 0
0, 0
0, 0
0, 0
0, 0
0, 0
0, 0
0, 0
0, 0
0, 0
0, 0
0, 0
0, 0
0, 0
0, 0
0, 0
0, 0
0, 0
0, 0
0, 0
0, 0
0, 0
0, 0
0, 0
0, 0
0, 0
0, 0
0, 0
0, 0
0, 0
0, 0
0, 0
0, 0
0, 0
0, 0
0, 0
0, 0
0, 0
0, 0
0, 0
0, 0
0, 0
0, 0
0, 0
0, 0
0, 0
0, 0
0, 0
0, 0
0, 0
0, 0
0, 0
0, 0
0, 0
0, 0
0, 0
0, 0
0, 0
#ENDOFDATA     end of spectrum data