File: host_upload/02-11-2024/rqc/uplink1/ps__0567_0717304816_000rfs_shot_14.msa
#FORMAT      : EMSA/MAS spectral data file
#VERSION     : TC202v2.0 PIXL
#TITLE       : Novarupta (sol567) subset1
#DATE        : 02-11-2024      Date in the format DD-MMM-YYYY, for example 07-JUL-2010
#TIME        :             The time of day at which the spectrum was recorded, in 24-hour format
#OWNER       : PIXL Flight Model       (PIXL will use this to indicate which instrument took the data.)
#NPOINTS     : 4096     Number of data points in the spectrum (This can be zero for configuration only files)
#NCOLUMNS    : 2     Number of data columns in the spectrum (This can be zero for configuration only files)
#XUNITS      : eV
#YUNITS      : COUNTS
#DATATYPE    : YY
#XPERCHAN    : 7.862, 7.881   eV per channel (separate by commas if more than one detector)
#OFFSET      : 18.5, -22.4         eV of first channel  (separate by commas if more than one detector
#SIGNALTYPE  : XRF
#YP_TEMP     : -4.339
#LIVETIME    : 8.85064, 8.82838   seconds (separate by commas if more than one detector)
#REALTIME    : 10, 10.0   seconds (separate by commas if more than one detector)
#SPECTRUM    : start of spectrum data
0, 0
0, 0
0, 0
0, 0
0, 0
0, 0
0, 0
0, 0
3, 3
1, 2
1, 4
12, 9
6, 14
27, 31
39, 38
144, 147
428, 528
115, 108
30, 39
17, 30
71, 77
286, 300
109, 110
96, 98
169, 221
96, 92
56, 69
27, 29
10, 12
12, 15
18, 27
13, 20
41, 34
225, 336
269, 264
52, 46
49, 45
41, 50
17, 16
14, 8
25, 33
53, 69
30, 34
16, 16
16, 16
13, 16
7, 10
15, 13
18, 11
23, 33
20, 18
12, 14
16, 16
29, 58
30, 34
13, 23
53, 72
629, 813
1553, 1783
651, 652
81, 63
15, 19
29, 28
110, 148
264, 278
97, 104
16, 18
11, 13
10, 14
8, 10
4, 4
5, 7
5, 11
5, 5
6, 6
5, 5
6, 7
8, 4
7, 11
11, 2
3, 11
2, 6
2, 9
9, 6
5, 4
6, 7
3, 6
6, 7
4, 8
7, 4
4, 4
8, 9
2, 6
8, 1
9, 6
2, 4
6, 6
0, 4
3, 4
5, 2
1, 2
2, 3
3, 4
0, 4
0, 2
4, 3
4, 5
2, 3
3, 3
3, 1
1, 1
1, 0
0, 2
3, 1
0, 4
0, 2
3, 1
0, 2
1, 2
2, 2
3, 2
3, 2
0, 3
2, 1
1, 1
2, 1
0, 1
3, 1
0, 2
0, 0
1, 1
0, 0
1, 0
0, 0
0, 0
0, 1
1, 0
1, 1
1, 2
1, 0
0, 0
2, 0
1, 1
3, 2
1, 0
0, 1
0, 0
1, 1
1, 0
0, 1
0, 0
2, 1
0, 0
0, 0
1, 0
0, 0
0, 0
0, 2
0, 0
0, 0
0, 1
1, 0
0, 0
0, 1
0, 0
0, 0
0, 0
1, 0
1, 0
1, 0
0, 0
0, 0
1, 0
0, 0
0, 0
0, 0
0, 0
0, 0
0, 1
0, 0
0, 0
0, 0
0, 0
0, 0
0, 0
1, 0
0, 0
0, 0
0, 0
0, 0
0, 0
0, 0
0, 0
0, 0
0, 0
0, 0
0, 0
0, 0
0, 0
0, 0
0, 0
0, 0
0, 0
0, 0
0, 0
0, 0
0, 0
0, 0
0, 0
0, 0
0, 0
0, 0
0, 0
0, 0
0, 0
0, 0
0, 0
0, 0
0, 0
0, 0
0, 0
0, 0
0, 0
0, 0
0, 0
0, 0
0, 0
0, 0
0, 0
0, 0
0, 0
0, 0
0, 0
0, 0
0, 0
0, 0
0, 0
0, 0
0, 0
0, 0
0, 0
0, 0
0, 0
0, 0
0, 0
0, 0
0, 0
0, 0
0, 0
0, 0
0, 0
0, 0
0, 0
0, 0
0, 0
0, 0
0, 0
0, 0
0, 0
0, 0
0, 0
0, 0
0, 0
0, 0
0, 0
0, 0
0, 0
0, 0
0, 0
0, 0
0, 0
0, 0
0, 0
0, 0
0, 0
0, 0
0, 0
0, 0
0, 0
0, 0
0, 0
0, 0
0, 0
0, 0
0, 0
0, 0
0, 0
0, 0
0, 0
0, 0
0, 0
0, 0
0, 0
0, 0
#ENDOFDATA     end of spectrum data