File: host_upload/02-11-2024/rqc/uplink1/ps__0567_0717304816_000rfs_shot_90.msa
#FORMAT      : EMSA/MAS spectral data file
#VERSION     : TC202v2.0 PIXL
#TITLE       : Novarupta (sol567) subset1
#DATE        : 02-11-2024      Date in the format DD-MMM-YYYY, for example 07-JUL-2010
#TIME        :             The time of day at which the spectrum was recorded, in 24-hour format
#OWNER       : PIXL Flight Model       (PIXL will use this to indicate which instrument took the data.)
#NPOINTS     : 4096     Number of data points in the spectrum (This can be zero for configuration only files)
#NCOLUMNS    : 2     Number of data columns in the spectrum (This can be zero for configuration only files)
#XUNITS      : eV
#YUNITS      : COUNTS
#DATATYPE    : YY
#XPERCHAN    : 7.862, 7.881   eV per channel (separate by commas if more than one detector)
#OFFSET      : 18.5, -22.4         eV of first channel  (separate by commas if more than one detector
#SIGNALTYPE  : XRF
#YP_TEMP     : -1.132
#LIVETIME    : 8.8521, 8.82214   seconds (separate by commas if more than one detector)
#REALTIME    : 10, 10.0   seconds (separate by commas if more than one detector)
#SPECTRUM    : start of spectrum data
0, 0
0, 0
0, 0
0, 0
0, 0
0, 0
0, 0
0, 0
0, 6
8, 3
1, 4
9, 10
15, 12
27, 22
42, 46
101, 130
440, 494
105, 124
21, 28
25, 23
62, 61
286, 317
124, 108
87, 80
209, 244
102, 122
72, 62
28, 21
11, 11
8, 7
24, 30
20, 18
18, 40
226, 247
326, 331
52, 44
59, 63
46, 51
11, 11
6, 6
36, 22
55, 86
29, 25
12, 8
12, 16
26, 20
12, 12
12, 9
15, 25
33, 43
17, 24
13, 10
18, 10
34, 27
44, 33
19, 21
24, 39
422, 470
1538, 1763
861, 870
96, 91
13, 15
20, 21
85, 128
246, 280
130, 138
21, 17
8, 10
13, 15
7, 9
6, 6
4, 9
4, 6
6, 8
8, 9
3, 9
7, 6
3, 8
7, 6
10, 10
6, 8
3, 8
5, 7
10, 6
1, 5
2, 11
7, 9
5, 5
3, 4
2, 5
1, 6
1, 4
7, 3
3, 4
4, 5
0, 2
2, 4
4, 6
2, 3
4, 4
1, 5
2, 6
3, 1
1, 4
2, 1
3, 3
1, 3
4, 2
3, 3
1, 0
3, 1
2, 3
1, 1
1, 2
3, 2
1, 3
1, 3
1, 2
0, 2
3, 1
1, 2
1, 0
4, 1
2, 1
2, 1
2, 1
2, 2
1, 2
0, 1
0, 1
1, 1
1, 1
2, 2
0, 2
0, 1
0, 2
1, 2
0, 1
0, 1
2, 2
1, 1
0, 1
0, 1
0, 1
0, 0
1, 0
0, 0
0, 0
0, 1
0, 1
0, 0
0, 0
0, 0
0, 0
0, 0
1, 0
0, 2
0, 0
0, 0
0, 0
0, 0
0, 1
0, 2
0, 0
0, 0
1, 0
0, 0
0, 0
0, 0
0, 1
0, 1
1, 1
0, 0
0, 0
0, 0
0, 0
0, 0
0, 0
0, 0
0, 0
0, 0
0, 0
0, 1
0, 0
0, 0
0, 0
0, 0
0, 0
0, 0
0, 0
0, 0
0, 0
0, 0
0, 0
0, 1
0, 0
0, 0
0, 0
0, 0
0, 0
0, 0
0, 0
0, 0
0, 0
0, 0
0, 0
0, 0
0, 0
0, 0
0, 0
0, 0
0, 0
0, 0
0, 0
0, 0
0, 0
0, 0
0, 0
0, 0
0, 0
0, 0
0, 0
0, 0
0, 0
0, 0
0, 0
0, 0
0, 0
0, 0
0, 0
0, 0
0, 0
0, 0
0, 0
0, 0
0, 0
0, 0
0, 0
0, 0
0, 0
0, 0
0, 0
0, 0
0, 0
0, 0
0, 0
0, 0
0, 0
0, 0
0, 0
0, 0
0, 0
0, 0
0, 0
0, 0
0, 0
0, 0
0, 0
0, 0
0, 0
0, 0
0, 0
0, 0
0, 0
0, 0
0, 0
0, 0
0, 0
0, 0
0, 0
0, 0
0, 0
0, 0
0, 0
0, 0
0, 0
0, 0
0, 0
0, 0
0, 0
0, 0
0, 0
0, 0
0, 0
0, 0
0, 0
0, 0
0, 0
0, 0
0, 0
0, 0
0, 0
0, 0
0, 0
#ENDOFDATA     end of spectrum data