File: host_upload/02-11-2024/rqc/uplink1/ps__0567_0717304816_000rfs_shot_355.msa
#FORMAT      : EMSA/MAS spectral data file
#VERSION     : TC202v2.0 PIXL
#TITLE       : Novarupta (sol567) subset1
#DATE        : 02-11-2024      Date in the format DD-MMM-YYYY, for example 07-JUL-2010
#TIME        :             The time of day at which the spectrum was recorded, in 24-hour format
#OWNER       : PIXL Flight Model       (PIXL will use this to indicate which instrument took the data.)
#NPOINTS     : 4096     Number of data points in the spectrum (This can be zero for configuration only files)
#NCOLUMNS    : 2     Number of data columns in the spectrum (This can be zero for configuration only files)
#XUNITS      : eV
#YUNITS      : COUNTS
#DATATYPE    : YY
#XPERCHAN    : 7.862, 7.881   eV per channel (separate by commas if more than one detector)
#OFFSET      : 18.5, -22.4         eV of first channel  (separate by commas if more than one detector
#SIGNALTYPE  : XRF
#YP_TEMP     : 1.562
#LIVETIME    : 8.84096, 8.62518   seconds (separate by commas if more than one detector)
#REALTIME    : 10, 10.0   seconds (separate by commas if more than one detector)
#SPECTRUM    : start of spectrum data
0, 0
0, 0
0, 0
0, 0
0, 0
0, 0
0, 0
0, 0
1, 2
1, 5
3, 2
7, 9
16, 8
31, 26
42, 43
99, 124
434, 555
111, 116
26, 47
30, 22
55, 55
276, 361
111, 124
76, 84
227, 269
107, 110
60, 71
35, 25
13, 8
8, 11
25, 29
14, 16
21, 28
198, 267
335, 381
62, 57
45, 38
50, 48
7, 13
9, 8
18, 37
53, 76
32, 39
15, 16
10, 10
20, 18
17, 16
17, 6
11, 12
15, 33
26, 33
6, 17
11, 12
24, 43
46, 53
20, 20
32, 35
318, 472
1563, 1797
1079, 1134
113, 113
18, 18
29, 23
76, 92
210, 313
154, 166
25, 13
9, 11
11, 6
15, 12
15, 3
9, 8
4, 9
7, 3
4, 8
6, 8
9, 7
5, 6
12, 15
11, 7
8, 3
8, 2
4, 9
2, 4
2, 5
3, 5
5, 3
3, 7
4, 4
5, 4
3, 2
6, 4
4, 4
5, 5
2, 2
4, 5
10, 3
3, 4
3, 1
1, 3
3, 7
2, 3
4, 2
3, 6
3, 1
2, 1
5, 0
2, 2
3, 2
0, 2
3, 0
4, 3
3, 3
4, 3
3, 0
1, 2
2, 7
4, 1
1, 2
2, 1
1, 2
2, 0
0, 2
1, 2
0, 3
1, 1
0, 1
3, 3
0, 1
2, 0
1, 2
1, 2
1, 1
0, 0
2, 0
2, 0
0, 0
1, 0
0, 1
0, 0
2, 1
0, 0
0, 1
0, 0
0, 2
0, 0
0, 0
1, 0
0, 0
1, 1
1, 0
0, 2
0, 0
0, 0
0, 0
0, 0
1, 0
0, 0
0, 0
0, 0
0, 0
0, 0
0, 1
1, 0
0, 2
0, 0
0, 0
0, 0
0, 0
0, 0
0, 0
0, 0
0, 0
1, 2
0, 0
0, 0
0, 0
0, 1
0, 0
0, 1
0, 0
1, 0
0, 0
0, 0
0, 1
0, 0
0, 0
0, 0
0, 0
0, 1
0, 0
0, 0
0, 1
0, 0
0, 0
0, 0
0, 0
0, 0
0, 0
0, 0
0, 0
0, 0
0, 0
0, 0
0, 0
0, 0
0, 0
0, 0
0, 0
0, 0
0, 0
0, 0
0, 0
0, 0
0, 0
0, 0
0, 0
0, 0
0, 0
0, 0
0, 0
0, 0
0, 0
0, 0
0, 0
0, 0
1, 0
0, 0
0, 0
0, 0
0, 0
0, 0
0, 0
0, 0
0, 0
0, 0
0, 0
0, 0
0, 0
0, 0
0, 0
0, 0
0, 0
0, 0
0, 0
0, 0
0, 0
0, 0
0, 0
0, 0
0, 0
0, 0
0, 0
0, 0
0, 0
0, 0
0, 0
0, 0
0, 0
0, 0
0, 0
0, 0
0, 0
0, 0
0, 0
0, 0
0, 0
0, 0
0, 0
0, 0
0, 0
0, 0
0, 0
0, 0
0, 0
0, 0
0, 0
0, 0
0, 0
0, 0
0, 0
0, 0
0, 0
0, 0
0, 0
0, 0
0, 0
0, 0
0, 0
0, 0
0, 0
0, 0
0, 0
0, 0
#ENDOFDATA     end of spectrum data