File: host_upload/02-11-2024/rqc/uplink1/ps__0567_0717304816_000rfs_shot_121.msa
#FORMAT      : EMSA/MAS spectral data file
#VERSION     : TC202v2.0 PIXL
#TITLE       : Novarupta (sol567) subset1
#DATE        : 02-11-2024      Date in the format DD-MMM-YYYY, for example 07-JUL-2010
#TIME        :             The time of day at which the spectrum was recorded, in 24-hour format
#OWNER       : PIXL Flight Model       (PIXL will use this to indicate which instrument took the data.)
#NPOINTS     : 4096     Number of data points in the spectrum (This can be zero for configuration only files)
#NCOLUMNS    : 2     Number of data columns in the spectrum (This can be zero for configuration only files)
#XUNITS      : eV
#YUNITS      : COUNTS
#DATATYPE    : YY
#XPERCHAN    : 7.862, 7.881   eV per channel (separate by commas if more than one detector)
#OFFSET      : 18.5, -22.4         eV of first channel  (separate by commas if more than one detector
#SIGNALTYPE  : XRF
#YP_TEMP     : -0.459
#LIVETIME    : 8.84357, 8.82124   seconds (separate by commas if more than one detector)
#REALTIME    : 10, 10.0   seconds (separate by commas if more than one detector)
#SPECTRUM    : start of spectrum data
0, 0
0, 0
0, 0
0, 0
0, 0
0, 0
0, 0
0, 0
2, 0
1, 3
4, 2
8, 11
15, 22
28, 23
38, 47
123, 116
464, 504
107, 111
24, 37
15, 22
58, 61
278, 317
108, 105
69, 86
182, 248
92, 114
78, 83
32, 24
16, 11
9, 9
20, 24
13, 19
22, 26
187, 232
309, 291
39, 49
33, 38
58, 58
14, 10
6, 5
16, 31
55, 69
30, 29
21, 19
15, 22
21, 22
17, 14
14, 14
26, 13
27, 33
17, 18
11, 11
14, 13
33, 49
36, 56
21, 17
30, 33
408, 531
1596, 1770
963, 978
105, 82
24, 15
20, 25
80, 114
240, 293
139, 147
15, 14
12, 8
13, 13
10, 10
10, 11
3, 1
6, 5
6, 7
3, 10
4, 7
6, 4
11, 11
7, 12
5, 13
10, 4
7, 9
11, 5
3, 5
3, 6
5, 3
8, 6
4, 3
3, 4
1, 7
6, 6
3, 5
5, 2
5, 6
2, 4
3, 3
4, 2
2, 2
2, 5
3, 3
1, 3
1, 3
0, 2
2, 6
2, 3
0, 1
2, 1
2, 0
1, 3
2, 2
3, 1
0, 2
2, 1
1, 1
2, 1
1, 5
4, 6
3, 1
3, 2
0, 2
1, 1
0, 3
4, 3
4, 2
1, 2
1, 0
3, 1
2, 1
1, 2
1, 0
4, 0
0, 0
1, 3
0, 1
1, 3
2, 2
0, 1
3, 0
0, 0
0, 1
0, 0
1, 0
1, 0
1, 0
1, 2
0, 0
0, 0
0, 0
0, 1
0, 1
0, 2
0, 0
0, 0
1, 0
0, 0
0, 0
1, 0
0, 1
0, 0
1, 0
0, 0
1, 0
0, 0
0, 1
0, 0
2, 0
0, 0
0, 1
1, 0
0, 1
1, 1
0, 1
0, 1
0, 0
1, 1
0, 0
0, 0
0, 0
0, 0
0, 0
0, 0
0, 0
0, 2
0, 0
0, 0
0, 0
0, 0
0, 0
0, 0
0, 0
0, 0
0, 0
0, 0
0, 0
0, 0
0, 0
0, 0
0, 0
0, 0
0, 0
0, 0
0, 0
0, 0
0, 1
0, 0
0, 0
0, 0
0, 0
0, 0
0, 1
0, 0
0, 0
0, 0
0, 0
0, 0
0, 0
0, 0
0, 0
0, 0
0, 0
0, 0
0, 0
0, 0
0, 0
0, 0
0, 0
0, 0
0, 0
0, 0
0, 0
0, 0
0, 0
0, 0
0, 0
0, 0
0, 0
0, 0
0, 0
0, 0
0, 0
0, 0
0, 0
0, 0
0, 0
0, 0
0, 0
0, 0
0, 0
0, 0
0, 0
0, 0
0, 0
0, 0
0, 0
0, 0
0, 0
0, 0
0, 0
0, 0
0, 0
0, 0
0, 0
0, 0
0, 0
0, 0
0, 0
0, 0
0, 0
0, 0
0, 0
0, 0
0, 0
0, 0
0, 0
0, 0
0, 0
0, 0
0, 0
0, 0
0, 0
0, 0
0, 0
0, 0
0, 0
0, 0
0, 0
0, 0
0, 0
0, 0
0, 0
0, 0
0, 0
0, 0
0, 0
#ENDOFDATA     end of spectrum data