File: host_upload/02-11-2024/rqc/uplink1/ps__0567_0717304816_000rfs_shot_115.msa
#FORMAT      : EMSA/MAS spectral data file
#VERSION     : TC202v2.0 PIXL
#TITLE       : Novarupta (sol567) subset1
#DATE        : 02-11-2024      Date in the format DD-MMM-YYYY, for example 07-JUL-2010
#TIME        :             The time of day at which the spectrum was recorded, in 24-hour format
#OWNER       : PIXL Flight Model       (PIXL will use this to indicate which instrument took the data.)
#NPOINTS     : 4096     Number of data points in the spectrum (This can be zero for configuration only files)
#NCOLUMNS    : 2     Number of data columns in the spectrum (This can be zero for configuration only files)
#XUNITS      : eV
#YUNITS      : COUNTS
#DATATYPE    : YY
#XPERCHAN    : 7.862, 7.881   eV per channel (separate by commas if more than one detector)
#OFFSET      : 18.5, -22.4         eV of first channel  (separate by commas if more than one detector
#SIGNALTYPE  : XRF
#YP_TEMP     : -0.619
#LIVETIME    : 8.84554, 8.83766   seconds (separate by commas if more than one detector)
#REALTIME    : 10, 10.0   seconds (separate by commas if more than one detector)
#SPECTRUM    : start of spectrum data
0, 0
0, 0
0, 0
0, 0
0, 0
0, 0
0, 0
0, 1
4, 4
2, 2
4, 3
10, 7
7, 9
23, 14
45, 53
99, 127
481, 502
117, 111
28, 28
22, 22
51, 51
295, 300
117, 110
61, 95
218, 243
103, 102
71, 74
33, 33
7, 5
5, 3
24, 24
7, 17
25, 15
213, 262
344, 319
52, 45
36, 56
67, 51
10, 8
8, 4
19, 27
75, 54
38, 40
10, 16
17, 10
11, 20
17, 13
14, 12
11, 13
33, 31
35, 22
10, 11
12, 18
39, 34
44, 40
21, 27
35, 39
421, 493
1610, 1685
1000, 890
91, 93
22, 11
21, 25
98, 112
237, 311
148, 139
24, 17
9, 14
11, 9
9, 6
4, 7
8, 4
2, 4
7, 7
9, 3
6, 7
10, 6
7, 4
7, 8
9, 7
6, 5
7, 8
4, 2
1, 2
4, 7
5, 4
3, 4
2, 7
5, 4
5, 5
3, 6
4, 5
5, 2
0, 3
2, 4
3, 1
2, 4
4, 6
1, 3
2, 3
3, 2
2, 1
5, 4
1, 3
4, 5
2, 2
1, 3
3, 1
4, 5
1, 4
3, 3
1, 2
2, 0
0, 2
1, 2
1, 5
2, 2
2, 2
0, 3
0, 1
2, 3
2, 0
0, 2
1, 2
0, 1
1, 1
1, 0
0, 1
1, 2
1, 0
0, 4
2, 1
2, 1
0, 0
0, 0
1, 2
0, 1
0, 0
1, 0
2, 1
0, 0
0, 1
1, 0
0, 0
1, 1
2, 0
0, 0
0, 0
0, 0
0, 1
0, 1
0, 0
1, 0
0, 0
1, 0
0, 0
1, 1
0, 1
0, 1
0, 1
0, 0
0, 1
1, 0
0, 0
0, 0
0, 0
0, 0
0, 0
0, 1
0, 0
0, 0
2, 0
0, 0
1, 0
0, 0
0, 1
0, 1
0, 0
0, 0
0, 0
0, 0
0, 0
0, 0
0, 0
0, 0
0, 0
1, 1
0, 0
0, 0
0, 0
0, 0
0, 0
0, 0
0, 0
0, 0
0, 1
0, 0
0, 0
0, 0
1, 0
0, 0
0, 0
0, 0
0, 0
0, 0
0, 0
0, 1
0, 0
0, 0
0, 0
0, 0
0, 0
0, 0
0, 0
0, 0
0, 0
0, 0
0, 0
0, 0
0, 0
0, 0
0, 0
0, 0
0, 0
0, 0
0, 0
0, 0
0, 0
0, 0
0, 0
0, 0
0, 0
0, 0
0, 0
0, 0
0, 0
0, 0
0, 0
0, 0
0, 0
0, 0
0, 0
0, 0
0, 0
0, 0
0, 0
0, 0
0, 0
0, 0
0, 0
0, 0
0, 0
0, 0
0, 0
0, 0
0, 0
0, 0
0, 0
0, 0
0, 0
0, 0
0, 0
0, 0
0, 0
0, 0
0, 0
0, 0
0, 0
0, 0
0, 0
0, 0
0, 0
0, 0
0, 0
0, 0
0, 0
0, 0
0, 0
0, 0
0, 0
0, 0
0, 0
0, 0
0, 0
0, 0
0, 0
0, 0
0, 0
0, 0
0, 0
0, 0
0, 0
0, 0
0, 0
#ENDOFDATA     end of spectrum data