File: host_upload/02-11-2024/rqc/uplink1/ps__0567_0717304816_000rfs_shot_125.msa
#FORMAT      : EMSA/MAS spectral data file
#VERSION     : TC202v2.0 PIXL
#TITLE       : Novarupta (sol567) subset1
#DATE        : 02-11-2024      Date in the format DD-MMM-YYYY, for example 07-JUL-2010
#TIME        :             The time of day at which the spectrum was recorded, in 24-hour format
#OWNER       : PIXL Flight Model       (PIXL will use this to indicate which instrument took the data.)
#NPOINTS     : 4096     Number of data points in the spectrum (This can be zero for configuration only files)
#NCOLUMNS    : 2     Number of data columns in the spectrum (This can be zero for configuration only files)
#XUNITS      : eV
#YUNITS      : COUNTS
#DATATYPE    : YY
#XPERCHAN    : 7.862, 7.881   eV per channel (separate by commas if more than one detector)
#OFFSET      : 18.5, -22.4         eV of first channel  (separate by commas if more than one detector
#SIGNALTYPE  : XRF
#YP_TEMP     : -0.523
#LIVETIME    : 8.83758, 8.82152   seconds (separate by commas if more than one detector)
#REALTIME    : 10, 10.0   seconds (separate by commas if more than one detector)
#SPECTRUM    : start of spectrum data
0, 0
0, 0
0, 0
0, 0
0, 0
0, 0
0, 0
0, 0
0, 2
6, 2
2, 3
10, 8
18, 12
19, 25
44, 43
121, 130
431, 524
110, 111
19, 42
26, 21
50, 72
285, 322
108, 116
79, 86
201, 245
101, 111
68, 65
28, 28
8, 10
9, 7
29, 25
20, 14
22, 28
186, 249
329, 310
41, 44
44, 38
49, 40
6, 10
11, 11
16, 14
57, 88
43, 40
14, 17
17, 10
18, 18
9, 18
6, 11
11, 14
26, 32
12, 17
11, 13
15, 11
19, 53
53, 46
24, 17
31, 25
436, 511
1572, 1880
978, 1009
86, 81
22, 17
18, 25
81, 117
236, 272
165, 126
25, 11
7, 10
12, 10
6, 16
7, 8
4, 6
5, 8
8, 9
8, 10
3, 6
11, 10
3, 6
12, 7
8, 6
12, 8
5, 4
7, 4
4, 3
1, 3
1, 3
3, 6
8, 10
2, 4
6, 7
3, 2
1, 4
4, 7
3, 2
4, 7
0, 5
2, 4
3, 5
2, 2
7, 3
0, 3
1, 4
1, 3
4, 3
3, 2
2, 1
0, 4
1, 3
3, 1
2, 2
2, 3
0, 0
0, 2
2, 2
1, 2
3, 1
2, 3
0, 1
1, 0
2, 3
0, 5
2, 2
4, 3
2, 0
1, 1
1, 0
0, 1
1, 3
2, 0
2, 1
2, 2
2, 0
3, 0
0, 1
0, 1
0, 2
1, 0
3, 0
0, 0
0, 1
2, 1
0, 3
0, 2
1, 0
0, 0
0, 0
0, 0
2, 0
0, 0
1, 0
2, 0
0, 0
0, 1
0, 0
0, 0
0, 0
1, 0
0, 0
0, 1
0, 0
0, 0
0, 0
1, 0
0, 1
0, 0
2, 0
0, 0
0, 0
0, 0
0, 1
0, 2
0, 0
1, 0
1, 0
0, 0
0, 1
0, 0
0, 0
0, 0
0, 1
0, 0
0, 0
0, 0
0, 0
0, 0
0, 0
0, 0
0, 0
0, 0
1, 0
0, 0
0, 0
0, 0
0, 0
0, 0
0, 0
0, 0
0, 0
0, 0
0, 0
0, 0
0, 0
0, 0
0, 0
0, 0
0, 0
0, 0
0, 0
0, 0
0, 0
0, 0
0, 0
0, 0
0, 0
0, 0
0, 0
0, 0
0, 0
0, 0
0, 0
0, 0
0, 0
0, 0
0, 0
0, 0
0, 0
0, 0
0, 0
0, 0
0, 0
0, 0
0, 0
0, 0
0, 0
0, 0
0, 0
0, 0
0, 0
0, 0
0, 0
0, 0
0, 0
0, 0
0, 0
0, 0
0, 0
0, 0
0, 0
0, 0
0, 0
0, 0
0, 0
0, 0
0, 0
0, 0
0, 0
0, 0
0, 0
0, 0
0, 0
0, 0
0, 0
0, 0
0, 0
0, 0
0, 0
0, 0
0, 0
0, 0
0, 0
0, 0
0, 0
0, 0
0, 0
0, 0
0, 0
0, 0
0, 0
0, 0
0, 0
0, 0
0, 0
0, 0
0, 0
0, 0
0, 0
0, 0
0, 0
0, 0
0, 0
0, 0
0, 0
0, 0
0, 0
#ENDOFDATA     end of spectrum data