File: host_upload/02-11-2024/rqc/uplink1/ps__0567_0717304816_000rfs_shot_310.msa
#FORMAT      : EMSA/MAS spectral data file
#VERSION     : TC202v2.0 PIXL
#TITLE       : Novarupta (sol567) subset1
#DATE        : 02-11-2024      Date in the format DD-MMM-YYYY, for example 07-JUL-2010
#TIME        :             The time of day at which the spectrum was recorded, in 24-hour format
#OWNER       : PIXL Flight Model       (PIXL will use this to indicate which instrument took the data.)
#NPOINTS     : 4096     Number of data points in the spectrum (This can be zero for configuration only files)
#NCOLUMNS    : 2     Number of data columns in the spectrum (This can be zero for configuration only files)
#XUNITS      : eV
#YUNITS      : COUNTS
#DATATYPE    : YY
#XPERCHAN    : 7.862, 7.881   eV per channel (separate by commas if more than one detector)
#OFFSET      : 18.5, -22.4         eV of first channel  (separate by commas if more than one detector
#SIGNALTYPE  : XRF
#YP_TEMP     : 1.402
#LIVETIME    : 8.84228, 8.6308   seconds (separate by commas if more than one detector)
#REALTIME    : 10, 10.0   seconds (separate by commas if more than one detector)
#SPECTRUM    : start of spectrum data
0, 0
0, 0
0, 0
0, 0
0, 0
0, 0
0, 0
0, 0
3, 3
5, 1
5, 4
14, 5
12, 11
19, 16
43, 52
98, 128
482, 532
111, 121
32, 36
24, 23
45, 49
279, 331
89, 99
72, 85
195, 222
108, 110
62, 58
26, 32
11, 13
5, 9
24, 26
16, 19
16, 18
176, 258
288, 339
48, 55
31, 52
52, 45
7, 10
8, 8
24, 11
59, 53
24, 36
11, 22
11, 22
17, 17
6, 16
15, 6
16, 16
29, 24
27, 27
9, 10
11, 22
40, 37
46, 48
15, 22
25, 43
349, 477
1553, 1827
1078, 1044
147, 92
21, 14
16, 20
74, 100
269, 277
165, 176
20, 18
7, 8
10, 10
6, 9
6, 14
4, 10
5, 3
3, 8
3, 7
11, 9
4, 10
8, 6
8, 10
14, 10
5, 4
7, 10
3, 4
6, 4
10, 8
4, 3
4, 5
6, 7
3, 6
5, 5
4, 2
2, 4
3, 5
6, 4
3, 1
2, 3
4, 4
3, 2
5, 2
0, 3
3, 7
8, 5
2, 6
6, 6
4, 2
8, 3
2, 4
3, 1
2, 1
0, 3
1, 1
3, 3
0, 3
0, 2
6, 0
1, 3
3, 2
3, 2
4, 1
1, 2
1, 1
2, 2
1, 1
1, 0
1, 1
1, 0
0, 1
1, 1
0, 1
0, 1
0, 1
1, 1
0, 2
1, 1
1, 0
2, 0
0, 1
0, 0
1, 1
1, 1
0, 3
1, 0
1, 0
0, 0
0, 0
1, 0
0, 2
0, 0
0, 0
0, 0
1, 0
1, 0
0, 0
0, 0
0, 1
1, 0
0, 0
0, 0
0, 0
0, 0
1, 0
0, 1
0, 1
2, 0
0, 1
0, 0
0, 0
1, 0
0, 1
1, 1
0, 0
0, 0
0, 0
0, 0
0, 0
0, 0
0, 0
0, 0
0, 0
0, 0
0, 1
0, 0
0, 0
0, 0
0, 0
0, 0
0, 0
0, 0
0, 0
0, 0
0, 0
0, 0
0, 0
0, 0
0, 0
0, 0
0, 0
0, 0
0, 0
0, 0
0, 0
0, 0
0, 0
0, 0
0, 0
0, 0
0, 0
0, 0
0, 0
0, 0
0, 0
0, 0
0, 0
0, 0
0, 0
0, 0
0, 0
0, 0
0, 0
0, 0
0, 0
0, 0
0, 0
0, 0
0, 0
0, 0
0, 0
0, 0
0, 0
0, 0
0, 0
0, 0
0, 0
0, 0
0, 0
0, 0
0, 0
0, 0
0, 0
0, 0
0, 0
0, 0
0, 0
0, 0
0, 0
0, 0
0, 0
0, 0
0, 0
0, 0
0, 0
0, 0
0, 0
0, 0
0, 0
0, 0
0, 0
0, 0
0, 0
0, 0
0, 0
0, 0
0, 0
0, 0
0, 0
0, 0
0, 0
0, 0
0, 0
0, 0
0, 0
0, 0
0, 0
0, 0
0, 0
0, 0
0, 0
0, 0
0, 0
0, 0
0, 0
0, 0
0, 0
0, 0
0, 0
0, 0
0, 0
0, 0
0, 0
0, 0
0, 0
0, 0
0, 0
0, 0
#ENDOFDATA     end of spectrum data