File: host_upload/02-11-2024/rqc/uplink1/ps__0567_0717304816_000rfs_shot_20.msa
#FORMAT      : EMSA/MAS spectral data file
#VERSION     : TC202v2.0 PIXL
#TITLE       : Novarupta (sol567) subset1
#DATE        : 02-11-2024      Date in the format DD-MMM-YYYY, for example 07-JUL-2010
#TIME        :             The time of day at which the spectrum was recorded, in 24-hour format
#OWNER       : PIXL Flight Model       (PIXL will use this to indicate which instrument took the data.)
#NPOINTS     : 4096     Number of data points in the spectrum (This can be zero for configuration only files)
#NCOLUMNS    : 2     Number of data columns in the spectrum (This can be zero for configuration only files)
#XUNITS      : eV
#YUNITS      : COUNTS
#DATATYPE    : YY
#XPERCHAN    : 7.862, 7.881   eV per channel (separate by commas if more than one detector)
#OFFSET      : 18.5, -22.4         eV of first channel  (separate by commas if more than one detector
#SIGNALTYPE  : XRF
#YP_TEMP     : -4.211
#LIVETIME    : 8.83494, 8.83081   seconds (separate by commas if more than one detector)
#REALTIME    : 10, 10.0   seconds (separate by commas if more than one detector)
#SPECTRUM    : start of spectrum data
0, 0
0, 0
0, 0
0, 0
0, 0
0, 0
0, 0
1, 1
3, 7
2, 1
4, 4
9, 4
11, 12
25, 22
44, 32
144, 151
448, 457
129, 113
28, 22
22, 16
76, 75
319, 305
105, 118
86, 95
224, 256
113, 123
55, 62
17, 26
14, 6
9, 12
27, 22
18, 16
30, 24
262, 236
280, 297
39, 47
53, 46
43, 58
13, 13
12, 12
28, 34
56, 51
27, 35
15, 11
17, 15
18, 21
18, 8
12, 15
11, 15
32, 34
12, 16
7, 13
12, 10
46, 42
42, 30
13, 17
69, 46
579, 716
1691, 1745
736, 712
79, 63
21, 19
22, 29
121, 144
269, 269
105, 103
14, 14
8, 6
16, 13
4, 7
7, 7
9, 5
6, 9
4, 4
6, 4
2, 2
5, 7
2, 8
8, 12
12, 8
8, 4
6, 7
6, 4
5, 5
5, 7
5, 5
4, 3
7, 8
4, 4
7, 7
2, 5
5, 3
5, 5
2, 1
1, 6
3, 3
6, 4
3, 3
0, 3
5, 0
1, 4
2, 7
3, 0
2, 2
1, 4
2, 4
3, 2
2, 4
3, 4
0, 2
4, 2
0, 3
1, 3
3, 2
5, 3
1, 3
1, 1
2, 2
2, 4
1, 2
2, 3
0, 2
3, 1
2, 1
1, 5
2, 1
1, 1
0, 1
0, 0
0, 2
0, 0
1, 1
2, 0
1, 3
0, 3
0, 3
1, 0
3, 0
0, 0
2, 0
2, 1
0, 2
1, 0
1, 0
1, 1
1, 1
0, 0
1, 0
0, 0
1, 2
0, 1
0, 0
0, 0
1, 0
0, 1
0, 1
0, 0
0, 0
0, 0
0, 0
1, 1
0, 2
2, 1
0, 0
1, 0
0, 1
0, 0
1, 0
1, 0
2, 0
0, 1
0, 0
1, 0
0, 0
0, 0
0, 0
0, 0
0, 0
0, 0
0, 0
0, 0
1, 0
0, 0
0, 0
0, 0
0, 0
0, 0
0, 0
0, 0
0, 0
0, 0
0, 1
0, 0
0, 0
0, 0
0, 0
0, 0
0, 0
0, 0
0, 0
0, 0
0, 0
0, 0
0, 0
0, 1
0, 0
0, 0
0, 0
0, 0
0, 0
0, 0
0, 0
0, 0
0, 0
0, 1
0, 0
0, 0
0, 0
0, 0
0, 0
0, 0
0, 0
0, 0
0, 0
0, 0
0, 0
0, 0
0, 0
0, 0
0, 0
0, 0
0, 0
0, 0
0, 0
0, 0
0, 0
0, 0
0, 0
0, 0
0, 0
0, 0
0, 0
0, 0
0, 0
0, 0
0, 0
0, 0
0, 0
0, 0
0, 0
0, 0
0, 0
0, 0
0, 0
0, 0
0, 0
0, 0
0, 0
0, 0
0, 0
0, 0
0, 0
0, 0
0, 0
0, 0
0, 0
0, 0
0, 0
0, 0
0, 0
0, 0
0, 0
0, 0
0, 0
0, 0
0, 0
0, 0
0, 0
0, 0
0, 0
0, 0
0, 0
0, 0
0, 0
0, 0
0, 0
0, 0
0, 0
0, 0
0, 0
0, 0
0, 0
0, 0
0, 0
#ENDOFDATA     end of spectrum data