File: host_upload/02-11-2024/rqc/uplink1/ps__0567_0717304816_000rfs_shot_409.msa
#FORMAT      : EMSA/MAS spectral data file
#VERSION     : TC202v2.0 PIXL
#TITLE       : Novarupta (sol567) subset1
#DATE        : 02-11-2024      Date in the format DD-MMM-YYYY, for example 07-JUL-2010
#TIME        :             The time of day at which the spectrum was recorded, in 24-hour format
#OWNER       : PIXL Flight Model       (PIXL will use this to indicate which instrument took the data.)
#NPOINTS     : 4096     Number of data points in the spectrum (This can be zero for configuration only files)
#NCOLUMNS    : 2     Number of data columns in the spectrum (This can be zero for configuration only files)
#XUNITS      : eV
#YUNITS      : COUNTS
#DATATYPE    : YY
#XPERCHAN    : 7.862, 7.881   eV per channel (separate by commas if more than one detector)
#OFFSET      : 18.5, -22.4         eV of first channel  (separate by commas if more than one detector
#SIGNALTYPE  : XRF
#YP_TEMP     : 1.722
#LIVETIME    : 8.83293, 8.81488   seconds (separate by commas if more than one detector)
#REALTIME    : 10, 10.0   seconds (separate by commas if more than one detector)
#SPECTRUM    : start of spectrum data
0, 0
0, 0
0, 0
0, 0
0, 0
0, 0
0, 1
3, 0
6, 5
3, 1
4, 2
3, 7
8, 5
15, 16
47, 59
108, 145
516, 558
108, 112
33, 42
25, 25
40, 70
319, 353
111, 118
58, 74
223, 274
113, 107
63, 78
21, 32
16, 7
6, 11
26, 24
16, 14
22, 24
186, 285
320, 339
56, 71
54, 43
61, 69
12, 12
7, 9
15, 24
58, 79
29, 32
18, 14
7, 16
20, 20
16, 13
14, 11
14, 16
22, 28
22, 29
14, 6
15, 14
30, 53
46, 57
26, 21
24, 26
333, 474
1491, 1845
1076, 1062
110, 116
15, 11
17, 29
93, 93
237, 274
159, 160
29, 24
9, 16
16, 15
11, 8
7, 10
4, 2
6, 6
5, 12
4, 7
8, 11
6, 11
8, 8
8, 10
14, 11
5, 4
8, 6
6, 8
9, 9
7, 3
7, 5
9, 4
5, 3
4, 7
13, 5
5, 4
3, 2
7, 5
5, 6
2, 5
3, 7
3, 4
2, 3
3, 5
1, 0
5, 5
2, 3
2, 2
1, 4
2, 0
0, 2
2, 2
2, 1
2, 6
1, 3
0, 2
1, 4
2, 2
1, 2
2, 2
2, 2
2, 3
3, 0
2, 1
2, 4
0, 0
1, 2
1, 3
0, 3
3, 3
2, 1
2, 0
0, 3
0, 4
1, 0
1, 2
0, 1
4, 0
2, 1
1, 0
0, 0
0, 1
1, 2
0, 1
0, 0
0, 0
0, 1
0, 1
0, 0
0, 1
1, 1
0, 0
0, 1
0, 2
0, 2
0, 0
0, 0
0, 0
1, 2
0, 0
0, 2
0, 1
0, 1
0, 0
1, 0
0, 0
0, 0
1, 0
1, 1
0, 1
0, 0
0, 0
0, 0
0, 1
0, 1
0, 0
0, 0
0, 0
1, 0
0, 0
1, 0
0, 0
0, 0
0, 0
0, 0
0, 0
0, 0
0, 0
0, 0
0, 0
0, 0
0, 0
0, 0
0, 0
1, 0
0, 0
0, 0
0, 0
0, 0
0, 0
1, 0
0, 0
0, 0
0, 0
0, 0
0, 0
0, 0
0, 0
0, 0
0, 0
0, 0
0, 0
0, 0
0, 0
0, 0
0, 0
0, 0
0, 0
0, 0
0, 0
0, 0
0, 0
0, 0
0, 0
1, 0
0, 0
0, 0
0, 0
0, 0
0, 0
0, 0
0, 0
0, 0
0, 0
0, 0
0, 0
0, 0
0, 0
0, 0
0, 0
0, 0
0, 0
0, 0
0, 0
0, 0
0, 0
0, 0
0, 0
0, 0
0, 0
0, 0
0, 0
0, 0
0, 0
0, 0
0, 0
0, 0
0, 0
0, 0
0, 0
0, 0
0, 0
0, 0
0, 0
0, 0
0, 0
0, 0
0, 0
0, 0
0, 0
0, 0
0, 0
0, 0
0, 0
0, 0
0, 0
0, 0
0, 0
0, 0
0, 0
0, 0
0, 0
0, 0
0, 0
0, 0
0, 0
0, 0
0, 0
0, 0
0, 0
0, 0
0, 0
0, 0
0, 0
0, 0
0, 0
0, 0
0, 0
0, 0
#ENDOFDATA     end of spectrum data