File: host_upload/02-11-2024/rqc/uplink1/ps__0567_0717304816_000rfs_shot_91.msa
#FORMAT      : EMSA/MAS spectral data file
#VERSION     : TC202v2.0 PIXL
#TITLE       : Novarupta (sol567) subset1
#DATE        : 02-11-2024      Date in the format DD-MMM-YYYY, for example 07-JUL-2010
#TIME        :             The time of day at which the spectrum was recorded, in 24-hour format
#OWNER       : PIXL Flight Model       (PIXL will use this to indicate which instrument took the data.)
#NPOINTS     : 4096     Number of data points in the spectrum (This can be zero for configuration only files)
#NCOLUMNS    : 2     Number of data columns in the spectrum (This can be zero for configuration only files)
#XUNITS      : eV
#YUNITS      : COUNTS
#DATATYPE    : YY
#XPERCHAN    : 7.862, 7.881   eV per channel (separate by commas if more than one detector)
#OFFSET      : 18.5, -22.4         eV of first channel  (separate by commas if more than one detector
#SIGNALTYPE  : XRF
#YP_TEMP     : -1.357
#LIVETIME    : 8.84495, 8.83096   seconds (separate by commas if more than one detector)
#REALTIME    : 10, 10.0   seconds (separate by commas if more than one detector)
#SPECTRUM    : start of spectrum data
0, 0
0, 0
0, 0
0, 0
0, 0
0, 0
0, 0
0, 0
1, 5
1, 5
2, 4
11, 11
16, 13
27, 16
41, 44
102, 130
446, 491
108, 82
24, 27
21, 27
53, 40
303, 333
135, 112
67, 75
221, 244
115, 113
63, 65
32, 34
12, 8
8, 4
24, 29
13, 7
19, 19
216, 266
294, 327
44, 56
44, 39
39, 42
12, 12
10, 10
24, 22
53, 75
31, 24
13, 18
9, 11
17, 19
9, 12
11, 13
8, 14
26, 30
22, 21
8, 13
13, 15
26, 36
44, 42
27, 22
35, 39
434, 538
1555, 1689
954, 847
101, 86
12, 13
20, 19
84, 114
253, 290
139, 137
22, 16
13, 10
11, 8
8, 11
2, 5
10, 7
5, 7
6, 7
5, 7
8, 11
4, 7
8, 7
11, 10
10, 17
5, 3
7, 5
3, 7
5, 6
2, 4
3, 3
4, 6
5, 2
3, 9
7, 4
3, 3
7, 6
4, 1
8, 5
4, 4
1, 6
7, 4
0, 6
2, 3
1, 4
1, 5
2, 3
2, 5
4, 3
3, 1
1, 4
1, 0
0, 3
4, 4
0, 1
0, 1
1, 4
0, 2
2, 0
1, 4
3, 0
4, 4
1, 6
3, 2
2, 1
0, 1
1, 4
0, 3
2, 4
2, 1
2, 2
0, 2
0, 1
2, 0
1, 0
0, 1
2, 1
3, 0
0, 1
0, 1
1, 1
0, 2
1, 0
0, 0
1, 1
0, 1
0, 0
1, 0
0, 0
1, 0
0, 2
0, 1
1, 0
0, 0
1, 0
0, 1
0, 1
1, 0
0, 0
0, 2
0, 0
0, 1
1, 0
0, 0
0, 0
0, 0
0, 0
0, 0
0, 0
0, 0
0, 0
0, 0
0, 1
0, 0
0, 0
0, 0
0, 1
0, 1
1, 1
0, 0
0, 0
1, 0
2, 0
0, 0
0, 0
1, 0
0, 0
0, 1
0, 0
0, 0
0, 0
0, 0
0, 0
0, 0
0, 0
0, 0
0, 0
0, 0
2, 0
0, 0
0, 0
1, 0
0, 0
0, 0
0, 0
0, 0
0, 0
1, 0
0, 0
0, 0
0, 0
0, 0
0, 1
0, 0
0, 0
0, 0
0, 0
0, 0
0, 0
0, 0
0, 0
0, 0
0, 0
0, 0
0, 0
0, 0
0, 0
0, 0
0, 0
0, 0
0, 0
0, 0
0, 0
0, 0
0, 0
0, 0
0, 0
0, 0
0, 0
0, 0
0, 0
0, 0
0, 0
0, 0
0, 0
0, 0
0, 0
0, 0
0, 0
0, 0
0, 0
0, 0
0, 0
0, 0
0, 0
0, 0
0, 0
0, 0
0, 0
0, 0
0, 0
0, 0
0, 0
0, 0
0, 0
0, 0
0, 0
0, 0
0, 0
0, 0
0, 0
0, 0
0, 0
0, 0
0, 0
0, 0
0, 0
0, 0
0, 0
0, 0
0, 0
0, 0
0, 0
0, 0
0, 0
0, 0
0, 0
0, 0
0, 0
0, 0
0, 0
0, 0
0, 0
0, 0
0, 0
0, 0
0, 0
0, 0
0, 0
#ENDOFDATA     end of spectrum data