File: host_upload/02-11-2024/rqc/uplink1/ps__0567_0717304816_000rfs_shot_361.msa
#FORMAT      : EMSA/MAS spectral data file
#VERSION     : TC202v2.0 PIXL
#TITLE       : Novarupta (sol567) subset1
#DATE        : 02-11-2024      Date in the format DD-MMM-YYYY, for example 07-JUL-2010
#TIME        :             The time of day at which the spectrum was recorded, in 24-hour format
#OWNER       : PIXL Flight Model       (PIXL will use this to indicate which instrument took the data.)
#NPOINTS     : 4096     Number of data points in the spectrum (This can be zero for configuration only files)
#NCOLUMNS    : 2     Number of data columns in the spectrum (This can be zero for configuration only files)
#XUNITS      : eV
#YUNITS      : COUNTS
#DATATYPE    : YY
#XPERCHAN    : 7.862, 7.881   eV per channel (separate by commas if more than one detector)
#OFFSET      : 18.5, -22.4         eV of first channel  (separate by commas if more than one detector
#SIGNALTYPE  : XRF
#YP_TEMP     : 1.594
#LIVETIME    : 8.81053, 8.80822   seconds (separate by commas if more than one detector)
#REALTIME    : 10, 10.0   seconds (separate by commas if more than one detector)
#SPECTRUM    : start of spectrum data
0, 0
0, 0
0, 0
0, 0
0, 0
0, 0
1, 0
1, 1
5, 4
2, 2
3, 6
11, 10
16, 18
21, 19
46, 49
108, 95
520, 466
128, 115
35, 29
22, 21
80, 94
475, 471
178, 174
72, 98
249, 236
120, 117
78, 77
27, 28
15, 8
6, 12
27, 26
23, 19
24, 28
231, 211
374, 342
56, 58
46, 38
56, 45
15, 11
9, 4
16, 17
72, 59
44, 35
19, 14
16, 17
17, 13
15, 14
11, 11
12, 14
36, 32
18, 25
15, 13
10, 15
34, 36
47, 44
28, 21
39, 36
352, 469
1675, 1702
1176, 908
146, 96
19, 18
25, 25
84, 99
301, 289
173, 145
29, 20
15, 20
14, 13
8, 10
8, 7
2, 3
9, 7
7, 6
9, 8
9, 7
5, 3
5, 11
11, 16
19, 5
5, 4
4, 5
8, 4
6, 3
5, 4
5, 13
4, 8
1, 3
7, 7
5, 3
3, 4
6, 4
7, 6
3, 7
1, 7
1, 6
3, 4
4, 4
6, 6
5, 4
5, 6
3, 4
3, 3
0, 2
3, 4
1, 3
1, 2
0, 1
2, 1
1, 2
4, 5
3, 2
1, 1
3, 6
3, 4
1, 0
7, 5
2, 1
3, 5
1, 5
1, 4
1, 0
1, 1
1, 3
1, 1
0, 1
1, 3
4, 0
2, 2
4, 1
0, 0
1, 1
0, 1
2, 1
1, 2
0, 0
1, 0
0, 1
1, 1
0, 1
3, 0
1, 0
2, 0
1, 0
0, 1
1, 1
0, 0
0, 0
0, 1
1, 0
0, 1
0, 0
0, 0
0, 0
0, 1
1, 1
0, 1
0, 0
0, 0
0, 0
0, 0
0, 0
0, 0
0, 0
1, 0
0, 0
0, 0
0, 0
0, 0
0, 0
1, 0
0, 0
1, 0
0, 0
0, 0
1, 1
0, 0
0, 0
0, 0
2, 0
1, 0
0, 0
0, 0
0, 0
0, 0
0, 1
0, 0
1, 0
1, 0
0, 0
0, 0
0, 0
0, 0
0, 0
0, 0
0, 0
0, 0
0, 0
0, 0
0, 1
0, 0
0, 0
0, 0
0, 0
0, 0
0, 0
0, 0
0, 0
0, 0
0, 0
0, 0
0, 0
0, 0
0, 0
0, 0
0, 0
0, 0
0, 0
0, 0
0, 0
0, 0
0, 0
0, 0
0, 0
0, 0
0, 0
0, 0
0, 0
0, 0
0, 0
0, 0
0, 0
0, 0
0, 0
0, 0
0, 0
0, 0
0, 0
0, 0
0, 0
0, 0
0, 0
0, 0
0, 0
0, 0
0, 0
0, 0
0, 0
0, 0
0, 0
0, 0
0, 0
0, 0
0, 0
0, 0
0, 0
0, 0
0, 0
0, 0
0, 0
0, 0
0, 0
0, 0
0, 0
0, 0
0, 0
0, 0
0, 0
0, 0
0, 0
0, 0
0, 0
0, 0
0, 0
0, 0
0, 0
0, 0
0, 0
0, 0
0, 0
0, 0
0, 0
0, 0
0, 0
0, 0
0, 0
0, 0
0, 0
0, 0
0, 0
0, 0
0, 0
0, 0
0, 0
#ENDOFDATA     end of spectrum data