File: host_upload/02-11-2024/rqc/uplink1/ps__0567_0717304816_000rfs_shot_74.msa
#FORMAT      : EMSA/MAS spectral data file
#VERSION     : TC202v2.0 PIXL
#TITLE       : Novarupta (sol567) subset1
#DATE        : 02-11-2024      Date in the format DD-MMM-YYYY, for example 07-JUL-2010
#TIME        :             The time of day at which the spectrum was recorded, in 24-hour format
#OWNER       : PIXL Flight Model       (PIXL will use this to indicate which instrument took the data.)
#NPOINTS     : 4096     Number of data points in the spectrum (This can be zero for configuration only files)
#NCOLUMNS    : 2     Number of data columns in the spectrum (This can be zero for configuration only files)
#XUNITS      : eV
#YUNITS      : COUNTS
#DATATYPE    : YY
#XPERCHAN    : 7.862, 7.881   eV per channel (separate by commas if more than one detector)
#OFFSET      : 18.5, -22.4         eV of first channel  (separate by commas if more than one detector
#SIGNALTYPE  : XRF
#YP_TEMP     : -1.838
#LIVETIME    : 8.84099, 8.81746   seconds (separate by commas if more than one detector)
#REALTIME    : 10, 10.0   seconds (separate by commas if more than one detector)
#SPECTRUM    : start of spectrum data
0, 0
0, 0
0, 0
0, 0
0, 0
0, 0
0, 0
0, 0
2, 5
3, 4
1, 4
5, 7
8, 8
16, 19
51, 38
120, 146
452, 542
113, 148
33, 33
23, 26
57, 58
292, 341
104, 132
84, 79
223, 238
119, 126
69, 69
34, 28
6, 11
7, 12
35, 31
14, 16
25, 24
222, 288
289, 304
38, 40
58, 51
48, 42
7, 13
10, 15
19, 21
56, 67
37, 43
16, 11
16, 21
19, 20
12, 13
16, 11
20, 18
28, 27
22, 31
15, 12
12, 18
45, 38
47, 58
14, 14
38, 44
428, 568
1502, 1743
898, 897
105, 76
16, 18
21, 25
92, 127
222, 286
139, 133
12, 18
10, 6
5, 12
4, 12
6, 9
1, 9
12, 3
5, 11
10, 12
10, 11
10, 5
8, 7
10, 15
6, 8
6, 6
8, 7
9, 3
8, 5
6, 2
3, 6
4, 9
7, 5
6, 7
3, 4
2, 4
2, 4
3, 3
3, 4
6, 4
7, 1
3, 4
3, 1
2, 4
3, 4
6, 1
3, 0
3, 0
1, 4
3, 0
4, 4
4, 1
4, 3
4, 4
1, 2
2, 1
1, 1
4, 3
2, 1
4, 3
2, 1
4, 3
0, 0
4, 2
0, 2
2, 1
0, 2
2, 2
1, 3
0, 2
2, 0
1, 0
0, 1
1, 1
2, 0
3, 1
0, 3
2, 2
3, 1
0, 2
1, 4
0, 1
1, 1
4, 0
1, 0
1, 1
0, 0
0, 0
0, 0
0, 0
0, 0
1, 3
1, 1
0, 2
0, 0
0, 3
0, 1
1, 1
1, 0
0, 2
0, 0
0, 0
0, 0
0, 0
0, 0
0, 1
0, 0
1, 1
0, 0
0, 0
0, 0
0, 0
0, 0
0, 0
0, 1
0, 0
0, 0
0, 0
0, 1
0, 0
0, 0
0, 0
0, 0
0, 0
0, 0
0, 1
0, 0
0, 0
1, 0
0, 1
0, 0
0, 0
0, 0
0, 0
0, 0
0, 0
0, 0
0, 0
0, 0
0, 0
0, 0
0, 0
0, 0
0, 0
0, 0
0, 0
0, 0
0, 0
0, 0
0, 0
0, 0
0, 0
0, 0
0, 0
0, 0
0, 0
0, 0
0, 0
0, 0
0, 0
0, 0
0, 0
0, 0
0, 0
0, 0
0, 0
0, 0
0, 0
0, 0
0, 0
0, 0
0, 0
0, 0
0, 0
0, 0
0, 0
0, 0
0, 0
0, 0
0, 0
0, 0
0, 0
0, 0
0, 0
0, 0
0, 0
0, 0
0, 0
0, 0
0, 0
0, 0
0, 0
0, 0
0, 0
0, 0
0, 0
0, 0
0, 0
0, 0
0, 0
0, 0
0, 0
0, 0
0, 0
0, 0
0, 0
0, 0
0, 0
0, 0
0, 0
0, 0
0, 0
0, 0
0, 0
0, 0
0, 0
0, 0
0, 0
0, 0
0, 0
0, 0
0, 0
0, 0
0, 0
0, 0
0, 0
0, 0
0, 0
0, 0
0, 0
0, 0
0, 0
0, 0
0, 0
0, 0
0, 0
0, 0
0, 0
0, 0
#ENDOFDATA     end of spectrum data