File: host_upload/02-11-2024/rqc/uplink1/ps__0567_0717304816_000rfs_shot_411.msa
#FORMAT      : EMSA/MAS spectral data file
#VERSION     : TC202v2.0 PIXL
#TITLE       : Novarupta (sol567) subset1
#DATE        : 02-11-2024      Date in the format DD-MMM-YYYY, for example 07-JUL-2010
#TIME        :             The time of day at which the spectrum was recorded, in 24-hour format
#OWNER       : PIXL Flight Model       (PIXL will use this to indicate which instrument took the data.)
#NPOINTS     : 4096     Number of data points in the spectrum (This can be zero for configuration only files)
#NCOLUMNS    : 2     Number of data columns in the spectrum (This can be zero for configuration only files)
#XUNITS      : eV
#YUNITS      : COUNTS
#DATATYPE    : YY
#XPERCHAN    : 7.862, 7.881   eV per channel (separate by commas if more than one detector)
#OFFSET      : 18.5, -22.4         eV of first channel  (separate by commas if more than one detector
#SIGNALTYPE  : XRF
#YP_TEMP     : 1.818
#LIVETIME    : 8.83459, 8.81747   seconds (separate by commas if more than one detector)
#REALTIME    : 10, 10.0   seconds (separate by commas if more than one detector)
#SPECTRUM    : start of spectrum data
0, 0
0, 0
0, 0
0, 0
0, 0
0, 0
0, 0
1, 0
2, 4
4, 6
4, 3
5, 11
19, 11
18, 33
32, 53
106, 132
495, 520
116, 132
32, 37
24, 22
50, 64
305, 343
118, 115
66, 83
233, 255
101, 119
73, 84
32, 26
15, 12
8, 11
32, 28
22, 15
18, 20
213, 245
344, 357
54, 58
36, 41
40, 60
14, 21
7, 11
29, 21
58, 74
21, 34
15, 18
13, 10
20, 20
14, 9
10, 13
13, 10
27, 37
16, 29
9, 6
14, 12
32, 35
50, 45
24, 25
20, 35
371, 494
1571, 1788
1078, 1039
141, 103
20, 20
11, 31
85, 82
249, 296
179, 141
27, 21
10, 15
8, 12
12, 6
7, 6
9, 5
7, 4
6, 7
6, 5
10, 8
5, 4
8, 6
13, 11
13, 7
7, 5
3, 3
7, 2
3, 6
6, 1
6, 2
6, 10
8, 7
4, 3
5, 7
4, 5
3, 4
6, 7
1, 2
0, 8
3, 3
7, 1
6, 2
4, 4
4, 4
4, 7
5, 0
2, 1
3, 4
1, 3
2, 5
3, 3
1, 5
7, 3
4, 4
1, 2
2, 2
3, 2
2, 2
3, 1
2, 2
0, 6
4, 2
0, 1
2, 3
1, 2
2, 4
2, 3
1, 4
1, 3
1, 2
1, 1
1, 1
1, 0
1, 0
3, 1
1, 0
0, 0
2, 2
1, 0
0, 1
0, 0
1, 0
2, 1
0, 0
0, 0
1, 0
1, 0
0, 0
1, 0
0, 2
1, 1
0, 1
3, 0
0, 0
1, 0
0, 0
0, 1
0, 0
2, 0
0, 0
0, 0
0, 0
0, 0
0, 1
0, 0
0, 0
1, 0
0, 1
0, 0
0, 0
0, 0
0, 0
0, 0
0, 0
0, 0
0, 0
0, 0
0, 0
1, 0
0, 0
0, 0
0, 0
0, 0
0, 0
0, 0
0, 0
0, 1
0, 0
1, 0
0, 0
0, 0
0, 0
0, 0
0, 0
0, 0
0, 0
0, 0
0, 0
0, 0
0, 0
1, 0
0, 0
0, 0
0, 0
0, 0
0, 0
0, 0
1, 0
0, 0
0, 0
1, 0
0, 0
0, 0
0, 0
0, 1
0, 0
0, 0
0, 0
0, 0
0, 0
0, 0
0, 0
0, 0
0, 0
0, 0
0, 0
0, 0
0, 0
0, 0
0, 0
0, 0
0, 0
0, 0
0, 0
0, 0
0, 0
0, 0
0, 0
0, 0
0, 0
0, 0
0, 0
0, 0
0, 0
0, 0
0, 0
0, 0
0, 0
0, 0
0, 0
0, 0
0, 0
0, 0
0, 0
0, 0
0, 0
0, 0
0, 0
0, 0
0, 0
0, 0
0, 0
0, 0
0, 0
0, 0
0, 0
0, 0
0, 0
0, 0
0, 0
0, 0
0, 0
0, 0
0, 0
0, 0
0, 0
0, 0
0, 0
0, 0
0, 0
0, 0
0, 0
0, 0
0, 0
0, 0
0, 0
0, 0
0, 0
0, 0
0, 0
0, 0
0, 0
0, 0
0, 0
0, 0
0, 0
0, 0
0, 0
#ENDOFDATA     end of spectrum data