File: host_upload/02-11-2024/rqc/uplink1/ps__0567_0717304816_000rfs_shot_253.msa
#FORMAT      : EMSA/MAS spectral data file
#VERSION     : TC202v2.0 PIXL
#TITLE       : Novarupta (sol567) subset1
#DATE        : 02-11-2024      Date in the format DD-MMM-YYYY, for example 07-JUL-2010
#TIME        :             The time of day at which the spectrum was recorded, in 24-hour format
#OWNER       : PIXL Flight Model       (PIXL will use this to indicate which instrument took the data.)
#NPOINTS     : 4096     Number of data points in the spectrum (This can be zero for configuration only files)
#NCOLUMNS    : 2     Number of data columns in the spectrum (This can be zero for configuration only files)
#XUNITS      : eV
#YUNITS      : COUNTS
#DATATYPE    : YY
#XPERCHAN    : 7.862, 7.881   eV per channel (separate by commas if more than one detector)
#OFFSET      : 18.5, -22.4         eV of first channel  (separate by commas if more than one detector
#SIGNALTYPE  : XRF
#YP_TEMP     : 1.113
#LIVETIME    : 8.8252, 8.81159   seconds (separate by commas if more than one detector)
#REALTIME    : 10, 10.0   seconds (separate by commas if more than one detector)
#SPECTRUM    : start of spectrum data
0, 0
0, 0
0, 0
0, 0
0, 0
0, 0
0, 0
1, 1
4, 9
4, 1
4, 2
8, 11
15, 18
25, 22
43, 37
123, 126
477, 514
118, 136
37, 40
22, 21
57, 74
299, 304
118, 122
76, 98
206, 265
110, 98
64, 73
24, 27
6, 9
9, 9
21, 34
21, 20
19, 20
229, 241
331, 369
54, 42
33, 64
40, 61
10, 10
16, 6
17, 24
53, 58
48, 46
19, 13
18, 14
23, 24
18, 17
8, 11
9, 14
23, 32
20, 33
13, 8
12, 26
28, 53
47, 53
27, 23
30, 42
366, 474
1624, 1710
1023, 1015
117, 106
16, 24
25, 15
93, 100
248, 276
170, 145
23, 9
10, 13
17, 17
12, 9
11, 6
6, 7
7, 5
5, 2
10, 5
9, 10
3, 7
7, 2
4, 7
7, 5
7, 9
7, 6
6, 6
4, 10
3, 7
4, 1
3, 6
4, 5
5, 4
3, 4
4, 7
5, 7
5, 5
3, 4
3, 5
3, 6
1, 1
6, 3
1, 4
4, 6
2, 1
1, 3
1, 2
3, 4
3, 4
3, 5
1, 2
1, 1
0, 2
1, 1
4, 3
2, 3
1, 5
4, 1
1, 0
2, 2
1, 2
1, 3
1, 0
0, 1
1, 2
1, 0
1, 0
0, 1
4, 1
0, 2
1, 1
2, 0
1, 3
2, 1
0, 1
1, 0
0, 1
0, 0
1, 1
0, 2
0, 0
1, 0
0, 1
1, 1
0, 1
0, 0
2, 2
2, 0
0, 0
0, 1
0, 1
0, 0
0, 0
0, 1
0, 0
1, 1
2, 0
0, 1
0, 0
0, 0
1, 0
0, 0
0, 0
0, 0
2, 0
0, 0
0, 0
0, 0
0, 0
0, 0
1, 0
0, 0
0, 0
0, 0
0, 0
1, 0
0, 0
0, 0
1, 0
0, 1
0, 0
0, 0
0, 0
0, 1
0, 0
0, 0
1, 0
0, 0
0, 0
1, 0
0, 0
0, 0
0, 0
0, 0
0, 0
1, 1
0, 0
0, 0
0, 0
0, 0
0, 0
0, 0
0, 0
0, 0
0, 0
0, 0
0, 0
0, 0
0, 0
0, 0
0, 0
1, 0
0, 0
0, 1
0, 0
0, 0
0, 0
0, 0
0, 0
0, 0
0, 0
0, 0
0, 0
0, 0
0, 0
0, 0
0, 0
0, 0
0, 0
0, 0
0, 0
0, 0
0, 0
0, 0
0, 0
0, 0
0, 0
0, 0
0, 0
0, 0
0, 0
0, 0
0, 0
0, 0
0, 0
0, 0
0, 0
0, 0
0, 0
0, 0
0, 0
0, 0
0, 0
0, 0
0, 0
0, 0
0, 0
0, 0
0, 0
0, 0
0, 0
0, 0
0, 0
0, 0
0, 0
0, 0
0, 0
0, 0
0, 0
0, 0
0, 0
0, 0
0, 0
0, 0
0, 0
0, 0
0, 0
0, 0
0, 0
0, 0
0, 0
0, 0
0, 0
0, 0
0, 0
0, 0
0, 0
0, 0
0, 0
0, 0
0, 0
0, 0
0, 0
0, 0
0, 0
0, 0
0, 0
0, 0
#ENDOFDATA     end of spectrum data