File: host_upload/02-11-2024/rqc/uplink1/ps__0567_0717304816_000rfs_shot_98.msa
#FORMAT      : EMSA/MAS spectral data file
#VERSION     : TC202v2.0 PIXL
#TITLE       : Novarupta (sol567) subset1
#DATE        : 02-11-2024      Date in the format DD-MMM-YYYY, for example 07-JUL-2010
#TIME        :             The time of day at which the spectrum was recorded, in 24-hour format
#OWNER       : PIXL Flight Model       (PIXL will use this to indicate which instrument took the data.)
#NPOINTS     : 4096     Number of data points in the spectrum (This can be zero for configuration only files)
#NCOLUMNS    : 2     Number of data columns in the spectrum (This can be zero for configuration only files)
#XUNITS      : eV
#YUNITS      : COUNTS
#DATATYPE    : YY
#XPERCHAN    : 7.862, 7.881   eV per channel (separate by commas if more than one detector)
#OFFSET      : 18.5, -22.4         eV of first channel  (separate by commas if more than one detector
#SIGNALTYPE  : XRF
#YP_TEMP     : -1.164
#LIVETIME    : 8.85337, 8.8234   seconds (separate by commas if more than one detector)
#REALTIME    : 10, 10.0   seconds (separate by commas if more than one detector)
#SPECTRUM    : start of spectrum data
0, 0
0, 0
0, 0
0, 0
0, 0
0, 0
0, 0
0, 1
2, 3
2, 4
5, 3
8, 5
7, 11
22, 28
40, 46
107, 107
447, 535
118, 113
25, 23
18, 29
64, 67
274, 322
108, 122
87, 85
205, 214
96, 113
56, 68
23, 25
8, 2
9, 12
24, 25
15, 17
17, 27
205, 226
275, 293
37, 39
38, 47
33, 43
9, 11
10, 5
19, 30
53, 75
28, 42
14, 11
19, 13
19, 25
7, 11
8, 9
10, 10
33, 26
21, 14
12, 14
11, 10
30, 42
40, 37
18, 21
35, 42
434, 546
1567, 1801
851, 975
91, 89
14, 17
11, 17
87, 126
237, 250
142, 127
15, 19
7, 11
11, 16
3, 9
4, 9
10, 6
5, 8
7, 3
6, 3
5, 5
6, 9
9, 6
13, 5
7, 10
5, 6
3, 2
6, 5
2, 7
11, 5
7, 7
8, 11
8, 5
4, 4
6, 2
3, 4
1, 8
1, 2
6, 9
3, 2
3, 6
3, 6
7, 0
7, 1
2, 6
3, 3
2, 3
6, 3
1, 5
4, 2
4, 1
6, 0
2, 2
5, 1
3, 2
0, 4
4, 1
1, 3
2, 2
0, 3
3, 1
3, 3
2, 2
0, 3
3, 2
1, 1
1, 2
0, 5
0, 1
0, 1
1, 2
1, 0
2, 1
1, 1
0, 0
2, 0
1, 0
0, 0
0, 1
0, 0
0, 2
2, 1
0, 0
1, 0
1, 0
0, 3
0, 0
0, 0
1, 1
0, 1
0, 0
0, 0
0, 1
0, 1
0, 0
1, 0
0, 0
1, 0
1, 1
1, 1
0, 0
0, 1
0, 0
1, 0
3, 0
0, 0
0, 0
1, 2
0, 0
0, 1
0, 0
1, 1
0, 0
0, 0
0, 0
0, 0
1, 1
0, 0
0, 1
0, 1
0, 0
0, 0
0, 0
1, 0
0, 0
0, 0
0, 0
0, 0
0, 0
0, 0
0, 0
0, 0
0, 0
0, 0
0, 0
0, 0
0, 0
0, 0
0, 0
0, 0
1, 0
0, 0
0, 0
0, 0
0, 0
0, 0
0, 0
0, 0
0, 0
0, 0
0, 0
0, 0
0, 0
0, 0
0, 0
0, 0
0, 1
0, 0
0, 0
0, 0
0, 0
0, 0
0, 0
0, 1
0, 0
0, 0
0, 1
0, 0
0, 0
0, 0
0, 0
0, 0
0, 0
0, 0
0, 0
0, 0
0, 0
0, 0
0, 0
0, 0
0, 0
0, 0
0, 0
0, 0
0, 0
0, 0
0, 0
0, 0
0, 0
0, 0
0, 0
0, 0
0, 0
0, 0
0, 0
0, 0
0, 0
0, 0
0, 0
0, 0
0, 0
0, 0
0, 0
0, 0
0, 0
0, 0
0, 0
0, 0
0, 0
0, 0
0, 0
0, 0
0, 0
0, 0
0, 0
0, 0
0, 0
0, 0
0, 0
0, 0
0, 0
0, 0
0, 0
0, 0
0, 0
0, 0
0, 0
0, 0
0, 0
0, 0
0, 0
0, 0
0, 0
0, 0
0, 0
0, 0
0, 0
0, 0
0, 0
#ENDOFDATA     end of spectrum data