File: host_upload/02-11-2024/rqc/uplink1/ps__0567_0717304816_000rfs_shot_187.msa
#FORMAT      : EMSA/MAS spectral data file
#VERSION     : TC202v2.0 PIXL
#TITLE       : Novarupta (sol567) subset1
#DATE        : 02-11-2024      Date in the format DD-MMM-YYYY, for example 07-JUL-2010
#TIME        :             The time of day at which the spectrum was recorded, in 24-hour format
#OWNER       : PIXL Flight Model       (PIXL will use this to indicate which instrument took the data.)
#NPOINTS     : 4096     Number of data points in the spectrum (This can be zero for configuration only files)
#NCOLUMNS    : 2     Number of data columns in the spectrum (This can be zero for configuration only files)
#XUNITS      : eV
#YUNITS      : COUNTS
#DATATYPE    : YY
#XPERCHAN    : 7.862, 7.881   eV per channel (separate by commas if more than one detector)
#OFFSET      : 18.5, -22.4         eV of first channel  (separate by commas if more than one detector
#SIGNALTYPE  : XRF
#YP_TEMP     : 0.632
#LIVETIME    : 8.84246, 8.82508   seconds (separate by commas if more than one detector)
#REALTIME    : 10, 10.0   seconds (separate by commas if more than one detector)
#SPECTRUM    : start of spectrum data
0, 0
0, 0
0, 0
0, 0
0, 0
0, 0
0, 0
0, 0
4, 0
1, 3
6, 6
8, 6
9, 19
28, 27
35, 49
85, 122
493, 543
123, 127
34, 28
26, 25
73, 59
328, 325
120, 124
72, 81
183, 228
120, 118
66, 67
35, 33
9, 10
11, 9
39, 32
18, 13
20, 20
200, 236
318, 319
43, 41
35, 52
55, 52
13, 12
10, 9
22, 25
53, 59
29, 35
10, 16
11, 22
22, 23
16, 11
16, 11
16, 20
25, 27
21, 30
9, 13
13, 8
32, 35
40, 34
16, 21
23, 38
382, 467
1501, 1779
970, 993
114, 96
13, 15
16, 20
72, 95
236, 260
139, 153
17, 23
9, 8
23, 10
3, 6
9, 2
6, 4
5, 4
9, 10
8, 13
8, 11
3, 10
7, 10
4, 15
9, 12
5, 8
1, 6
3, 3
3, 11
6, 8
7, 5
4, 2
7, 3
2, 7
4, 11
7, 4
3, 0
4, 5
8, 4
2, 6
1, 4
3, 5
3, 3
5, 1
5, 5
4, 5
3, 3
3, 3
2, 2
1, 3
3, 1
3, 7
1, 4
2, 1
3, 3
2, 6
4, 2
0, 2
1, 3
1, 3
2, 8
2, 3
4, 4
7, 2
2, 5
1, 3
1, 1
0, 2
3, 4
0, 2
0, 4
1, 1
0, 0
1, 1
2, 0
0, 1
0, 0
0, 2
2, 0
1, 2
0, 1
0, 0
0, 0
0, 1
0, 3
0, 0
0, 0
0, 1
0, 0
0, 0
0, 0
1, 0
0, 1
0, 1
0, 0
0, 0
0, 0
0, 2
0, 0
0, 0
0, 0
1, 0
0, 0
0, 2
0, 1
0, 2
1, 0
0, 0
1, 1
0, 0
2, 0
1, 0
0, 1
0, 0
0, 3
0, 0
1, 2
0, 0
2, 0
1, 1
0, 0
0, 0
2, 0
0, 1
0, 1
0, 0
0, 2
0, 0
0, 0
2, 0
0, 0
0, 0
0, 0
0, 0
0, 0
0, 0
0, 0
0, 0
0, 0
0, 0
0, 0
0, 0
0, 0
0, 0
1, 0
0, 1
0, 0
0, 0
0, 0
0, 0
0, 0
0, 0
0, 0
0, 0
0, 0
0, 0
0, 0
0, 0
0, 0
0, 0
0, 0
0, 0
0, 0
0, 0
0, 0
0, 0
0, 0
0, 0
0, 0
0, 0
0, 0
0, 0
0, 0
0, 0
0, 0
0, 0
0, 0
0, 0
0, 0
0, 0
0, 0
0, 0
0, 0
0, 0
0, 0
0, 0
0, 0
0, 0
0, 0
0, 0
0, 0
0, 0
0, 0
0, 0
0, 0
0, 0
0, 0
0, 0
0, 0
0, 0
0, 0
0, 0
0, 0
0, 0
0, 0
0, 0
0, 0
0, 0
0, 0
0, 0
0, 0
0, 0
0, 0
0, 0
0, 0
0, 0
0, 0
0, 0
0, 0
0, 0
0, 0
0, 0
0, 0
0, 0
0, 0
0, 0
0, 0
0, 0
0, 0
0, 0
0, 0
0, 0
0, 0
0, 0
0, 0
0, 0
0, 0
0, 0
0, 0
#ENDOFDATA     end of spectrum data