File: host_upload/02-11-2024/rqc/uplink1/ps__0567_0717304816_000rfs_shot_366.msa
#FORMAT      : EMSA/MAS spectral data file
#VERSION     : TC202v2.0 PIXL
#TITLE       : Novarupta (sol567) subset1
#DATE        : 02-11-2024      Date in the format DD-MMM-YYYY, for example 07-JUL-2010
#TIME        :             The time of day at which the spectrum was recorded, in 24-hour format
#OWNER       : PIXL Flight Model       (PIXL will use this to indicate which instrument took the data.)
#NPOINTS     : 4096     Number of data points in the spectrum (This can be zero for configuration only files)
#NCOLUMNS    : 2     Number of data columns in the spectrum (This can be zero for configuration only files)
#XUNITS      : eV
#YUNITS      : COUNTS
#DATATYPE    : YY
#XPERCHAN    : 7.862, 7.881   eV per channel (separate by commas if more than one detector)
#OFFSET      : 18.5, -22.4         eV of first channel  (separate by commas if more than one detector
#SIGNALTYPE  : XRF
#YP_TEMP     : 1.658
#LIVETIME    : 8.81859, 8.81545   seconds (separate by commas if more than one detector)
#REALTIME    : 10, 10.0   seconds (separate by commas if more than one detector)
#SPECTRUM    : start of spectrum data
0, 0
0, 0
0, 0
0, 0
0, 0
0, 0
0, 0
3, 2
3, 2
2, 5
6, 1
10, 12
11, 20
22, 22
44, 47
102, 128
532, 549
99, 125
43, 40
26, 25
48, 62
303, 312
120, 123
83, 59
188, 245
109, 104
70, 62
33, 21
15, 10
9, 7
26, 32
13, 18
19, 22
209, 230
344, 346
59, 45
42, 36
51, 59
8, 16
12, 9
24, 24
68, 57
26, 36
13, 12
16, 18
16, 15
9, 18
10, 14
13, 14
30, 29
31, 33
12, 13
13, 13
32, 43
59, 35
18, 24
29, 32
394, 412
1692, 1811
1050, 951
108, 101
21, 26
36, 26
85, 103
282, 253
200, 131
30, 19
6, 12
16, 19
11, 4
10, 9
7, 9
8, 10
6, 9
4, 8
6, 6
6, 7
6, 9
8, 12
16, 13
11, 5
9, 9
6, 5
6, 7
8, 8
2, 6
6, 3
9, 7
5, 5
4, 5
3, 4
6, 4
4, 1
4, 3
11, 2
5, 2
8, 5
8, 3
5, 6
2, 3
1, 3
6, 2
2, 1
4, 4
0, 2
2, 0
2, 3
2, 5
3, 3
0, 2
5, 2
2, 2
4, 1
4, 2
2, 4
1, 1
4, 2
0, 3
2, 0
0, 1
1, 4
2, 0
1, 0
3, 2
2, 3
2, 2
0, 3
1, 0
4, 1
2, 0
3, 1
3, 1
1, 0
0, 2
0, 0
0, 0
0, 0
0, 0
2, 1
0, 2
0, 1
1, 1
0, 2
0, 0
0, 2
1, 1
0, 0
0, 0
0, 1
0, 2
0, 0
1, 1
0, 0
1, 0
0, 2
0, 0
0, 0
0, 0
0, 0
0, 1
0, 0
2, 0
0, 1
0, 0
1, 0
0, 0
0, 1
0, 0
0, 1
1, 0
0, 0
0, 0
0, 0
0, 0
0, 0
1, 1
0, 0
0, 0
0, 0
0, 0
0, 0
0, 0
0, 1
1, 1
1, 0
0, 0
0, 0
0, 0
0, 0
0, 0
0, 0
0, 0
0, 0
0, 0
0, 0
0, 0
0, 0
0, 1
0, 0
0, 0
0, 0
0, 0
0, 0
0, 0
0, 1
0, 0
0, 0
0, 0
0, 0
0, 0
0, 0
0, 0
0, 0
0, 1
0, 0
0, 0
0, 0
0, 0
0, 0
0, 0
0, 0
0, 0
0, 0
0, 0
0, 0
0, 0
0, 0
0, 0
0, 0
0, 0
0, 0
0, 0
0, 0
0, 0
0, 0
0, 0
0, 0
0, 0
0, 0
0, 0
0, 0
0, 0
0, 0
0, 0
0, 0
0, 0
0, 0
0, 0
0, 0
0, 0
0, 0
0, 0
0, 0
0, 0
0, 0
0, 0
0, 0
0, 0
0, 0
0, 0
0, 0
0, 0
0, 0
0, 0
0, 0
0, 0
0, 0
0, 0
0, 0
0, 0
0, 0
0, 0
0, 0
0, 0
0, 0
0, 0
0, 0
0, 0
0, 0
0, 0
0, 0
0, 0
0, 0
0, 0
0, 0
0, 0
0, 0
0, 0
0, 0
0, 0
0, 0
0, 0
0, 0
0, 0
#ENDOFDATA     end of spectrum data