File: host_upload/02-11-2024/rqc/uplink1/ps__0567_0717304816_000rfs_shot_181.msa
#FORMAT      : EMSA/MAS spectral data file
#VERSION     : TC202v2.0 PIXL
#TITLE       : Novarupta (sol567) subset1
#DATE        : 02-11-2024      Date in the format DD-MMM-YYYY, for example 07-JUL-2010
#TIME        :             The time of day at which the spectrum was recorded, in 24-hour format
#OWNER       : PIXL Flight Model       (PIXL will use this to indicate which instrument took the data.)
#NPOINTS     : 4096     Number of data points in the spectrum (This can be zero for configuration only files)
#NCOLUMNS    : 2     Number of data columns in the spectrum (This can be zero for configuration only files)
#XUNITS      : eV
#YUNITS      : COUNTS
#DATATYPE    : YY
#XPERCHAN    : 7.862, 7.881   eV per channel (separate by commas if more than one detector)
#OFFSET      : 18.5, -22.4         eV of first channel  (separate by commas if more than one detector
#SIGNALTYPE  : XRF
#YP_TEMP     : 0.375
#LIVETIME    : 8.82591, 8.82081   seconds (separate by commas if more than one detector)
#REALTIME    : 10, 10.0   seconds (separate by commas if more than one detector)
#SPECTRUM    : start of spectrum data
0, 0
0, 0
0, 0
0, 0
0, 0
0, 0
0, 0
1, 1
1, 3
5, 6
6, 6
8, 13
9, 17
27, 24
39, 44
109, 136
521, 515
139, 135
32, 33
29, 23
69, 65
313, 334
130, 138
84, 89
237, 255
114, 129
75, 87
33, 32
7, 10
9, 19
26, 42
13, 18
26, 28
202, 243
344, 350
44, 44
37, 46
43, 51
10, 7
11, 9
16, 24
63, 60
32, 30
18, 14
16, 25
16, 18
10, 14
11, 16
10, 21
27, 31
26, 30
13, 11
15, 10
36, 31
42, 57
25, 14
41, 39
359, 485
1604, 1791
1060, 991
136, 81
21, 13
20, 27
91, 91
276, 290
191, 154
24, 27
10, 6
7, 11
9, 9
6, 6
8, 5
8, 7
6, 7
7, 8
7, 7
5, 4
6, 9
12, 10
12, 17
11, 6
9, 2
5, 5
9, 8
6, 6
6, 7
6, 4
2, 8
6, 6
9, 10
4, 8
1, 2
5, 4
4, 5
3, 3
3, 3
2, 6
2, 3
2, 3
4, 2
2, 1
2, 0
0, 1
4, 3
3, 4
2, 1
2, 2
3, 3
1, 2
2, 0
0, 1
1, 4
0, 1
3, 2
3, 2
1, 1
0, 4
4, 2
1, 2
4, 3
1, 1
2, 0
2, 3
1, 0
1, 1
4, 1
0, 0
1, 1
2, 0
0, 2
1, 2
0, 0
0, 1
0, 0
2, 1
1, 0
0, 0
0, 1
1, 1
0, 0
0, 0
1, 0
1, 1
1, 0
1, 0
0, 0
1, 1
0, 1
0, 0
0, 0
0, 0
0, 1
1, 0
0, 0
0, 0
0, 1
0, 0
0, 0
0, 1
0, 0
0, 0
1, 1
0, 0
1, 1
0, 0
0, 0
0, 0
0, 0
0, 2
1, 0
0, 1
0, 0
0, 0
0, 0
0, 0
0, 0
0, 0
0, 0
0, 0
0, 0
0, 0
0, 0
0, 0
0, 0
0, 0
0, 0
0, 0
0, 0
1, 1
0, 0
0, 0
0, 0
0, 0
0, 0
0, 0
0, 0
0, 0
0, 0
1, 0
0, 0
0, 0
0, 0
0, 0
0, 0
0, 0
0, 0
0, 0
0, 0
0, 0
0, 0
0, 0
0, 0
0, 0
0, 0
0, 0
0, 0
0, 0
0, 0
0, 0
0, 0
0, 0
0, 0
0, 0
0, 0
0, 0
0, 0
0, 0
0, 0
0, 0
0, 0
0, 0
0, 0
0, 0
0, 0
0, 0
0, 0
0, 0
0, 0
0, 0
0, 0
0, 0
0, 0
0, 0
0, 0
0, 0
0, 0
0, 0
0, 0
0, 0
0, 0
0, 0
0, 0
0, 0
0, 0
0, 0
0, 0
0, 0
0, 0
0, 0
0, 0
0, 0
0, 0
0, 0
0, 0
0, 0
0, 0
0, 0
0, 0
0, 0
0, 0
0, 0
0, 0
0, 0
0, 0
0, 0
0, 0
0, 0
0, 0
0, 0
0, 0
0, 0
0, 0
0, 0
0, 0
0, 0
0, 0
0, 0
0, 0
0, 0
0, 0
0, 0
0, 0
0, 0
0, 0
#ENDOFDATA     end of spectrum data