File: host_upload/02-11-2024/rqc/uplink1/ps__0567_0717304816_000rfs_shot_389.msa
#FORMAT      : EMSA/MAS spectral data file
#VERSION     : TC202v2.0 PIXL
#TITLE       : Novarupta (sol567) subset1
#DATE        : 02-11-2024      Date in the format DD-MMM-YYYY, for example 07-JUL-2010
#TIME        :             The time of day at which the spectrum was recorded, in 24-hour format
#OWNER       : PIXL Flight Model       (PIXL will use this to indicate which instrument took the data.)
#NPOINTS     : 4096     Number of data points in the spectrum (This can be zero for configuration only files)
#NCOLUMNS    : 2     Number of data columns in the spectrum (This can be zero for configuration only files)
#XUNITS      : eV
#YUNITS      : COUNTS
#DATATYPE    : YY
#XPERCHAN    : 7.862, 7.881   eV per channel (separate by commas if more than one detector)
#OFFSET      : 18.5, -22.4         eV of first channel  (separate by commas if more than one detector
#SIGNALTYPE  : XRF
#YP_TEMP     : 1.722
#LIVETIME    : 8.83593, 8.80173   seconds (separate by commas if more than one detector)
#REALTIME    : 10, 10.0   seconds (separate by commas if more than one detector)
#SPECTRUM    : start of spectrum data
0, 0
0, 0
0, 0
0, 0
0, 0
0, 0
0, 0
2, 0
4, 5
4, 1
2, 1
17, 10
9, 19
33, 31
47, 54
106, 130
495, 537
119, 128
36, 31
30, 33
42, 64
309, 354
93, 110
79, 77
271, 251
107, 117
76, 73
30, 28
5, 9
17, 11
24, 33
18, 24
14, 18
209, 257
319, 343
45, 47
46, 52
57, 52
11, 13
10, 12
15, 28
68, 93
39, 48
18, 24
13, 17
21, 20
23, 14
7, 12
13, 25
31, 33
22, 31
11, 14
16, 11
30, 26
48, 48
23, 21
21, 38
316, 436
1569, 1821
1034, 1060
132, 99
15, 19
22, 24
78, 116
240, 278
156, 143
22, 15
6, 14
11, 15
14, 17
12, 8
8, 5
9, 8
11, 8
8, 10
8, 11
4, 5
6, 10
12, 10
11, 14
7, 6
4, 7
7, 7
3, 3
8, 6
3, 5
6, 8
2, 7
3, 6
6, 4
5, 2
3, 5
6, 6
3, 6
4, 6
0, 5
2, 5
4, 4
8, 5
2, 3
4, 1
5, 3
4, 2
6, 2
5, 5
3, 0
2, 7
2, 2
2, 3
3, 1
0, 2
2, 2
3, 0
1, 1
2, 2
5, 6
1, 3
2, 1
2, 2
4, 0
2, 2
1, 3
1, 0
0, 1
1, 0
0, 3
1, 0
1, 2
2, 0
0, 1
1, 0
1, 1
0, 2
1, 0
1, 0
0, 0
0, 0
2, 0
0, 0
0, 0
1, 1
1, 1
1, 1
2, 1
0, 0
1, 1
0, 1
0, 0
2, 0
1, 0
0, 1
0, 0
1, 1
0, 1
0, 0
0, 0
1, 0
0, 0
0, 0
0, 0
0, 0
0, 0
0, 1
2, 0
0, 0
0, 0
0, 0
0, 0
0, 1
1, 0
0, 0
0, 0
0, 0
0, 0
0, 0
0, 0
0, 0
1, 0
0, 0
0, 0
0, 0
0, 2
0, 1
1, 0
0, 0
0, 0
0, 0
0, 0
0, 0
0, 0
1, 1
0, 0
0, 0
0, 0
0, 0
0, 0
0, 0
0, 0
0, 0
0, 0
0, 0
0, 0
0, 0
0, 0
0, 0
0, 0
0, 0
0, 0
0, 0
0, 0
0, 0
0, 0
0, 0
0, 0
0, 0
0, 0
0, 0
0, 0
0, 0
0, 0
0, 0
0, 0
0, 0
0, 0
0, 0
0, 0
0, 0
0, 0
0, 0
0, 0
0, 0
0, 0
0, 0
0, 0
0, 0
0, 0
0, 0
0, 0
0, 0
0, 0
0, 0
0, 0
0, 0
0, 0
0, 0
0, 0
0, 0
0, 0
0, 0
0, 0
0, 0
0, 0
0, 0
0, 0
0, 0
0, 0
0, 0
0, 0
0, 0
0, 0
0, 0
0, 0
0, 0
0, 0
0, 0
0, 0
0, 0
0, 0
0, 0
0, 0
0, 0
0, 0
0, 0
0, 0
0, 0
0, 0
0, 0
0, 0
0, 0
0, 0
0, 0
0, 0
0, 0
0, 0
0, 0
0, 0
0, 0
0, 0
0, 0
0, 0
0, 0
0, 0
0, 0
0, 0
#ENDOFDATA     end of spectrum data