File: host_upload/02-11-2024/rqc/uplink1/ps__0567_0717304816_000rfs_shot_324.msa
#FORMAT      : EMSA/MAS spectral data file
#VERSION     : TC202v2.0 PIXL
#TITLE       : Novarupta (sol567) subset1
#DATE        : 02-11-2024      Date in the format DD-MMM-YYYY, for example 07-JUL-2010
#TIME        :             The time of day at which the spectrum was recorded, in 24-hour format
#OWNER       : PIXL Flight Model       (PIXL will use this to indicate which instrument took the data.)
#NPOINTS     : 4096     Number of data points in the spectrum (This can be zero for configuration only files)
#NCOLUMNS    : 2     Number of data columns in the spectrum (This can be zero for configuration only files)
#XUNITS      : eV
#YUNITS      : COUNTS
#DATATYPE    : YY
#XPERCHAN    : 7.862, 7.881   eV per channel (separate by commas if more than one detector)
#OFFSET      : 18.5, -22.4         eV of first channel  (separate by commas if more than one detector
#SIGNALTYPE  : XRF
#YP_TEMP     : 1.434
#LIVETIME    : 8.82262, 8.81613   seconds (separate by commas if more than one detector)
#REALTIME    : 10, 10.0   seconds (separate by commas if more than one detector)
#SPECTRUM    : start of spectrum data
0, 0
0, 0
0, 0
0, 0
0, 0
0, 0
0, 0
0, 1
2, 3
3, 4
2, 2
8, 11
14, 18
28, 16
43, 37
105, 119
490, 517
129, 115
31, 30
28, 18
61, 56
302, 302
116, 98
52, 66
200, 187
95, 94
67, 72
31, 33
8, 12
9, 14
24, 31
18, 17
12, 20
200, 220
314, 357
47, 45
38, 33
50, 46
12, 9
11, 14
17, 19
64, 44
32, 30
13, 16
12, 14
17, 18
23, 10
7, 6
16, 10
31, 27
28, 18
14, 17
16, 18
38, 28
47, 32
18, 20
31, 28
372, 452
1646, 1769
1163, 983
126, 98
11, 20
20, 22
72, 96
253, 261
171, 127
28, 15
7, 8
12, 13
13, 13
5, 3
9, 8
4, 8
4, 5
5, 9
12, 9
9, 5
4, 9
11, 9
10, 8
4, 5
3, 5
5, 6
5, 8
6, 3
5, 1
5, 5
7, 4
1, 2
3, 4
4, 6
4, 7
3, 4
2, 2
2, 3
5, 3
3, 4
11, 2
3, 1
1, 1
5, 6
2, 1
3, 2
6, 1
4, 6
0, 6
0, 2
3, 5
3, 2
0, 2
2, 3
4, 1
4, 2
3, 0
2, 1
2, 1
3, 2
3, 2
3, 0
3, 1
0, 1
3, 1
1, 0
1, 0
1, 0
2, 0
1, 2
1, 1
0, 1
1, 0
1, 0
1, 0
0, 0
0, 0
2, 1
1, 0
2, 0
1, 0
1, 3
0, 1
1, 0
2, 0
0, 0
2, 0
1, 2
1, 0
0, 0
0, 1
0, 0
1, 0
0, 0
0, 0
0, 0
2, 0
1, 2
0, 1
0, 0
1, 0
0, 1
0, 0
0, 0
1, 0
0, 0
1, 0
1, 1
0, 0
0, 0
0, 0
0, 0
1, 0
0, 2
1, 0
2, 0
0, 0
1, 1
0, 0
0, 1
0, 1
1, 0
0, 0
0, 0
0, 0
0, 0
0, 0
0, 0
0, 0
1, 0
0, 0
0, 0
0, 1
0, 0
0, 0
1, 0
1, 0
0, 0
0, 0
0, 0
0, 0
0, 0
0, 0
0, 0
0, 0
0, 0
0, 0
0, 0
0, 0
0, 0
1, 0
0, 1
0, 0
0, 0
0, 0
0, 0
0, 0
0, 0
0, 0
0, 0
0, 0
0, 0
0, 0
0, 0
0, 0
0, 0
0, 0
0, 0
0, 0
0, 0
0, 0
0, 0
0, 0
0, 0
0, 0
0, 0
0, 0
0, 0
0, 0
0, 0
0, 0
0, 0
0, 0
0, 0
0, 0
0, 0
0, 0
0, 0
0, 0
0, 0
0, 0
0, 0
1, 0
0, 0
0, 0
0, 0
0, 0
0, 0
0, 0
0, 0
0, 0
0, 0
0, 0
0, 0
0, 0
0, 0
0, 0
0, 0
0, 0
0, 0
0, 0
0, 0
0, 0
0, 0
0, 0
0, 0
0, 0
0, 0
0, 0
0, 0
0, 0
0, 0
0, 0
0, 0
0, 0
0, 0
0, 0
0, 0
0, 0
0, 0
0, 0
0, 0
0, 0
0, 0
0, 0
0, 0
0, 0
#ENDOFDATA     end of spectrum data