File: host_upload/02-11-2024/rqc/uplink1/ps__0567_0717304816_000rfs_shot_320.msa
#FORMAT      : EMSA/MAS spectral data file
#VERSION     : TC202v2.0 PIXL
#TITLE       : Novarupta (sol567) subset1
#DATE        : 02-11-2024      Date in the format DD-MMM-YYYY, for example 07-JUL-2010
#TIME        :             The time of day at which the spectrum was recorded, in 24-hour format
#OWNER       : PIXL Flight Model       (PIXL will use this to indicate which instrument took the data.)
#NPOINTS     : 4096     Number of data points in the spectrum (This can be zero for configuration only files)
#NCOLUMNS    : 2     Number of data columns in the spectrum (This can be zero for configuration only files)
#XUNITS      : eV
#YUNITS      : COUNTS
#DATATYPE    : YY
#XPERCHAN    : 7.862, 7.881   eV per channel (separate by commas if more than one detector)
#OFFSET      : 18.5, -22.4         eV of first channel  (separate by commas if more than one detector
#SIGNALTYPE  : XRF
#YP_TEMP     : 1.594
#LIVETIME    : 8.84642, 8.82517   seconds (separate by commas if more than one detector)
#REALTIME    : 10, 10.0   seconds (separate by commas if more than one detector)
#SPECTRUM    : start of spectrum data
0, 0
0, 0
0, 0
0, 0
0, 0
0, 0
0, 0
0, 0
0, 2
4, 7
4, 5
13, 9
17, 6
22, 33
46, 56
101, 114
466, 541
123, 92
22, 35
22, 24
42, 46
249, 255
91, 91
61, 68
201, 211
118, 94
66, 65
28, 35
9, 12
12, 10
33, 28
4, 17
20, 16
206, 228
302, 342
49, 59
28, 42
40, 42
21, 17
7, 8
21, 21
51, 58
32, 40
12, 22
16, 17
17, 11
11, 5
11, 7
14, 18
21, 18
25, 23
7, 13
18, 8
32, 44
48, 44
23, 20
27, 33
336, 405
1541, 1752
981, 998
128, 111
15, 16
19, 16
77, 96
235, 242
164, 136
24, 24
12, 14
14, 9
13, 5
3, 2
10, 6
5, 4
5, 4
10, 6
7, 7
6, 6
11, 4
9, 13
9, 9
6, 7
6, 2
9, 4
6, 4
4, 2
4, 3
2, 15
6, 4
6, 3
4, 4
5, 4
2, 2
5, 7
3, 4
4, 4
3, 7
3, 3
3, 2
0, 6
5, 6
3, 1
3, 3
4, 3
5, 3
3, 3
4, 0
2, 2
1, 2
7, 1
2, 2
3, 3
1, 2
1, 0
3, 2
1, 2
1, 2
4, 2
5, 1
0, 0
2, 1
0, 0
1, 0
1, 1
1, 0
0, 1
1, 0
1, 3
1, 2
0, 1
3, 2
1, 0
1, 1
1, 1
2, 0
0, 2
1, 0
0, 0
0, 0
1, 0
0, 1
1, 1
0, 0
1, 0
0, 0
0, 1
0, 1
0, 1
0, 0
0, 0
1, 0
1, 0
1, 0
0, 1
0, 0
0, 0
1, 0
0, 0
0, 0
0, 0
0, 0
1, 0
0, 0
0, 0
0, 0
0, 0
2, 0
0, 0
0, 0
0, 1
0, 0
0, 1
0, 0
0, 1
1, 0
0, 0
0, 0
0, 1
0, 0
0, 0
1, 0
0, 0
0, 0
0, 1
0, 0
0, 0
1, 0
0, 0
0, 0
0, 0
0, 0
0, 0
0, 0
0, 0
1, 0
0, 0
0, 0
0, 0
0, 0
0, 0
0, 0
0, 0
0, 0
0, 0
0, 0
0, 0
1, 1
0, 0
0, 0
0, 0
0, 0
0, 0
0, 0
0, 0
0, 0
0, 0
1, 0
0, 0
0, 0
0, 0
0, 0
0, 0
0, 0
0, 0
0, 1
0, 0
0, 0
0, 0
0, 0
0, 0
0, 0
0, 0
0, 0
0, 0
0, 0
0, 0
0, 0
0, 0
0, 0
0, 0
0, 0
0, 0
0, 0
0, 0
0, 0
0, 0
0, 0
0, 0
0, 0
0, 0
0, 0
0, 0
0, 0
0, 0
0, 0
0, 0
0, 0
0, 0
0, 0
0, 0
0, 0
0, 0
0, 0
0, 0
0, 0
0, 0
0, 0
0, 0
0, 0
0, 0
0, 0
0, 0
0, 0
0, 0
0, 0
0, 0
0, 0
0, 0
0, 0
0, 0
0, 0
0, 0
0, 0
0, 0
0, 0
0, 0
0, 0
0, 0
0, 0
0, 0
0, 0
0, 0
0, 0
0, 0
0, 0
#ENDOFDATA     end of spectrum data