File: host_upload/02-11-2024/rqc/uplink1/ps__0567_0717304816_000rfs_shot_289.msa
#FORMAT      : EMSA/MAS spectral data file
#VERSION     : TC202v2.0 PIXL
#TITLE       : Novarupta (sol567) subset1
#DATE        : 02-11-2024      Date in the format DD-MMM-YYYY, for example 07-JUL-2010
#TIME        :             The time of day at which the spectrum was recorded, in 24-hour format
#OWNER       : PIXL Flight Model       (PIXL will use this to indicate which instrument took the data.)
#NPOINTS     : 4096     Number of data points in the spectrum (This can be zero for configuration only files)
#NCOLUMNS    : 2     Number of data columns in the spectrum (This can be zero for configuration only files)
#XUNITS      : eV
#YUNITS      : COUNTS
#DATATYPE    : YY
#XPERCHAN    : 7.862, 7.881   eV per channel (separate by commas if more than one detector)
#OFFSET      : 18.5, -22.4         eV of first channel  (separate by commas if more than one detector
#SIGNALTYPE  : XRF
#YP_TEMP     : 1.273
#LIVETIME    : 8.82221, 8.8167   seconds (separate by commas if more than one detector)
#REALTIME    : 10, 10.0   seconds (separate by commas if more than one detector)
#SPECTRUM    : start of spectrum data
0, 0
0, 0
0, 0
0, 0
0, 0
0, 0
0, 0
1, 1
2, 2
2, 5
1, 4
7, 8
16, 8
25, 21
51, 53
125, 87
495, 547
129, 125
20, 29
23, 21
52, 60
320, 313
114, 123
78, 92
229, 225
116, 116
76, 69
23, 32
4, 10
4, 6
22, 28
18, 11
15, 13
215, 242
374, 390
65, 57
29, 60
48, 48
9, 13
13, 16
40, 22
60, 60
38, 43
14, 13
12, 13
21, 17
17, 5
10, 14
6, 13
21, 26
21, 23
15, 15
10, 16
25, 34
45, 43
28, 28
31, 46
387, 452
1700, 1792
1143, 981
137, 108
26, 22
25, 33
99, 103
286, 283
184, 145
34, 22
14, 2
15, 11
9, 12
5, 9
7, 7
5, 4
9, 8
9, 7
8, 7
5, 3
5, 8
6, 11
15, 8
10, 8
2, 7
5, 9
10, 9
1, 3
9, 7
7, 3
6, 3
4, 5
2, 1
3, 4
4, 4
4, 4
4, 6
1, 2
3, 4
5, 6
7, 2
0, 6
5, 1
7, 5
6, 5
1, 1
4, 4
2, 2
2, 1
3, 2
2, 2
2, 4
3, 3
5, 3
1, 0
2, 2
0, 2
1, 1
2, 3
3, 4
2, 1
3, 2
2, 0
3, 1
2, 2
1, 1
1, 0
0, 1
1, 1
3, 0
2, 0
1, 1
1, 0
0, 3
0, 0
2, 2
0, 0
2, 0
2, 2
3, 0
1, 2
1, 1
3, 2
2, 1
2, 0
1, 1
0, 0
1, 1
1, 0
0, 0
1, 0
1, 2
0, 1
0, 1
1, 1
0, 2
0, 1
0, 0
0, 0
0, 0
2, 0
0, 0
1, 0
1, 0
0, 0
0, 0
0, 1
0, 0
0, 0
0, 0
0, 1
0, 0
1, 0
0, 0
0, 0
0, 1
0, 0
0, 0
0, 1
0, 0
0, 1
0, 0
0, 1
0, 0
0, 0
0, 0
0, 0
0, 0
0, 0
0, 0
0, 0
0, 0
0, 0
0, 0
0, 0
1, 0
0, 0
0, 0
0, 0
0, 0
0, 0
0, 1
0, 0
0, 1
0, 1
0, 0
0, 0
0, 0
0, 0
0, 0
0, 0
0, 0
0, 0
0, 0
0, 0
0, 0
0, 0
0, 0
0, 0
0, 0
0, 0
0, 0
0, 0
0, 0
0, 0
0, 0
0, 0
0, 0
0, 0
0, 0
0, 0
0, 0
0, 0
0, 0
0, 0
0, 0
0, 0
0, 0
0, 0
0, 0
0, 0
0, 0
0, 0
0, 0
0, 0
0, 0
0, 0
0, 0
0, 0
0, 0
0, 0
0, 0
0, 0
0, 0
0, 0
0, 0
0, 0
0, 0
0, 0
0, 0
0, 0
0, 0
0, 0
0, 0
0, 0
0, 0
0, 0
0, 0
0, 0
0, 0
0, 0
0, 0
0, 0
0, 0
0, 0
0, 0
0, 0
0, 0
0, 0
0, 0
0, 0
0, 0
0, 0
0, 0
0, 0
0, 0
0, 0
0, 0
0, 0
0, 0
0, 0
0, 0
0, 0
0, 0
0, 0
0, 0
0, 0
#ENDOFDATA     end of spectrum data