File: host_upload/02-11-2024/rqc/uplink1/ps__0567_0717304816_000rfs_shot_210.msa
#FORMAT      : EMSA/MAS spectral data file
#VERSION     : TC202v2.0 PIXL
#TITLE       : Novarupta (sol567) subset1
#DATE        : 02-11-2024      Date in the format DD-MMM-YYYY, for example 07-JUL-2010
#TIME        :             The time of day at which the spectrum was recorded, in 24-hour format
#OWNER       : PIXL Flight Model       (PIXL will use this to indicate which instrument took the data.)
#NPOINTS     : 4096     Number of data points in the spectrum (This can be zero for configuration only files)
#NCOLUMNS    : 2     Number of data columns in the spectrum (This can be zero for configuration only files)
#XUNITS      : eV
#YUNITS      : COUNTS
#DATATYPE    : YY
#XPERCHAN    : 7.862, 7.881   eV per channel (separate by commas if more than one detector)
#OFFSET      : 18.5, -22.4         eV of first channel  (separate by commas if more than one detector
#SIGNALTYPE  : XRF
#YP_TEMP     : 0.792
#LIVETIME    : 8.82919, 8.82479   seconds (separate by commas if more than one detector)
#REALTIME    : 10, 10.0   seconds (separate by commas if more than one detector)
#SPECTRUM    : start of spectrum data
0, 0
0, 0
0, 0
0, 0
0, 0
0, 0
0, 0
0, 0
4, 7
2, 6
1, 3
12, 9
10, 10
23, 33
40, 41
97, 125
462, 438
113, 101
36, 34
21, 24
64, 63
373, 363
132, 133
70, 76
212, 185
102, 122
58, 65
25, 28
9, 7
6, 5
25, 28
16, 13
18, 16
179, 234
321, 304
58, 50
42, 39
34, 44
10, 13
8, 11
18, 22
58, 56
29, 26
14, 13
16, 15
18, 16
11, 8
12, 11
14, 22
31, 26
26, 20
15, 15
13, 13
40, 40
48, 51
22, 20
33, 52
427, 440
1714, 1746
1120, 949
112, 106
23, 13
24, 20
90, 89
241, 253
153, 144
25, 16
6, 9
15, 9
11, 9
7, 5
10, 3
5, 6
9, 2
6, 4
12, 8
13, 7
0, 5
17, 6
7, 7
9, 4
6, 9
6, 5
2, 2
5, 4
6, 7
6, 6
4, 5
9, 4
3, 5
3, 4
5, 4
2, 10
3, 5
4, 3
2, 6
6, 2
2, 2
3, 3
2, 4
2, 1
2, 2
2, 2
1, 4
1, 5
3, 1
1, 2
3, 4
2, 2
3, 5
1, 2
2, 1
4, 1
2, 0
5, 3
1, 1
5, 6
2, 1
2, 0
1, 1
1, 0
0, 1
1, 4
0, 2
0, 0
1, 1
3, 1
0, 1
3, 1
1, 0
1, 2
1, 0
1, 0
2, 1
0, 1
0, 1
1, 2
1, 1
0, 0
0, 0
0, 0
0, 1
1, 0
0, 1
0, 0
0, 0
1, 0
0, 0
0, 0
1, 1
0, 0
0, 0
1, 0
0, 0
1, 1
1, 0
0, 1
1, 0
1, 0
0, 0
0, 0
0, 1
1, 0
1, 0
0, 0
0, 0
0, 0
0, 0
0, 0
0, 0
0, 0
0, 0
0, 1
0, 0
1, 0
0, 0
0, 0
1, 0
0, 0
0, 0
0, 0
0, 0
1, 0
1, 2
0, 1
0, 0
0, 0
1, 0
0, 0
0, 0
0, 0
0, 0
0, 0
0, 0
0, 0
0, 0
0, 0
1, 0
0, 0
0, 0
0, 0
0, 0
0, 0
0, 0
0, 0
0, 0
0, 0
0, 0
0, 0
0, 0
0, 0
0, 0
0, 0
0, 0
0, 0
0, 0
0, 0
0, 0
0, 0
0, 0
0, 0
0, 0
0, 0
0, 0
0, 0
0, 0
0, 0
0, 0
0, 0
0, 0
0, 0
0, 0
0, 0
0, 0
0, 0
0, 0
0, 0
0, 0
0, 0
0, 0
0, 0
0, 0
0, 0
0, 0
0, 0
0, 0
0, 0
0, 0
0, 0
0, 0
0, 0
0, 0
0, 0
0, 0
0, 0
0, 0
0, 0
0, 0
0, 0
0, 0
0, 0
0, 0
0, 0
0, 0
0, 0
0, 0
0, 0
0, 0
0, 0
0, 0
0, 0
0, 0
0, 0
0, 0
0, 0
0, 0
0, 0
0, 0
0, 0
0, 0
0, 0
0, 0
0, 0
0, 0
0, 0
0, 0
0, 0
0, 0
0, 0
0, 0
0, 0
0, 0
0, 0
0, 0
#ENDOFDATA     end of spectrum data