File: host_upload/02-11-2024/rqc/uplink1/ps__0567_0717304816_000rfs_shot_9.msa
#FORMAT      : EMSA/MAS spectral data file
#VERSION     : TC202v2.0 PIXL
#TITLE       : Novarupta (sol567) subset1
#DATE        : 02-11-2024      Date in the format DD-MMM-YYYY, for example 07-JUL-2010
#TIME        :             The time of day at which the spectrum was recorded, in 24-hour format
#OWNER       : PIXL Flight Model       (PIXL will use this to indicate which instrument took the data.)
#NPOINTS     : 4096     Number of data points in the spectrum (This can be zero for configuration only files)
#NCOLUMNS    : 2     Number of data columns in the spectrum (This can be zero for configuration only files)
#XUNITS      : eV
#YUNITS      : COUNTS
#DATATYPE    : YY
#XPERCHAN    : 7.862, 7.881   eV per channel (separate by commas if more than one detector)
#OFFSET      : 18.5, -22.4         eV of first channel  (separate by commas if more than one detector
#SIGNALTYPE  : XRF
#YP_TEMP     : -4.275
#LIVETIME    : 8.84481, 8.64624   seconds (separate by commas if more than one detector)
#REALTIME    : 10, 10.0   seconds (separate by commas if more than one detector)
#SPECTRUM    : start of spectrum data
0, 0
0, 0
0, 0
0, 0
0, 0
0, 0
0, 0
0, 1
4, 6
2, 2
3, 4
6, 7
10, 13
26, 33
36, 43
131, 150
464, 453
106, 110
30, 30
24, 17
64, 92
262, 351
92, 99
82, 91
158, 240
120, 102
58, 50
30, 17
9, 13
17, 10
26, 19
16, 23
45, 37
238, 282
256, 287
44, 58
37, 58
38, 42
14, 7
9, 8
35, 31
56, 66
22, 33
15, 16
11, 16
23, 12
13, 16
12, 6
10, 18
24, 28
25, 27
15, 13
14, 20
42, 41
25, 47
23, 17
70, 64
700, 887
1577, 1771
667, 598
67, 45
11, 12
40, 39
146, 157
225, 280
88, 102
10, 12
10, 12
9, 10
6, 7
6, 6
7, 8
4, 7
7, 5
3, 9
13, 2
8, 7
7, 9
7, 9
12, 9
2, 11
9, 7
8, 6
4, 6
8, 5
2, 3
3, 2
4, 7
7, 5
6, 5
10, 6
4, 5
3, 3
3, 3
3, 2
0, 4
3, 3
4, 2
3, 4
3, 1
1, 3
1, 4
2, 1
3, 5
2, 1
2, 4
1, 1
3, 2
2, 2
3, 1
3, 1
0, 1
1, 2
0, 0
0, 3
3, 8
3, 1
1, 5
3, 0
3, 5
0, 0
2, 3
1, 1
0, 0
2, 0
1, 1
0, 1
1, 2
1, 1
0, 0
1, 1
2, 1
1, 1
0, 0
1, 1
0, 1
0, 0
0, 0
2, 1
0, 1
0, 1
0, 0
1, 0
0, 0
0, 0
2, 1
0, 0
0, 1
1, 0
1, 0
1, 0
1, 1
0, 0
1, 0
0, 0
0, 0
1, 1
0, 1
0, 0
0, 0
0, 0
0, 0
0, 0
0, 0
0, 0
0, 0
0, 0
0, 0
0, 0
0, 1
0, 0
0, 0
0, 1
0, 0
0, 0
1, 0
1, 0
0, 0
0, 0
0, 0
0, 0
0, 0
0, 0
0, 1
0, 0
0, 1
0, 0
0, 0
0, 0
0, 0
0, 0
0, 0
0, 0
0, 0
0, 0
0, 0
0, 0
0, 0
0, 0
0, 0
0, 0
0, 0
0, 0
0, 0
0, 0
0, 0
0, 0
0, 0
0, 0
0, 0
0, 0
0, 0
0, 0
0, 0
0, 0
0, 0
0, 0
0, 0
0, 0
0, 0
0, 0
0, 0
0, 0
0, 0
0, 0
0, 0
0, 0
0, 0
0, 0
0, 0
0, 0
0, 0
0, 0
0, 0
0, 0
0, 0
0, 0
0, 0
0, 0
0, 0
0, 0
0, 0
0, 0
0, 0
0, 0
0, 0
0, 0
0, 0
0, 0
0, 0
0, 0
0, 0
0, 0
0, 0
0, 0
0, 0
0, 0
0, 0
0, 0
0, 0
0, 0
0, 0
0, 0
0, 0
0, 0
0, 0
0, 0
0, 0
0, 0
0, 0
0, 0
0, 0
0, 0
0, 0
0, 0
0, 0
0, 0
0, 0
0, 0
0, 0
0, 0
0, 0
0, 0
0, 0
0, 0
0, 0
0, 0
0, 0
0, 0
0, 0
0, 0
0, 0
0, 0
0, 0
#ENDOFDATA     end of spectrum data