File: host_upload/02-11-2024/rqc/uplink1/ps__0567_0717304816_000rfs_shot_479.msa
#FORMAT      : EMSA/MAS spectral data file
#VERSION     : TC202v2.0 PIXL
#TITLE       : Novarupta (sol567) subset1
#DATE        : 02-11-2024      Date in the format DD-MMM-YYYY, for example 07-JUL-2010
#TIME        :             The time of day at which the spectrum was recorded, in 24-hour format
#OWNER       : PIXL Flight Model       (PIXL will use this to indicate which instrument took the data.)
#NPOINTS     : 4096     Number of data points in the spectrum (This can be zero for configuration only files)
#NCOLUMNS    : 2     Number of data columns in the spectrum (This can be zero for configuration only files)
#XUNITS      : eV
#YUNITS      : COUNTS
#DATATYPE    : YY
#XPERCHAN    : 7.862, 7.881   eV per channel (separate by commas if more than one detector)
#OFFSET      : 18.5, -22.4         eV of first channel  (separate by commas if more than one detector
#SIGNALTYPE  : XRF
#YP_TEMP     : 1.979
#LIVETIME    : 8.83478, 8.81701   seconds (separate by commas if more than one detector)
#REALTIME    : 10, 10.0   seconds (separate by commas if more than one detector)
#SPECTRUM    : start of spectrum data
0, 0
0, 0
0, 0
0, 0
0, 0
0, 0
0, 0
0, 1
1, 4
3, 4
5, 1
11, 7
11, 12
13, 17
47, 36
108, 128
475, 550
115, 92
26, 30
28, 13
50, 60
293, 280
129, 103
65, 73
221, 208
131, 102
86, 74
30, 27
9, 13
6, 9
25, 43
14, 22
22, 31
195, 210
334, 334
54, 46
48, 35
49, 42
15, 12
9, 11
22, 18
49, 72
45, 29
19, 12
22, 10
18, 13
11, 12
7, 11
16, 21
36, 33
15, 27
9, 11
17, 17
36, 39
52, 53
12, 28
28, 41
336, 475
1619, 1834
1141, 1025
146, 102
15, 15
14, 27
69, 119
251, 297
171, 149
22, 21
4, 8
9, 15
10, 5
7, 6
6, 13
7, 4
3, 1
10, 8
11, 7
9, 6
8, 7
9, 10
6, 10
3, 5
5, 8
2, 5
4, 4
6, 4
6, 5
8, 4
4, 9
5, 4
6, 8
4, 3
3, 7
2, 3
4, 3
3, 5
7, 3
4, 6
1, 6
5, 2
3, 2
4, 1
5, 1
2, 3
3, 5
2, 4
2, 2
3, 4
7, 4
2, 2
4, 2
3, 3
1, 1
1, 1
4, 1
2, 3
0, 3
4, 3
2, 3
3, 2
1, 1
0, 0
0, 3
3, 3
2, 2
2, 1
0, 0
1, 1
0, 1
0, 2
0, 0
1, 0
3, 0
0, 2
0, 0
1, 2
1, 0
1, 1
1, 0
1, 1
0, 0
1, 0
0, 1
3, 0
0, 0
1, 1
1, 0
0, 0
0, 0
1, 2
0, 0
0, 1
0, 2
2, 0
0, 0
0, 0
2, 0
0, 0
1, 0
0, 0
0, 0
0, 0
2, 1
1, 1
0, 1
0, 0
0, 0
0, 1
0, 0
0, 0
0, 0
0, 0
0, 0
0, 0
0, 0
0, 0
0, 0
0, 0
0, 0
1, 1
0, 0
0, 0
0, 0
0, 0
0, 0
1, 0
0, 0
0, 0
0, 0
0, 0
0, 0
0, 0
0, 0
0, 0
0, 0
0, 0
0, 0
0, 0
0, 0
0, 0
0, 0
0, 0
0, 0
0, 0
0, 0
0, 0
0, 0
0, 0
0, 0
0, 0
0, 0
0, 0
0, 0
0, 0
0, 0
0, 0
0, 0
1, 0
0, 0
0, 0
0, 0
0, 0
0, 0
0, 0
0, 0
0, 0
0, 0
0, 0
0, 0
0, 0
0, 0
0, 0
0, 0
0, 0
0, 0
0, 0
0, 0
1, 0
0, 0
0, 0
0, 0
0, 0
0, 0
0, 0
0, 0
0, 0
0, 0
0, 0
0, 0
0, 0
0, 0
0, 0
0, 0
0, 0
0, 0
0, 0
0, 0
0, 0
0, 0
0, 0
0, 0
0, 0
0, 0
0, 0
0, 0
0, 0
0, 0
0, 0
0, 0
0, 0
0, 0
0, 0
0, 0
0, 0
0, 0
0, 0
0, 0
0, 0
0, 0
0, 0
0, 0
0, 0
0, 0
0, 0
0, 0
0, 0
0, 0
0, 0
0, 0
0, 0
0, 0
0, 0
0, 0
0, 0
0, 0
#ENDOFDATA     end of spectrum data