File: host_upload/02-11-2024/rqc/uplink1/ps__0567_0717304816_000rfs_shot_371.msa
#FORMAT      : EMSA/MAS spectral data file
#VERSION     : TC202v2.0 PIXL
#TITLE       : Novarupta (sol567) subset1
#DATE        : 02-11-2024      Date in the format DD-MMM-YYYY, for example 07-JUL-2010
#TIME        :             The time of day at which the spectrum was recorded, in 24-hour format
#OWNER       : PIXL Flight Model       (PIXL will use this to indicate which instrument took the data.)
#NPOINTS     : 4096     Number of data points in the spectrum (This can be zero for configuration only files)
#NCOLUMNS    : 2     Number of data columns in the spectrum (This can be zero for configuration only files)
#XUNITS      : eV
#YUNITS      : COUNTS
#DATATYPE    : YY
#XPERCHAN    : 7.862, 7.881   eV per channel (separate by commas if more than one detector)
#OFFSET      : 18.5, -22.4         eV of first channel  (separate by commas if more than one detector
#SIGNALTYPE  : XRF
#YP_TEMP     : 1.883
#LIVETIME    : 8.82413, 8.80765   seconds (separate by commas if more than one detector)
#REALTIME    : 10, 10.0   seconds (separate by commas if more than one detector)
#SPECTRUM    : start of spectrum data
0, 0
0, 0
0, 0
0, 0
0, 0
0, 0
0, 0
0, 0
2, 5
3, 1
4, 1
11, 13
10, 9
19, 23
36, 50
115, 145
440, 550
108, 101
28, 45
20, 25
64, 58
307, 397
128, 117
65, 78
199, 249
99, 118
63, 69
36, 33
3, 9
12, 10
29, 35
15, 19
19, 25
195, 259
332, 389
55, 64
36, 49
55, 55
14, 12
7, 15
13, 28
68, 76
38, 41
14, 13
16, 12
19, 19
14, 14
16, 13
15, 14
24, 38
27, 23
11, 16
13, 19
35, 40
38, 53
27, 35
29, 36
329, 500
1491, 1856
1056, 1067
116, 108
19, 20
12, 21
81, 98
253, 321
146, 158
19, 21
6, 8
9, 16
13, 6
4, 9
2, 5
6, 8
10, 6
4, 12
9, 8
9, 5
6, 4
7, 19
13, 9
6, 14
6, 2
3, 5
9, 7
6, 5
2, 8
6, 8
10, 10
5, 4
8, 6
9, 8
1, 3
5, 5
4, 2
2, 5
4, 3
3, 2
3, 3
4, 1
5, 6
2, 2
2, 6
2, 3
1, 4
6, 4
1, 2
4, 3
3, 3
2, 2
3, 5
2, 2
3, 2
3, 3
1, 0
4, 0
5, 3
5, 1
3, 4
1, 3
1, 2
1, 1
0, 5
5, 2
2, 0
0, 2
0, 1
1, 2
2, 0
3, 2
0, 2
1, 1
1, 0
2, 1
1, 2
1, 0
1, 1
0, 0
0, 1
0, 1
0, 2
0, 2
2, 0
0, 0
0, 0
0, 1
0, 0
0, 0
1, 0
0, 0
0, 2
0, 2
0, 0
1, 0
0, 0
0, 2
0, 0
1, 0
1, 0
1, 0
1, 1
0, 1
0, 0
0, 1
0, 0
2, 1
0, 0
0, 0
0, 0
0, 0
2, 1
0, 1
0, 0
0, 0
1, 0
0, 0
0, 0
0, 0
0, 0
0, 0
0, 0
0, 0
0, 0
0, 1
0, 1
1, 0
0, 0
0, 0
0, 0
0, 0
0, 0
0, 0
0, 0
0, 1
0, 0
1, 0
0, 0
0, 0
0, 0
0, 0
0, 0
0, 0
0, 0
0, 0
0, 0
0, 0
0, 0
0, 0
0, 0
0, 0
0, 0
0, 1
0, 0
0, 0
0, 0
0, 0
0, 0
0, 0
0, 0
0, 0
0, 0
0, 0
0, 0
0, 0
0, 0
0, 0
0, 0
0, 0
0, 0
0, 0
0, 0
0, 0
0, 0
0, 0
0, 0
0, 0
0, 0
0, 0
0, 0
0, 0
0, 0
0, 0
0, 0
0, 0
0, 0
0, 0
0, 0
0, 0
0, 0
0, 0
0, 0
0, 0
0, 0
0, 0
0, 0
0, 0
0, 0
0, 0
0, 0
0, 0
0, 0
0, 0
0, 0
0, 0
0, 0
0, 0
0, 0
0, 0
0, 0
0, 0
0, 0
0, 0
0, 0
0, 0
0, 0
0, 0
0, 0
0, 0
0, 0
0, 0
0, 0
0, 0
0, 0
0, 0
0, 0
0, 0
0, 0
0, 0
0, 0
0, 0
0, 0
0, 0
0, 0
0, 0
0, 0
#ENDOFDATA     end of spectrum data