File: host_upload/02-11-2024/rqc/uplink1/ps__0567_0717304816_000rfs_shot_264.msa
#FORMAT      : EMSA/MAS spectral data file
#VERSION     : TC202v2.0 PIXL
#TITLE       : Novarupta (sol567) subset1
#DATE        : 02-11-2024      Date in the format DD-MMM-YYYY, for example 07-JUL-2010
#TIME        :             The time of day at which the spectrum was recorded, in 24-hour format
#OWNER       : PIXL Flight Model       (PIXL will use this to indicate which instrument took the data.)
#NPOINTS     : 4096     Number of data points in the spectrum (This can be zero for configuration only files)
#NCOLUMNS    : 2     Number of data columns in the spectrum (This can be zero for configuration only files)
#XUNITS      : eV
#YUNITS      : COUNTS
#DATATYPE    : YY
#XPERCHAN    : 7.862, 7.881   eV per channel (separate by commas if more than one detector)
#OFFSET      : 18.5, -22.4         eV of first channel  (separate by commas if more than one detector
#SIGNALTYPE  : XRF
#YP_TEMP     : 1.337
#LIVETIME    : 8.8477, 8.64094   seconds (separate by commas if more than one detector)
#REALTIME    : 10, 10.0   seconds (separate by commas if more than one detector)
#SPECTRUM    : start of spectrum data
0, 0
0, 0
0, 0
0, 0
0, 0
0, 0
0, 0
0, 0
4, 2
2, 4
0, 2
14, 7
11, 11
19, 31
35, 51
105, 136
439, 582
106, 124
27, 34
19, 28
54, 74
264, 345
114, 120
66, 76
198, 268
109, 126
74, 71
27, 35
4, 6
5, 7
19, 29
17, 20
6, 19
168, 263
315, 378
43, 68
43, 48
49, 68
12, 10
12, 5
15, 33
45, 65
27, 43
14, 18
11, 11
23, 30
12, 15
14, 17
13, 14
26, 30
18, 28
10, 14
13, 16
27, 42
39, 46
27, 30
30, 48
339, 484
1530, 1883
983, 1018
122, 96
18, 16
16, 24
74, 117
231, 255
139, 143
23, 20
9, 12
13, 15
9, 5
6, 8
7, 4
3, 8
7, 6
6, 7
3, 9
4, 13
10, 8
8, 16
10, 11
8, 9
5, 10
6, 3
6, 9
7, 5
4, 6
4, 3
5, 9
4, 6
3, 4
1, 5
3, 5
3, 8
3, 2
6, 6
4, 2
5, 7
5, 3
3, 4
5, 3
3, 4
2, 4
4, 2
3, 3
2, 2
2, 4
4, 4
2, 5
3, 5
3, 5
1, 1
3, 2
5, 3
2, 2
1, 2
4, 2
1, 4
3, 1
0, 3
4, 1
3, 1
1, 5
1, 4
0, 0
0, 2
2, 3
1, 0
1, 1
0, 2
0, 1
2, 1
0, 1
0, 2
1, 0
0, 1
0, 1
1, 0
0, 0
0, 1
0, 1
1, 1
0, 0
0, 2
1, 1
0, 0
0, 0
0, 2
0, 0
0, 0
0, 1
1, 0
2, 0
0, 0
0, 0
0, 0
0, 0
0, 0
0, 0
0, 0
0, 2
1, 2
0, 0
0, 0
0, 0
0, 1
0, 0
0, 0
0, 0
0, 0
0, 0
0, 0
1, 0
0, 0
0, 0
0, 0
1, 0
0, 0
0, 0
0, 0
0, 0
0, 0
0, 0
0, 0
0, 0
1, 0
0, 1
0, 0
0, 0
0, 0
0, 0
0, 0
0, 0
0, 0
0, 0
0, 0
0, 0
0, 0
0, 0
0, 0
0, 0
0, 0
0, 0
0, 0
0, 0
0, 0
0, 0
0, 0
0, 0
0, 0
0, 0
0, 0
1, 0
0, 0
0, 0
0, 0
0, 0
0, 0
0, 0
0, 0
0, 0
0, 0
0, 0
0, 0
0, 0
0, 0
0, 0
0, 0
0, 0
0, 0
0, 0
0, 0
0, 0
0, 0
0, 0
0, 0
0, 0
0, 0
0, 0
0, 0
0, 0
0, 0
0, 0
0, 0
0, 0
0, 0
0, 0
0, 0
0, 0
0, 0
0, 0
0, 0
0, 0
0, 0
0, 0
0, 0
0, 0
0, 0
0, 0
0, 0
0, 0
0, 0
0, 0
0, 0
0, 0
0, 0
0, 0
0, 0
0, 0
0, 0
0, 0
0, 0
0, 0
0, 0
0, 0
0, 0
0, 0
0, 0
0, 0
0, 0
0, 0
0, 0
0, 0
0, 0
0, 0
0, 0
0, 0
0, 0
0, 0
0, 0
0, 0
0, 0
0, 0
0, 0
0, 0
#ENDOFDATA     end of spectrum data