File: host_upload/02-11-2024/rqc/uplink1/ps__0567_0717304816_000rfs_shot_485.msa
#FORMAT      : EMSA/MAS spectral data file
#VERSION     : TC202v2.0 PIXL
#TITLE       : Novarupta (sol567) subset1
#DATE        : 02-11-2024      Date in the format DD-MMM-YYYY, for example 07-JUL-2010
#TIME        :             The time of day at which the spectrum was recorded, in 24-hour format
#OWNER       : PIXL Flight Model       (PIXL will use this to indicate which instrument took the data.)
#NPOINTS     : 4096     Number of data points in the spectrum (This can be zero for configuration only files)
#NCOLUMNS    : 2     Number of data columns in the spectrum (This can be zero for configuration only files)
#XUNITS      : eV
#YUNITS      : COUNTS
#DATATYPE    : YY
#XPERCHAN    : 7.862, 7.881   eV per channel (separate by commas if more than one detector)
#OFFSET      : 18.5, -22.4         eV of first channel  (separate by commas if more than one detector
#SIGNALTYPE  : XRF
#YP_TEMP     : 2.267
#LIVETIME    : 8.83497, 8.80462   seconds (separate by commas if more than one detector)
#REALTIME    : 10, 10.0   seconds (separate by commas if more than one detector)
#SPECTRUM    : start of spectrum data
0, 0
0, 0
0, 0
0, 0
0, 0
0, 0
0, 0
0, 0
1, 5
3, 3
5, 3
11, 10
17, 17
21, 28
38, 39
100, 146
429, 576
106, 112
25, 45
30, 29
50, 58
306, 341
115, 114
50, 81
209, 269
123, 143
61, 70
26, 35
12, 9
10, 8
20, 30
25, 16
19, 19
179, 259
278, 351
58, 64
39, 60
55, 55
13, 14
5, 15
16, 19
66, 63
30, 29
14, 17
12, 18
18, 19
12, 9
16, 15
11, 20
31, 23
24, 25
10, 13
4, 15
34, 40
43, 72
30, 21
20, 32
316, 492
1541, 1865
1009, 1137
108, 122
20, 16
16, 19
71, 111
241, 298
149, 146
22, 21
12, 9
10, 8
9, 7
9, 13
5, 7
7, 6
7, 6
6, 6
7, 6
6, 9
9, 8
11, 14
12, 10
5, 8
5, 6
5, 3
5, 5
4, 9
6, 5
5, 8
11, 5
3, 4
3, 6
3, 4
3, 4
4, 2
4, 6
2, 6
6, 3
2, 3
5, 4
1, 4
2, 4
3, 2
1, 0
0, 2
1, 3
2, 3
2, 5
3, 1
3, 2
1, 4
3, 3
1, 4
3, 3
1, 4
1, 4
0, 2
1, 5
2, 3
1, 5
3, 1
0, 0
2, 2
0, 1
1, 1
4, 3
3, 2
0, 0
0, 3
1, 3
1, 1
2, 1
2, 3
1, 1
0, 0
1, 2
0, 2
1, 2
0, 2
1, 1
2, 3
0, 2
0, 1
2, 0
1, 1
0, 1
0, 1
2, 0
0, 2
1, 1
0, 0
1, 1
0, 2
1, 0
0, 1
0, 0
0, 1
0, 1
0, 1
0, 2
0, 0
1, 3
0, 0
0, 0
0, 0
0, 0
0, 0
0, 0
1, 0
0, 3
0, 1
1, 1
0, 2
0, 2
0, 1
1, 0
0, 0
0, 1
0, 0
0, 0
0, 0
0, 0
0, 0
1, 0
1, 0
0, 0
0, 0
0, 0
0, 1
0, 0
0, 0
0, 0
0, 0
1, 0
0, 0
0, 0
0, 0
1, 0
0, 0
0, 0
0, 0
1, 0
0, 1
0, 0
0, 0
0, 0
0, 0
0, 0
0, 0
1, 0
0, 0
0, 0
0, 0
0, 0
0, 0
0, 0
0, 0
0, 0
0, 0
0, 0
0, 0
0, 0
0, 0
0, 0
0, 0
0, 0
0, 0
0, 0
0, 0
0, 0
0, 0
0, 0
0, 0
0, 0
0, 0
0, 0
0, 0
0, 0
0, 0
0, 0
0, 0
0, 0
0, 0
0, 0
0, 0
0, 0
0, 0
0, 0
0, 0
0, 0
0, 0
0, 0
0, 0
0, 0
0, 0
0, 0
0, 0
0, 0
0, 0
0, 0
0, 0
0, 0
0, 0
0, 0
0, 0
0, 0
0, 0
0, 0
0, 0
0, 0
0, 0
0, 0
0, 0
0, 0
0, 0
0, 0
0, 0
0, 0
0, 0
0, 0
0, 0
0, 0
0, 0
0, 0
0, 0
0, 0
0, 0
0, 0
0, 0
0, 0
0, 0
0, 0
0, 0
0, 0
0, 0
0, 0
#ENDOFDATA     end of spectrum data