File: host_upload/02-11-2024/rqc/uplink1/ps__0567_0717304816_000rfs_shot_364.msa
#FORMAT      : EMSA/MAS spectral data file
#VERSION     : TC202v2.0 PIXL
#TITLE       : Novarupta (sol567) subset1
#DATE        : 02-11-2024      Date in the format DD-MMM-YYYY, for example 07-JUL-2010
#TIME        :             The time of day at which the spectrum was recorded, in 24-hour format
#OWNER       : PIXL Flight Model       (PIXL will use this to indicate which instrument took the data.)
#NPOINTS     : 4096     Number of data points in the spectrum (This can be zero for configuration only files)
#NCOLUMNS    : 2     Number of data columns in the spectrum (This can be zero for configuration only files)
#XUNITS      : eV
#YUNITS      : COUNTS
#DATATYPE    : YY
#XPERCHAN    : 7.862, 7.881   eV per channel (separate by commas if more than one detector)
#OFFSET      : 18.5, -22.4         eV of first channel  (separate by commas if more than one detector
#SIGNALTYPE  : XRF
#YP_TEMP     : 1.626
#LIVETIME    : 8.84805, 8.8109   seconds (separate by commas if more than one detector)
#REALTIME    : 10, 10.0   seconds (separate by commas if more than one detector)
#SPECTRUM    : start of spectrum data
0, 0
0, 0
0, 0
0, 0
0, 0
0, 0
1, 0
1, 0
6, 1
5, 2
4, 2
14, 12
8, 18
18, 18
51, 40
98, 131
498, 572
137, 127
28, 29
19, 32
51, 52
254, 270
88, 101
45, 64
176, 206
98, 101
64, 71
40, 32
8, 15
8, 10
20, 39
17, 26
19, 26
172, 231
298, 337
35, 48
40, 47
43, 46
19, 14
6, 12
18, 23
68, 72
41, 44
11, 8
15, 17
17, 23
14, 12
11, 10
18, 10
27, 39
24, 36
13, 15
6, 13
34, 47
44, 42
20, 22
28, 42
341, 472
1533, 1956
1021, 1064
103, 106
18, 18
21, 23
74, 89
243, 338
148, 146
24, 29
9, 11
15, 8
10, 7
5, 7
4, 8
6, 8
3, 9
10, 7
3, 6
4, 5
6, 9
11, 12
16, 13
8, 4
6, 6
2, 8
6, 6
4, 3
3, 6
1, 8
5, 12
2, 5
6, 5
5, 3
4, 3
3, 1
3, 3
2, 2
4, 3
2, 3
4, 2
3, 4
2, 6
4, 4
3, 7
3, 5
1, 2
1, 3
5, 1
2, 3
1, 4
6, 4
0, 2
0, 3
1, 1
3, 4
2, 4
2, 4
2, 7
0, 2
5, 1
2, 1
1, 4
1, 0
1, 4
3, 4
1, 1
0, 4
0, 1
2, 0
1, 4
0, 3
0, 2
0, 1
3, 4
1, 0
0, 0
1, 1
0, 0
2, 0
0, 1
0, 0
1, 1
0, 1
0, 0
1, 1
0, 2
0, 0
1, 0
2, 1
0, 1
0, 0
0, 1
0, 0
1, 1
0, 1
0, 0
0, 0
0, 0
0, 0
1, 0
0, 1
0, 0
1, 0
0, 0
0, 0
0, 1
0, 0
0, 0
0, 1
0, 1
0, 1
0, 0
0, 0
1, 0
0, 1
1, 0
1, 0
0, 0
1, 1
1, 0
0, 1
0, 0
0, 0
0, 0
0, 1
0, 0
0, 0
0, 0
0, 0
0, 0
0, 0
0, 0
1, 1
0, 0
0, 0
0, 0
0, 0
0, 0
0, 0
0, 0
0, 0
0, 1
0, 0
0, 0
0, 0
1, 0
0, 0
0, 0
0, 0
0, 0
0, 0
0, 0
0, 0
0, 0
0, 0
0, 0
0, 0
0, 0
0, 0
0, 0
0, 0
0, 0
0, 0
0, 0
0, 0
0, 0
0, 0
0, 0
0, 0
0, 0
0, 0
0, 0
0, 0
0, 0
0, 0
0, 0
0, 0
0, 0
0, 0
0, 0
0, 0
0, 0
0, 0
0, 0
0, 0
0, 0
0, 0
0, 0
0, 0
0, 0
0, 0
0, 0
0, 0
0, 0
0, 0
0, 0
0, 0
0, 0
0, 0
0, 0
0, 0
0, 0
0, 0
0, 0
0, 0
0, 0
0, 0
0, 0
0, 0
0, 0
0, 0
0, 0
0, 0
0, 0
0, 0
0, 0
0, 0
0, 0
0, 0
0, 0
0, 0
0, 0
0, 0
0, 0
0, 0
0, 0
0, 0
0, 0
0, 0
0, 0
0, 0
0, 0
0, 0
0, 0
0, 0
0, 0
#ENDOFDATA     end of spectrum data