File: host_upload/02-11-2024/rqc/uplink1/ps__0567_0717304816_000rfs_shot_383.msa
#FORMAT      : EMSA/MAS spectral data file
#VERSION     : TC202v2.0 PIXL
#TITLE       : Novarupta (sol567) subset1
#DATE        : 02-11-2024      Date in the format DD-MMM-YYYY, for example 07-JUL-2010
#TIME        :             The time of day at which the spectrum was recorded, in 24-hour format
#OWNER       : PIXL Flight Model       (PIXL will use this to indicate which instrument took the data.)
#NPOINTS     : 4096     Number of data points in the spectrum (This can be zero for configuration only files)
#NCOLUMNS    : 2     Number of data columns in the spectrum (This can be zero for configuration only files)
#XUNITS      : eV
#YUNITS      : COUNTS
#DATATYPE    : YY
#XPERCHAN    : 7.862, 7.881   eV per channel (separate by commas if more than one detector)
#OFFSET      : 18.5, -22.4         eV of first channel  (separate by commas if more than one detector
#SIGNALTYPE  : XRF
#YP_TEMP     : 1.562
#LIVETIME    : 8.82447, 8.81307   seconds (separate by commas if more than one detector)
#REALTIME    : 10, 10.0   seconds (separate by commas if more than one detector)
#SPECTRUM    : start of spectrum data
0, 0
0, 0
0, 0
0, 0
0, 0
0, 0
0, 0
1, 1
1, 6
3, 4
3, 1
9, 11
10, 10
19, 23
44, 54
114, 132
477, 529
116, 118
28, 39
19, 25
51, 68
295, 323
128, 97
65, 70
219, 235
112, 113
71, 61
29, 35
11, 8
13, 6
26, 31
10, 20
22, 15
184, 253
304, 361
53, 70
35, 56
36, 53
13, 11
4, 13
15, 28
47, 73
30, 37
12, 13
16, 17
18, 15
16, 8
8, 17
13, 18
33, 42
18, 23
7, 13
8, 14
39, 34
53, 45
23, 22
32, 31
363, 481
1585, 1863
1051, 1007
114, 98
19, 17
17, 28
94, 93
255, 295
158, 144
16, 19
7, 8
7, 16
7, 10
12, 11
3, 1
9, 4
6, 6
5, 6
7, 3
8, 5
6, 5
12, 9
7, 14
6, 6
6, 5
3, 7
3, 1
4, 8
4, 3
7, 2
1, 8
5, 6
2, 1
8, 6
6, 7
3, 7
4, 5
5, 5
8, 4
3, 2
0, 3
6, 3
6, 8
1, 1
2, 5
1, 7
5, 1
3, 3
4, 3
4, 4
2, 1
2, 2
0, 4
2, 6
3, 1
2, 3
1, 2
2, 0
0, 3
5, 2
2, 2
3, 0
2, 0
2, 0
1, 3
1, 3
3, 2
0, 1
0, 0
0, 2
2, 1
1, 0
1, 1
4, 3
0, 2
1, 2
0, 0
2, 1
0, 1
2, 1
0, 0
0, 1
1, 0
2, 0
1, 2
1, 1
1, 1
0, 0
0, 0
0, 0
1, 1
0, 1
0, 0
1, 1
1, 1
2, 0
0, 0
0, 0
0, 0
1, 0
0, 0
0, 0
0, 1
0, 0
0, 0
0, 0
0, 0
0, 0
0, 1
0, 2
1, 0
0, 1
0, 0
0, 1
0, 0
0, 0
0, 0
1, 0
0, 0
0, 1
0, 0
0, 0
0, 0
0, 0
0, 0
0, 0
0, 0
0, 0
0, 0
0, 0
0, 0
0, 2
0, 0
0, 0
0, 0
0, 0
0, 0
0, 0
0, 0
1, 0
0, 0
0, 0
0, 0
0, 0
0, 0
0, 0
0, 0
0, 0
0, 0
0, 0
0, 0
0, 0
0, 0
0, 0
0, 0
0, 0
0, 0
0, 0
0, 0
0, 0
0, 0
0, 0
0, 0
0, 0
0, 0
0, 0
0, 0
0, 0
0, 0
0, 0
0, 0
0, 0
0, 0
0, 0
0, 0
0, 0
0, 0
0, 0
0, 0
0, 0
0, 0
0, 0
0, 0
0, 0
0, 0
0, 0
0, 0
0, 0
0, 0
0, 0
0, 0
0, 0
0, 0
0, 0
0, 0
0, 0
0, 0
0, 0
0, 0
0, 0
0, 0
0, 0
0, 0
0, 0
0, 0
0, 0
0, 0
0, 0
0, 0
0, 0
0, 0
0, 0
0, 0
0, 0
0, 0
0, 0
0, 0
0, 0
0, 0
0, 0
0, 0
0, 0
0, 0
0, 0
0, 0
0, 0
0, 0
0, 0
0, 0
0, 0
0, 0
0, 0
0, 0
0, 0
0, 0
0, 0
0, 0
#ENDOFDATA     end of spectrum data