File: host_upload/02-11-2024/rqc/uplink1/ps__0567_0717304816_000rfs_shot_283.msa
#FORMAT      : EMSA/MAS spectral data file
#VERSION     : TC202v2.0 PIXL
#TITLE       : Novarupta (sol567) subset1
#DATE        : 02-11-2024      Date in the format DD-MMM-YYYY, for example 07-JUL-2010
#TIME        :             The time of day at which the spectrum was recorded, in 24-hour format
#OWNER       : PIXL Flight Model       (PIXL will use this to indicate which instrument took the data.)
#NPOINTS     : 4096     Number of data points in the spectrum (This can be zero for configuration only files)
#NCOLUMNS    : 2     Number of data columns in the spectrum (This can be zero for configuration only files)
#XUNITS      : eV
#YUNITS      : COUNTS
#DATATYPE    : YY
#XPERCHAN    : 7.862, 7.881   eV per channel (separate by commas if more than one detector)
#OFFSET      : 18.5, -22.4         eV of first channel  (separate by commas if more than one detector
#SIGNALTYPE  : XRF
#YP_TEMP     : 1.273
#LIVETIME    : 8.82332, 8.80567   seconds (separate by commas if more than one detector)
#REALTIME    : 10, 10.0   seconds (separate by commas if more than one detector)
#SPECTRUM    : start of spectrum data
0, 0
0, 0
0, 0
0, 0
0, 0
0, 0
0, 1
1, 0
2, 2
4, 7
5, 3
9, 8
16, 13
20, 37
62, 47
106, 126
506, 553
136, 124
24, 30
19, 20
43, 66
246, 287
121, 108
85, 89
264, 251
120, 125
65, 77
33, 28
8, 6
6, 10
25, 29
18, 18
18, 27
200, 255
347, 372
64, 46
45, 50
53, 59
8, 13
13, 7
22, 25
46, 76
20, 39
9, 17
17, 17
20, 17
11, 21
12, 7
17, 17
19, 31
26, 26
19, 17
18, 8
31, 37
42, 47
23, 25
28, 40
342, 509
1589, 1938
1050, 1014
110, 117
22, 18
18, 26
81, 89
299, 288
152, 183
22, 19
4, 6
15, 12
5, 9
7, 4
5, 6
7, 4
8, 9
6, 9
11, 11
7, 6
8, 9
8, 9
12, 8
8, 3
6, 6
5, 5
7, 7
6, 4
4, 5
6, 1
6, 6
10, 6
5, 6
1, 4
3, 4
4, 5
5, 6
3, 7
2, 5
4, 5
4, 3
0, 3
4, 5
2, 6
2, 2
3, 4
3, 7
2, 7
1, 4
4, 2
2, 1
2, 4
3, 1
5, 3
1, 1
0, 0
2, 0
2, 2
3, 1
4, 3
3, 3
3, 3
3, 0
2, 1
1, 1
3, 5
2, 1
0, 0
1, 3
1, 1
1, 3
0, 4
3, 4
2, 0
0, 2
1, 1
0, 1
1, 1
1, 1
0, 1
1, 0
0, 0
0, 2
0, 0
0, 1
0, 0
0, 0
0, 0
0, 0
0, 3
0, 0
0, 0
0, 0
0, 0
0, 1
1, 1
0, 0
1, 1
0, 1
0, 0
1, 2
0, 1
0, 1
0, 0
0, 0
0, 0
2, 0
0, 0
0, 1
0, 0
0, 0
0, 1
0, 0
0, 2
0, 0
0, 0
1, 2
0, 0
1, 0
0, 0
0, 0
0, 0
0, 0
0, 0
0, 0
0, 0
1, 0
0, 0
0, 0
0, 0
0, 0
0, 0
0, 1
0, 0
0, 0
0, 0
0, 0
0, 0
0, 0
0, 0
0, 0
0, 0
1, 0
0, 0
0, 0
0, 0
0, 0
0, 0
0, 0
0, 0
0, 0
0, 0
0, 0
0, 0
0, 0
0, 0
0, 0
0, 0
0, 0
0, 0
0, 0
0, 0
0, 0
0, 0
0, 0
0, 0
0, 0
0, 0
0, 0
0, 0
0, 0
0, 0
0, 0
0, 0
0, 0
0, 0
0, 0
0, 0
0, 0
0, 0
0, 0
0, 0
0, 0
0, 0
0, 0
0, 0
0, 0
0, 0
0, 0
0, 0
0, 0
0, 0
0, 0
0, 0
0, 0
0, 0
0, 0
0, 0
0, 0
0, 0
0, 0
0, 0
0, 0
0, 0
0, 0
0, 0
0, 0
0, 0
0, 0
0, 0
0, 0
0, 0
0, 0
0, 0
0, 0
0, 0
0, 0
0, 0
0, 0
0, 0
0, 0
0, 0
0, 0
0, 0
0, 0
0, 0
0, 0
0, 0
0, 0
0, 0
0, 0
0, 0
0, 0
0, 0
0, 0
0, 0
0, 0
#ENDOFDATA     end of spectrum data