File: host_upload/02-11-2024/rqc/uplink1/ps__0567_0717304816_000rfs_shot_237.msa
#FORMAT      : EMSA/MAS spectral data file
#VERSION     : TC202v2.0 PIXL
#TITLE       : Novarupta (sol567) subset1
#DATE        : 02-11-2024      Date in the format DD-MMM-YYYY, for example 07-JUL-2010
#TIME        :             The time of day at which the spectrum was recorded, in 24-hour format
#OWNER       : PIXL Flight Model       (PIXL will use this to indicate which instrument took the data.)
#NPOINTS     : 4096     Number of data points in the spectrum (This can be zero for configuration only files)
#NCOLUMNS    : 2     Number of data columns in the spectrum (This can be zero for configuration only files)
#XUNITS      : eV
#YUNITS      : COUNTS
#DATATYPE    : YY
#XPERCHAN    : 7.862, 7.881   eV per channel (separate by commas if more than one detector)
#OFFSET      : 18.5, -22.4         eV of first channel  (separate by commas if more than one detector
#SIGNALTYPE  : XRF
#YP_TEMP     : 1.049
#LIVETIME    : 8.82362, 8.81818   seconds (separate by commas if more than one detector)
#REALTIME    : 10, 10.0   seconds (separate by commas if more than one detector)
#SPECTRUM    : start of spectrum data
0, 0
0, 0
0, 0
0, 0
0, 0
0, 0
0, 0
0, 0
2, 3
3, 5
1, 3
15, 12
12, 14
24, 20
55, 54
125, 125
472, 488
123, 122
35, 31
16, 22
53, 63
287, 322
119, 113
77, 84
214, 200
107, 115
72, 62
30, 37
13, 20
8, 8
32, 29
18, 25
18, 19
213, 258
338, 314
52, 32
34, 66
43, 43
7, 11
9, 9
17, 23
51, 69
33, 38
15, 22
12, 10
17, 27
19, 15
8, 12
9, 18
25, 41
12, 19
8, 11
9, 13
35, 40
40, 62
17, 21
27, 43
376, 459
1599, 1801
1078, 971
133, 100
25, 16
18, 32
80, 100
278, 276
167, 131
19, 18
6, 11
12, 14
4, 7
11, 5
8, 5
8, 2
12, 8
5, 4
3, 7
8, 4
7, 7
12, 8
15, 15
3, 7
11, 11
4, 4
2, 2
10, 11
5, 5
3, 7
6, 7
3, 7
5, 6
5, 2
4, 3
6, 2
4, 7
4, 1
2, 2
4, 2
2, 3
4, 4
3, 4
5, 3
1, 3
3, 3
3, 4
0, 2
3, 1
3, 2
1, 1
1, 1
3, 2
2, 3
1, 2
1, 1
3, 3
3, 3
2, 4
3, 3
2, 2
0, 3
1, 1
0, 3
0, 3
1, 0
1, 1
1, 2
2, 1
0, 2
2, 2
1, 0
1, 1
4, 0
0, 2
0, 0
0, 0
2, 0
1, 0
0, 4
1, 0
1, 0
2, 0
0, 1
0, 1
1, 0
0, 0
0, 0
0, 1
1, 0
0, 1
1, 0
0, 0
2, 0
0, 0
1, 0
0, 2
0, 1
1, 0
0, 0
0, 0
1, 0
0, 0
0, 1
0, 0
0, 0
0, 0
2, 0
0, 1
0, 1
0, 0
0, 0
0, 0
1, 0
0, 0
0, 0
0, 0
1, 0
0, 0
0, 0
0, 1
0, 0
0, 0
0, 0
0, 0
0, 0
0, 0
1, 0
0, 0
0, 0
1, 0
0, 0
0, 0
0, 0
0, 0
0, 0
0, 0
0, 0
0, 0
0, 0
0, 0
0, 0
0, 0
0, 0
0, 0
0, 0
0, 0
0, 0
0, 0
0, 0
0, 0
0, 0
0, 0
0, 0
0, 0
0, 0
0, 0
0, 0
0, 0
0, 0
0, 0
0, 0
0, 0
0, 0
0, 0
0, 0
0, 0
0, 0
0, 0
0, 0
0, 0
0, 0
0, 0
0, 0
0, 0
0, 0
0, 0
0, 0
0, 0
0, 0
0, 0
0, 0
0, 0
0, 0
0, 0
0, 0
0, 0
0, 0
0, 0
0, 0
0, 0
0, 0
0, 0
0, 0
0, 0
0, 0
0, 0
0, 0
0, 0
0, 0
0, 0
0, 0
0, 0
0, 0
0, 0
0, 0
0, 0
0, 0
0, 0
0, 0
0, 0
0, 0
0, 0
0, 0
0, 0
0, 0
0, 0
0, 0
0, 0
0, 0
0, 0
0, 0
0, 0
0, 0
0, 0
0, 0
0, 0
0, 0
0, 0
0, 0
0, 0
0, 0
0, 0
0, 0
0, 0
0, 0
0, 0
#ENDOFDATA     end of spectrum data