File: host_upload/02-11-2024/rqc/uplink1/ps__0567_0717304816_000rfs_shot_323.msa
#FORMAT      : EMSA/MAS spectral data file
#VERSION     : TC202v2.0 PIXL
#TITLE       : Novarupta (sol567) subset1
#DATE        : 02-11-2024      Date in the format DD-MMM-YYYY, for example 07-JUL-2010
#TIME        :             The time of day at which the spectrum was recorded, in 24-hour format
#OWNER       : PIXL Flight Model       (PIXL will use this to indicate which instrument took the data.)
#NPOINTS     : 4096     Number of data points in the spectrum (This can be zero for configuration only files)
#NCOLUMNS    : 2     Number of data columns in the spectrum (This can be zero for configuration only files)
#XUNITS      : eV
#YUNITS      : COUNTS
#DATATYPE    : YY
#XPERCHAN    : 7.862, 7.881   eV per channel (separate by commas if more than one detector)
#OFFSET      : 18.5, -22.4         eV of first channel  (separate by commas if more than one detector
#SIGNALTYPE  : XRF
#YP_TEMP     : 1.466
#LIVETIME    : 8.825, 8.83515   seconds (separate by commas if more than one detector)
#REALTIME    : 10, 10.0   seconds (separate by commas if more than one detector)
#SPECTRUM    : start of spectrum data
0, 0
0, 0
0, 0
0, 0
0, 0
0, 0
0, 0
0, 0
6, 4
1, 1
1, 2
21, 6
14, 10
27, 26
49, 44
99, 119
483, 465
106, 92
31, 31
32, 29
59, 52
378, 370
172, 128
65, 72
231, 237
119, 95
87, 76
31, 19
10, 16
5, 12
27, 32
25, 11
15, 26
236, 202
358, 316
55, 52
44, 40
42, 45
12, 18
10, 7
17, 21
62, 63
39, 34
8, 12
15, 15
21, 12
3, 9
8, 13
14, 17
34, 28
22, 15
7, 16
15, 13
25, 31
43, 48
20, 9
27, 33
377, 453
1721, 1686
1190, 932
107, 101
15, 15
15, 16
88, 91
265, 290
169, 128
29, 29
12, 4
13, 17
6, 10
5, 5
6, 2
7, 5
7, 4
10, 8
3, 8
5, 7
8, 5
6, 8
13, 6
7, 4
7, 4
6, 5
6, 5
5, 3
2, 4
10, 4
6, 7
6, 4
8, 4
4, 1
4, 5
5, 5
7, 3
2, 2
4, 2
6, 5
6, 3
6, 2
1, 0
0, 1
3, 3
1, 2
4, 1
2, 2
5, 1
1, 4
2, 3
2, 2
5, 2
2, 1
0, 3
3, 2
3, 1
2, 3
0, 3
3, 1
5, 4
1, 1
2, 3
5, 1
0, 0
2, 3
3, 1
0, 2
1, 0
3, 2
0, 1
1, 0
2, 2
2, 2
0, 0
1, 0
1, 0
1, 1
2, 2
2, 1
0, 3
0, 1
2, 0
2, 0
0, 0
0, 0
0, 0
0, 0
0, 0
0, 1
1, 0
1, 1
1, 0
0, 0
0, 0
0, 0
0, 0
0, 0
0, 0
0, 0
0, 0
1, 1
0, 0
0, 0
0, 0
0, 0
0, 0
1, 0
0, 0
0, 0
1, 0
0, 0
0, 0
0, 0
0, 0
0, 0
1, 0
1, 0
1, 1
0, 0
0, 0
0, 0
1, 1
0, 0
0, 1
1, 0
0, 1
0, 0
0, 0
0, 0
0, 0
0, 0
0, 0
0, 0
0, 0
0, 0
0, 0
0, 0
0, 0
0, 0
0, 0
0, 1
0, 0
0, 0
0, 0
0, 0
0, 0
0, 0
0, 0
0, 0
0, 0
0, 0
0, 0
0, 0
0, 0
0, 0
0, 0
0, 0
0, 0
0, 0
0, 0
0, 0
0, 0
0, 0
0, 0
0, 0
0, 0
0, 0
0, 0
0, 0
0, 0
0, 0
0, 0
0, 0
0, 0
0, 0
0, 0
0, 0
0, 0
0, 0
0, 0
0, 0
0, 0
0, 0
0, 0
0, 0
0, 0
0, 0
0, 0
0, 0
0, 0
0, 0
0, 0
0, 0
0, 0
0, 0
0, 0
0, 0
0, 0
0, 0
0, 0
0, 0
0, 0
0, 0
0, 0
0, 0
0, 0
0, 0
0, 0
0, 0
0, 0
0, 0
0, 0
0, 0
0, 0
0, 0
0, 0
0, 0
0, 0
0, 0
0, 0
0, 0
0, 0
0, 0
0, 0
0, 0
0, 0
0, 0
0, 0
0, 0
0, 0
0, 0
0, 0
0, 0
0, 0
0, 0
0, 0
#ENDOFDATA     end of spectrum data