File: host_upload/02-11-2024/rqc/uplink1/ps__0567_0717304816_000rfs_shot_468.msa
#FORMAT      : EMSA/MAS spectral data file
#VERSION     : TC202v2.0 PIXL
#TITLE       : Novarupta (sol567) subset1
#DATE        : 02-11-2024      Date in the format DD-MMM-YYYY, for example 07-JUL-2010
#TIME        :             The time of day at which the spectrum was recorded, in 24-hour format
#OWNER       : PIXL Flight Model       (PIXL will use this to indicate which instrument took the data.)
#NPOINTS     : 4096     Number of data points in the spectrum (This can be zero for configuration only files)
#NCOLUMNS    : 2     Number of data columns in the spectrum (This can be zero for configuration only files)
#XUNITS      : eV
#YUNITS      : COUNTS
#DATATYPE    : YY
#XPERCHAN    : 7.862, 7.881   eV per channel (separate by commas if more than one detector)
#OFFSET      : 18.5, -22.4         eV of first channel  (separate by commas if more than one detector
#SIGNALTYPE  : XRF
#YP_TEMP     : 2.267
#LIVETIME    : 8.83367, 8.82328   seconds (separate by commas if more than one detector)
#REALTIME    : 10, 10.0   seconds (separate by commas if more than one detector)
#SPECTRUM    : start of spectrum data
0, 0
0, 0
0, 0
0, 0
0, 0
0, 0
0, 0
0, 0
1, 3
3, 2
0, 4
9, 9
8, 20
20, 25
34, 49
93, 117
483, 521
131, 129
28, 39
19, 25
48, 71
293, 315
110, 100
62, 73
236, 244
134, 120
64, 92
16, 34
11, 12
5, 5
23, 33
14, 20
12, 22
193, 225
308, 326
53, 49
33, 37
44, 43
14, 9
14, 8
21, 21
63, 66
26, 28
18, 15
13, 15
22, 20
12, 15
9, 8
21, 20
25, 35
30, 19
12, 13
11, 18
33, 39
53, 39
18, 24
29, 26
332, 479
1549, 1772
1108, 1065
115, 81
13, 22
17, 23
82, 101
243, 296
161, 140
13, 23
13, 8
13, 7
6, 7
5, 12
4, 7
5, 8
2, 8
9, 13
5, 9
6, 5
4, 6
12, 11
13, 7
11, 7
9, 5
4, 10
8, 5
5, 7
4, 5
0, 7
1, 7
3, 3
7, 5
5, 2
3, 2
2, 1
4, 3
4, 3
4, 3
1, 4
4, 4
5, 6
1, 3
2, 3
2, 4
1, 7
5, 4
1, 0
5, 2
2, 4
4, 6
3, 4
2, 1
3, 4
2, 0
3, 2
1, 2
2, 4
1, 1
4, 5
1, 2
3, 4
2, 3
2, 1
2, 3
1, 3
2, 2
1, 1
1, 1
0, 2
0, 1
0, 1
3, 0
1, 0
3, 1
0, 2
2, 1
2, 2
1, 0
0, 2
0, 0
1, 1
1, 0
0, 1
0, 0
1, 2
0, 1
0, 1
0, 0
0, 0
1, 0
1, 2
0, 0
1, 2
0, 1
1, 2
0, 1
0, 0
0, 0
0, 0
0, 1
0, 0
1, 1
0, 1
0, 0
0, 0
0, 1
0, 0
0, 0
0, 0
0, 0
0, 1
0, 1
1, 1
1, 0
1, 0
0, 0
0, 0
0, 1
0, 0
0, 0
0, 0
0, 1
0, 0
0, 0
0, 0
0, 0
1, 0
1, 0
0, 0
0, 0
0, 1
0, 0
0, 0
0, 0
0, 0
0, 0
0, 0
0, 0
1, 0
0, 0
0, 0
0, 0
0, 0
0, 0
0, 0
0, 0
0, 0
0, 0
0, 0
0, 0
0, 0
0, 0
0, 0
0, 0
0, 0
0, 1
0, 0
0, 0
0, 0
0, 0
0, 0
0, 0
0, 0
0, 0
0, 0
0, 0
0, 0
0, 0
0, 0
0, 0
0, 0
0, 0
0, 0
0, 0
0, 0
0, 0
0, 0
0, 0
0, 0
0, 0
0, 0
0, 0
0, 0
0, 0
0, 0
0, 0
0, 0
0, 0
0, 0
0, 0
0, 0
0, 0
0, 0
0, 0
0, 0
0, 0
0, 0
0, 0
0, 0
0, 0
0, 0
0, 0
0, 0
0, 0
0, 0
0, 0
0, 0
0, 0
0, 0
0, 0
0, 0
0, 0
0, 0
0, 0
0, 0
0, 0
0, 0
0, 0
0, 0
0, 0
0, 0
0, 0
0, 0
0, 0
0, 0
0, 0
0, 0
0, 0
0, 0
0, 0
0, 0
0, 0
0, 0
0, 0
0, 0
0, 0
#ENDOFDATA     end of spectrum data