File: host_upload/02-11-2024/rqc/uplink1/ps__0567_0717304816_000rfs_shot_330.msa
#FORMAT      : EMSA/MAS spectral data file
#VERSION     : TC202v2.0 PIXL
#TITLE       : Novarupta (sol567) subset1
#DATE        : 02-11-2024      Date in the format DD-MMM-YYYY, for example 07-JUL-2010
#TIME        :             The time of day at which the spectrum was recorded, in 24-hour format
#OWNER       : PIXL Flight Model       (PIXL will use this to indicate which instrument took the data.)
#NPOINTS     : 4096     Number of data points in the spectrum (This can be zero for configuration only files)
#NCOLUMNS    : 2     Number of data columns in the spectrum (This can be zero for configuration only files)
#XUNITS      : eV
#YUNITS      : COUNTS
#DATATYPE    : YY
#XPERCHAN    : 7.862, 7.881   eV per channel (separate by commas if more than one detector)
#OFFSET      : 18.5, -22.4         eV of first channel  (separate by commas if more than one detector
#SIGNALTYPE  : XRF
#YP_TEMP     : 1.337
#LIVETIME    : 8.83702, 8.82037   seconds (separate by commas if more than one detector)
#REALTIME    : 10, 10.0   seconds (separate by commas if more than one detector)
#SPECTRUM    : start of spectrum data
0, 0
0, 0
0, 0
0, 0
0, 0
0, 0
0, 0
0, 0
3, 5
1, 6
3, 6
18, 8
10, 10
25, 16
44, 61
109, 116
454, 543
116, 126
29, 35
22, 24
64, 56
284, 315
139, 133
62, 57
191, 214
108, 110
72, 67
24, 23
3, 12
7, 12
40, 37
19, 10
22, 24
197, 259
295, 354
62, 55
47, 50
47, 56
7, 19
8, 7
18, 27
61, 73
41, 26
13, 18
10, 24
22, 18
8, 12
6, 13
11, 20
33, 18
27, 19
17, 14
13, 15
29, 40
35, 46
34, 20
15, 25
345, 460
1497, 1838
1016, 1007
122, 98
12, 16
10, 20
87, 107
231, 269
125, 157
18, 20
9, 10
9, 16
5, 9
6, 12
4, 5
10, 12
5, 6
10, 5
7, 8
6, 3
7, 7
14, 13
8, 14
7, 15
4, 5
9, 3
2, 7
4, 5
6, 3
6, 6
5, 10
1, 11
5, 7
6, 3
8, 2
4, 5
3, 4
2, 4
2, 5
4, 9
4, 3
2, 5
3, 4
2, 3
6, 3
4, 1
2, 5
3, 1
3, 0
2, 6
2, 5
2, 2
2, 0
3, 5
1, 3
4, 2
1, 4
7, 1
1, 3
1, 6
1, 1
2, 1
1, 1
0, 1
2, 0
0, 1
1, 4
1, 0
1, 1
0, 1
0, 0
3, 0
0, 0
3, 0
1, 0
0, 0
1, 0
1, 2
0, 1
0, 2
1, 0
3, 2
0, 1
0, 1
1, 0
0, 1
0, 3
1, 0
1, 1
0, 1
1, 0
0, 0
1, 0
0, 0
0, 0
0, 0
0, 0
0, 0
0, 3
0, 0
0, 0
0, 0
0, 0
0, 1
1, 0
0, 0
0, 0
0, 0
0, 0
0, 0
0, 0
0, 0
0, 0
0, 0
1, 1
0, 1
0, 0
0, 0
0, 0
0, 0
0, 0
0, 0
0, 0
0, 0
0, 1
0, 0
1, 1
0, 0
0, 1
0, 0
0, 0
0, 0
1, 0
0, 0
0, 0
1, 0
0, 0
0, 0
0, 0
0, 0
0, 0
0, 0
0, 0
0, 0
0, 0
0, 0
0, 0
0, 0
0, 0
0, 0
0, 0
0, 0
0, 0
0, 0
0, 0
0, 0
0, 0
0, 0
0, 0
0, 0
0, 0
0, 0
0, 0
0, 0
0, 0
0, 0
0, 0
0, 0
0, 0
0, 0
0, 0
0, 0
0, 0
0, 0
0, 0
0, 0
0, 0
0, 0
0, 0
0, 0
0, 0
0, 0
0, 0
0, 0
0, 0
0, 0
0, 0
0, 0
0, 0
0, 0
0, 0
0, 0
0, 0
0, 0
0, 0
0, 0
0, 0
0, 0
0, 0
0, 0
0, 0
0, 0
0, 0
0, 0
0, 0
0, 0
0, 0
0, 0
0, 0
0, 0
0, 0
0, 0
0, 0
0, 0
0, 0
0, 0
0, 0
0, 0
0, 0
0, 0
0, 0
0, 0
0, 0
0, 0
0, 0
0, 0
0, 0
0, 0
0, 0
0, 0
0, 0
0, 0
0, 0
0, 0
0, 0
0, 0
0, 0
#ENDOFDATA     end of spectrum data