File: host_upload/02-11-2024/rqc/uplink1/ps__0567_0717304816_000rfs_shot_130.msa
#FORMAT      : EMSA/MAS spectral data file
#VERSION     : TC202v2.0 PIXL
#TITLE       : Novarupta (sol567) subset1
#DATE        : 02-11-2024      Date in the format DD-MMM-YYYY, for example 07-JUL-2010
#TIME        :             The time of day at which the spectrum was recorded, in 24-hour format
#OWNER       : PIXL Flight Model       (PIXL will use this to indicate which instrument took the data.)
#NPOINTS     : 4096     Number of data points in the spectrum (This can be zero for configuration only files)
#NCOLUMNS    : 2     Number of data columns in the spectrum (This can be zero for configuration only files)
#XUNITS      : eV
#YUNITS      : COUNTS
#DATATYPE    : YY
#XPERCHAN    : 7.862, 7.881   eV per channel (separate by commas if more than one detector)
#OFFSET      : 18.5, -22.4         eV of first channel  (separate by commas if more than one detector
#SIGNALTYPE  : XRF
#YP_TEMP     : -0.459
#LIVETIME    : 8.82559, 8.81709   seconds (separate by commas if more than one detector)
#REALTIME    : 10, 10.0   seconds (separate by commas if more than one detector)
#SPECTRUM    : start of spectrum data
0, 0
0, 0
0, 0
0, 0
0, 0
0, 0
0, 0
0, 0
1, 2
3, 4
2, 3
7, 8
11, 14
23, 21
44, 46
113, 123
490, 517
102, 108
39, 32
27, 29
69, 68
299, 348
132, 134
77, 68
207, 226
128, 112
64, 68
36, 30
10, 9
8, 8
32, 27
18, 18
21, 24
199, 243
313, 339
49, 45
29, 43
39, 41
7, 9
5, 11
20, 30
58, 61
37, 28
13, 14
14, 21
15, 22
9, 12
10, 13
10, 7
31, 34
27, 19
14, 11
13, 11
36, 34
42, 46
25, 22
38, 52
457, 540
1622, 1899
1058, 1011
111, 84
18, 14
24, 21
105, 100
271, 317
168, 143
21, 16
8, 14
17, 8
7, 8
6, 6
4, 5
5, 7
7, 4
11, 7
3, 12
8, 9
8, 11
11, 18
20, 6
5, 10
6, 4
4, 5
4, 5
3, 2
9, 5
11, 4
9, 4
6, 2
3, 2
7, 4
2, 1
5, 5
5, 2
6, 2
1, 2
5, 6
2, 3
2, 1
3, 4
3, 4
3, 0
5, 2
0, 5
2, 2
4, 1
1, 1
2, 2
2, 3
4, 2
2, 1
4, 1
3, 4
3, 2
2, 0
2, 2
5, 8
1, 4
0, 2
1, 2
1, 1
1, 1
1, 5
0, 0
3, 0
1, 2
4, 0
2, 2
1, 4
3, 0
1, 3
1, 1
1, 1
0, 1
0, 2
0, 0
1, 2
3, 0
1, 0
1, 3
0, 1
1, 0
1, 0
2, 0
1, 0
3, 1
0, 1
1, 0
1, 0
0, 1
0, 0
0, 1
0, 0
1, 0
0, 1
0, 0
0, 0
0, 1
0, 1
0, 0
0, 0
0, 0
0, 0
0, 0
0, 0
0, 0
0, 0
0, 0
0, 0
0, 1
0, 0
0, 0
0, 1
0, 0
0, 0
0, 1
0, 0
0, 0
0, 0
0, 1
0, 1
0, 0
0, 0
0, 0
0, 0
0, 0
1, 0
0, 0
0, 0
0, 1
0, 0
0, 0
0, 1
0, 0
1, 0
1, 0
0, 0
0, 0
0, 0
0, 0
0, 0
0, 1
0, 0
0, 1
0, 0
0, 0
0, 0
0, 0
0, 0
0, 0
0, 0
0, 0
0, 0
0, 0
0, 0
0, 0
0, 0
0, 0
0, 0
0, 0
0, 0
0, 0
0, 0
0, 0
0, 0
0, 0
0, 0
0, 0
0, 0
0, 0
0, 0
0, 0
0, 0
0, 0
0, 0
0, 0
0, 0
0, 0
0, 0
0, 0
0, 0
0, 0
0, 0
0, 0
0, 0
0, 0
0, 0
0, 0
0, 0
0, 0
0, 0
0, 0
0, 0
0, 0
0, 0
0, 0
0, 0
0, 0
0, 0
0, 0
0, 0
0, 0
0, 0
0, 0
0, 0
0, 0
0, 0
0, 0
0, 0
0, 0
0, 0
0, 0
0, 0
0, 0
0, 0
0, 0
0, 0
0, 0
0, 0
0, 0
0, 0
0, 0
0, 0
0, 0
0, 0
0, 0
0, 0
0, 0
0, 0
0, 0
0, 0
0, 0
0, 0
0, 0
#ENDOFDATA     end of spectrum data