File: host_upload/02-11-2024/rqc/uplink1/ps__0567_0717304816_000rfs_shot_21.msa
#FORMAT      : EMSA/MAS spectral data file
#VERSION     : TC202v2.0 PIXL
#TITLE       : Novarupta (sol567) subset1
#DATE        : 02-11-2024      Date in the format DD-MMM-YYYY, for example 07-JUL-2010
#TIME        :             The time of day at which the spectrum was recorded, in 24-hour format
#OWNER       : PIXL Flight Model       (PIXL will use this to indicate which instrument took the data.)
#NPOINTS     : 4096     Number of data points in the spectrum (This can be zero for configuration only files)
#NCOLUMNS    : 2     Number of data columns in the spectrum (This can be zero for configuration only files)
#XUNITS      : eV
#YUNITS      : COUNTS
#DATATYPE    : YY
#XPERCHAN    : 7.862, 7.881   eV per channel (separate by commas if more than one detector)
#OFFSET      : 18.5, -22.4         eV of first channel  (separate by commas if more than one detector
#SIGNALTYPE  : XRF
#YP_TEMP     : -4.115
#LIVETIME    : 8.83979, 8.64063   seconds (separate by commas if more than one detector)
#REALTIME    : 10, 10.0   seconds (separate by commas if more than one detector)
#SPECTRUM    : start of spectrum data
0, 0
0, 0
0, 0
0, 0
0, 0
0, 0
0, 0
0, 0
5, 5
2, 3
1, 2
11, 17
14, 11
22, 21
39, 37
133, 132
479, 483
129, 107
31, 41
16, 15
73, 81
320, 296
101, 113
112, 104
232, 292
137, 118
67, 61
23, 26
2, 11
9, 14
35, 24
13, 11
24, 33
246, 317
254, 290
46, 40
47, 52
36, 41
9, 12
9, 20
26, 25
59, 73
28, 21
15, 17
17, 16
17, 29
9, 16
13, 11
22, 21
31, 26
21, 25
11, 6
14, 10
42, 41
39, 40
32, 18
55, 64
626, 714
1645, 1720
751, 706
90, 72
15, 14
26, 23
147, 144
262, 246
113, 114
12, 21
13, 9
7, 7
10, 9
7, 3
6, 6
8, 4
4, 8
3, 5
8, 11
1, 5
9, 9
12, 8
7, 3
4, 7
6, 6
5, 2
4, 1
3, 7
6, 2
7, 3
4, 8
3, 6
5, 3
4, 4
4, 6
4, 6
5, 4
1, 8
3, 4
2, 5
0, 5
2, 1
3, 1
6, 1
2, 3
1, 4
2, 1
3, 2
3, 0
0, 2
2, 2
6, 2
8, 4
1, 0
3, 1
2, 1
1, 2
3, 4
3, 2
4, 4
1, 2
0, 1
4, 2
1, 3
2, 2
0, 2
2, 3
0, 0
1, 2
0, 2
2, 1
1, 1
0, 3
2, 0
2, 0
0, 1
0, 0
3, 1
0, 0
0, 3
1, 1
0, 1
0, 0
0, 1
1, 2
0, 0
1, 0
0, 0
1, 0
0, 0
0, 2
1, 0
0, 0
1, 1
0, 1
0, 0
0, 0
1, 0
1, 2
1, 0
1, 0
0, 0
0, 0
0, 0
0, 0
0, 0
0, 0
0, 0
0, 0
0, 0
0, 0
1, 1
1, 0
0, 1
0, 0
0, 1
0, 0
0, 0
1, 1
0, 0
0, 0
0, 0
0, 0
0, 0
1, 0
0, 0
0, 0
0, 0
0, 0
0, 0
0, 0
0, 0
0, 0
0, 0
0, 1
0, 0
0, 0
1, 0
0, 0
1, 0
0, 0
1, 0
0, 0
0, 0
0, 0
0, 0
0, 0
0, 0
0, 0
0, 0
0, 0
0, 0
0, 0
0, 0
0, 0
0, 0
0, 0
0, 0
0, 0
0, 0
0, 0
0, 0
0, 0
0, 0
0, 0
0, 0
0, 0
0, 0
0, 0
0, 0
0, 0
0, 0
0, 0
0, 0
0, 0
0, 0
0, 0
0, 0
0, 0
0, 0
0, 0
0, 0
0, 0
0, 0
0, 0
0, 0
0, 0
0, 0
0, 0
0, 0
0, 0
0, 0
0, 0
0, 0
0, 0
0, 0
0, 0
0, 0
0, 0
0, 0
0, 0
0, 0
0, 0
0, 0
0, 0
0, 0
0, 0
0, 0
0, 0
0, 0
0, 0
0, 0
0, 0
0, 0
0, 0
0, 0
0, 0
0, 0
0, 0
0, 0
0, 0
0, 0
0, 0
0, 0
0, 0
0, 0
0, 0
0, 0
0, 0
0, 0
0, 0
0, 0
0, 0
0, 0
0, 0
0, 0
0, 0
#ENDOFDATA     end of spectrum data