File: host_upload/02-11-2024/rqc/uplink1/ps__0567_0717304816_000rfs_shot_36.msa
#FORMAT      : EMSA/MAS spectral data file
#VERSION     : TC202v2.0 PIXL
#TITLE       : Novarupta (sol567) subset1
#DATE        : 02-11-2024      Date in the format DD-MMM-YYYY, for example 07-JUL-2010
#TIME        :             The time of day at which the spectrum was recorded, in 24-hour format
#OWNER       : PIXL Flight Model       (PIXL will use this to indicate which instrument took the data.)
#NPOINTS     : 4096     Number of data points in the spectrum (This can be zero for configuration only files)
#NCOLUMNS    : 2     Number of data columns in the spectrum (This can be zero for configuration only files)
#XUNITS      : eV
#YUNITS      : COUNTS
#DATATYPE    : YY
#XPERCHAN    : 7.862, 7.881   eV per channel (separate by commas if more than one detector)
#OFFSET      : 18.5, -22.4         eV of first channel  (separate by commas if more than one detector
#SIGNALTYPE  : XRF
#YP_TEMP     : -3.602
#LIVETIME    : 8.85784, 8.63724   seconds (separate by commas if more than one detector)
#REALTIME    : 10, 10.0   seconds (separate by commas if more than one detector)
#SPECTRUM    : start of spectrum data
0, 0
0, 0
0, 0
0, 0
0, 0
0, 0
0, 0
0, 0
2, 2
3, 2
4, 1
10, 17
8, 12
25, 33
32, 40
116, 171
386, 563
108, 119
22, 31
31, 35
67, 83
263, 363
104, 124
65, 113
196, 229
93, 143
67, 77
29, 32
7, 10
9, 16
15, 30
26, 8
20, 34
252, 312
271, 365
36, 65
35, 46
39, 52
13, 12
5, 8
22, 27
57, 80
23, 49
10, 15
15, 24
23, 21
9, 19
9, 20
15, 16
29, 38
21, 27
9, 10
17, 13
35, 52
38, 47
17, 24
53, 66
477, 702
1456, 1933
694, 889
72, 82
12, 17
29, 29
99, 158
231, 322
97, 115
12, 15
8, 9
10, 6
9, 5
5, 11
1, 8
8, 4
4, 4
4, 15
8, 8
2, 7
9, 7
3, 19
10, 11
2, 6
4, 3
6, 8
5, 6
3, 6
7, 10
2, 7
7, 7
4, 5
3, 3
2, 5
5, 7
2, 4
2, 4
3, 3
4, 4
2, 3
2, 4
1, 2
1, 5
1, 4
1, 7
1, 6
3, 4
0, 3
1, 5
0, 6
0, 3
3, 6
4, 7
1, 3
2, 1
0, 0
3, 3
2, 3
1, 3
1, 4
1, 1
1, 0
1, 2
0, 2
3, 1
4, 4
0, 2
4, 0
0, 0
0, 2
2, 1
0, 2
1, 3
1, 0
0, 0
0, 1
1, 0
0, 1
1, 0
0, 1
0, 0
0, 0
1, 1
1, 2
0, 1
0, 1
1, 0
1, 0
0, 1
1, 0
0, 0
1, 1
3, 1
0, 0
0, 0
1, 0
0, 0
1, 1
0, 1
0, 0
0, 0
0, 1
0, 1
0, 1
0, 0
0, 0
0, 0
2, 1
0, 1
0, 0
0, 0
0, 1
0, 0
0, 0
0, 0
1, 0
0, 1
0, 0
0, 0
0, 0
0, 0
0, 0
0, 0
0, 0
0, 0
0, 0
0, 1
0, 0
0, 0
0, 0
0, 0
1, 0
0, 0
0, 0
0, 0
0, 1
0, 0
0, 0
0, 0
0, 0
0, 0
0, 0
0, 0
2, 0
1, 0
0, 0
0, 0
0, 0
0, 0
0, 0
0, 0
0, 0
0, 0
0, 0
0, 0
0, 0
0, 0
0, 0
0, 0
0, 0
0, 0
0, 0
0, 0
0, 0
0, 0
0, 0
0, 0
0, 0
0, 0
0, 0
0, 0
0, 0
0, 0
0, 0
0, 0
0, 0
0, 0
0, 0
0, 0
0, 0
0, 0
0, 0
0, 0
0, 0
0, 0
0, 0
0, 0
0, 0
0, 0
0, 0
0, 0
0, 0
0, 0
0, 0
0, 0
0, 0
0, 0
0, 0
0, 0
0, 0
0, 0
0, 0
0, 0
0, 0
0, 0
0, 0
0, 0
0, 0
0, 0
0, 0
0, 0
0, 0
0, 0
0, 0
0, 0
0, 0
0, 0
0, 0
0, 0
0, 0
0, 0
0, 0
0, 0
0, 0
0, 0
0, 0
0, 0
0, 0
0, 0
0, 0
0, 0
0, 0
0, 0
0, 0
0, 0
0, 0
0, 0
#ENDOFDATA     end of spectrum data