File: host_upload/02-11-2024/rqc/uplink1/ps__0567_0717304816_000rfs_shot_317.msa
#FORMAT      : EMSA/MAS spectral data file
#VERSION     : TC202v2.0 PIXL
#TITLE       : Novarupta (sol567) subset1
#DATE        : 02-11-2024      Date in the format DD-MMM-YYYY, for example 07-JUL-2010
#TIME        :             The time of day at which the spectrum was recorded, in 24-hour format
#OWNER       : PIXL Flight Model       (PIXL will use this to indicate which instrument took the data.)
#NPOINTS     : 4096     Number of data points in the spectrum (This can be zero for configuration only files)
#NCOLUMNS    : 2     Number of data columns in the spectrum (This can be zero for configuration only files)
#XUNITS      : eV
#YUNITS      : COUNTS
#DATATYPE    : YY
#XPERCHAN    : 7.862, 7.881   eV per channel (separate by commas if more than one detector)
#OFFSET      : 18.5, -22.4         eV of first channel  (separate by commas if more than one detector
#SIGNALTYPE  : XRF
#YP_TEMP     : 1.241
#LIVETIME    : 8.82505, 8.8151   seconds (separate by commas if more than one detector)
#REALTIME    : 10, 10.0   seconds (separate by commas if more than one detector)
#SPECTRUM    : start of spectrum data
0, 0
0, 0
0, 0
0, 0
0, 0
0, 0
0, 0
0, 0
2, 2
4, 5
1, 4
7, 8
14, 3
23, 15
50, 48
111, 116
526, 495
144, 101
33, 37
18, 11
41, 61
284, 306
112, 104
57, 71
213, 228
112, 116
61, 76
44, 28
6, 6
6, 9
31, 25
24, 17
20, 26
206, 236
301, 341
54, 58
39, 44
53, 59
8, 15
10, 11
24, 22
62, 58
39, 37
12, 13
13, 19
18, 29
13, 20
8, 9
15, 14
34, 33
19, 21
13, 9
16, 20
24, 38
50, 46
22, 22
36, 37
365, 442
1561, 1693
1088, 1006
101, 97
14, 15
15, 19
86, 102
257, 289
142, 135
23, 22
11, 11
8, 20
5, 13
12, 6
3, 6
3, 7
5, 4
6, 4
6, 11
6, 9
7, 7
5, 8
12, 6
9, 9
5, 7
5, 8
4, 5
5, 3
10, 3
7, 2
4, 10
9, 4
3, 3
1, 5
2, 5
5, 4
3, 4
2, 5
3, 4
4, 6
1, 3
6, 0
3, 3
4, 2
1, 3
4, 4
6, 1
2, 1
3, 2
2, 1
4, 2
2, 3
7, 2
0, 3
3, 0
3, 5
0, 5
5, 2
3, 3
2, 3
3, 1
1, 4
3, 2
1, 3
1, 2
1, 0
3, 0
1, 0
2, 1
2, 2
1, 1
2, 0
0, 1
0, 1
0, 1
3, 0
0, 1
0, 1
1, 0
0, 2
1, 0
0, 0
5, 1
1, 1
0, 0
1, 0
0, 0
1, 1
1, 1
1, 1
0, 0
0, 2
1, 1
0, 0
0, 0
1, 0
0, 1
0, 1
1, 1
0, 0
2, 0
0, 0
0, 0
0, 1
0, 0
1, 1
0, 0
0, 0
0, 1
0, 0
0, 0
0, 1
0, 1
0, 0
0, 2
0, 0
0, 0
0, 0
0, 0
0, 1
0, 0
1, 0
0, 0
0, 0
0, 0
0, 0
0, 0
0, 1
1, 0
0, 0
0, 0
0, 0
0, 0
0, 0
0, 0
0, 0
0, 0
0, 0
0, 0
0, 0
0, 0
0, 0
0, 0
0, 1
0, 0
1, 0
0, 0
0, 0
0, 0
0, 0
0, 0
0, 0
0, 0
0, 0
0, 0
0, 0
0, 1
0, 0
0, 0
0, 0
0, 0
0, 0
0, 0
0, 0
0, 0
0, 0
0, 0
0, 0
0, 0
0, 0
0, 0
0, 0
0, 0
0, 0
0, 0
0, 0
0, 0
0, 0
0, 0
0, 0
0, 0
0, 0
0, 0
0, 0
0, 0
0, 0
0, 0
0, 0
0, 0
0, 0
0, 0
0, 0
0, 0
0, 0
0, 0
0, 0
0, 0
0, 0
0, 0
0, 0
0, 0
0, 0
0, 0
0, 0
0, 0
0, 0
0, 0
0, 0
0, 0
0, 0
0, 0
0, 0
0, 0
0, 0
0, 0
0, 0
0, 0
0, 0
0, 0
0, 0
0, 0
0, 0
0, 0
0, 0
0, 0
0, 0
0, 0
0, 0
0, 0
0, 0
0, 0
0, 0
0, 0
0, 0
0, 0
0, 0
0, 0
#ENDOFDATA     end of spectrum data