File: host_upload/02-11-2024/rqc/uplink1/ps__0567_0717304816_000rfs_shot_152.msa
#FORMAT      : EMSA/MAS spectral data file
#VERSION     : TC202v2.0 PIXL
#TITLE       : Novarupta (sol567) subset1
#DATE        : 02-11-2024      Date in the format DD-MMM-YYYY, for example 07-JUL-2010
#TIME        :             The time of day at which the spectrum was recorded, in 24-hour format
#OWNER       : PIXL Flight Model       (PIXL will use this to indicate which instrument took the data.)
#NPOINTS     : 4096     Number of data points in the spectrum (This can be zero for configuration only files)
#NCOLUMNS    : 2     Number of data columns in the spectrum (This can be zero for configuration only files)
#XUNITS      : eV
#YUNITS      : COUNTS
#DATATYPE    : YY
#XPERCHAN    : 7.862, 7.881   eV per channel (separate by commas if more than one detector)
#OFFSET      : 18.5, -22.4         eV of first channel  (separate by commas if more than one detector
#SIGNALTYPE  : XRF
#YP_TEMP     : -0.202
#LIVETIME    : 8.84302, 8.62941   seconds (separate by commas if more than one detector)
#REALTIME    : 10, 10.0   seconds (separate by commas if more than one detector)
#SPECTRUM    : start of spectrum data
0, 0
0, 0
0, 0
0, 0
0, 0
0, 0
0, 0
0, 0
1, 7
1, 5
2, 0
6, 8
15, 19
22, 25
33, 42
101, 137
466, 544
109, 124
25, 27
16, 24
64, 77
321, 393
123, 146
71, 84
216, 240
116, 124
61, 86
36, 38
10, 8
11, 10
27, 42
15, 15
15, 23
223, 254
318, 381
50, 60
39, 68
42, 65
17, 12
4, 11
17, 29
50, 81
32, 28
16, 19
9, 20
15, 24
15, 13
9, 6
17, 13
39, 32
14, 23
5, 10
8, 17
27, 53
42, 57
18, 21
27, 49
366, 549
1458, 1869
962, 989
103, 100
12, 12
22, 39
63, 101
240, 324
145, 134
26, 24
8, 10
15, 12
7, 7
4, 3
10, 7
4, 17
4, 5
5, 10
7, 7
9, 8
4, 12
10, 16
5, 16
4, 7
8, 6
4, 4
6, 10
7, 5
4, 8
3, 5
6, 7
4, 8
1, 5
4, 6
6, 4
5, 4
1, 2
5, 3
5, 8
3, 3
1, 4
1, 3
4, 2
2, 5
5, 2
5, 4
1, 1
4, 6
2, 0
2, 4
4, 5
2, 3
4, 3
2, 7
0, 2
4, 1
2, 2
3, 2
3, 1
3, 1
0, 1
1, 0
1, 3
2, 3
2, 0
0, 0
1, 1
3, 1
1, 0
1, 0
1, 2
1, 1
2, 1
0, 0
0, 3
1, 0
0, 0
0, 1
0, 1
1, 0
2, 1
0, 0
0, 0
0, 1
2, 0
0, 1
0, 0
0, 0
0, 0
0, 1
1, 2
0, 1
0, 0
0, 0
0, 0
1, 0
0, 0
0, 1
0, 0
0, 1
0, 0
0, 1
0, 1
0, 0
0, 0
0, 0
0, 0
0, 0
0, 1
0, 1
0, 0
0, 1
1, 1
3, 0
1, 1
0, 0
0, 0
0, 0
0, 1
0, 0
1, 0
0, 0
1, 0
0, 0
0, 0
0, 0
0, 1
0, 0
0, 1
0, 0
0, 0
0, 0
0, 0
0, 0
0, 0
0, 0
0, 0
0, 0
0, 0
0, 0
0, 0
0, 0
0, 0
0, 0
0, 0
0, 0
0, 0
0, 0
0, 0
0, 0
0, 0
0, 0
0, 0
0, 0
0, 0
0, 0
0, 0
0, 0
0, 0
0, 0
0, 0
0, 0
0, 1
0, 0
0, 0
0, 0
0, 0
0, 0
0, 0
0, 0
0, 0
0, 0
0, 0
0, 0
0, 0
0, 0
0, 0
0, 0
0, 0
0, 0
0, 0
0, 0
0, 0
0, 0
0, 0
0, 0
0, 0
0, 0
0, 0
0, 0
0, 0
0, 0
0, 0
0, 0
0, 0
0, 0
0, 0
0, 0
0, 0
0, 0
0, 0
0, 0
0, 0
0, 0
0, 0
0, 0
0, 0
0, 0
0, 0
0, 0
0, 0
0, 0
0, 0
0, 0
0, 0
0, 0
0, 0
0, 0
0, 0
0, 0
0, 0
0, 0
0, 0
0, 0
0, 0
0, 0
0, 0
0, 0
0, 0
0, 0
0, 0
0, 0
0, 0
0, 0
0, 0
0, 0
0, 0
#ENDOFDATA     end of spectrum data