File: host_upload/02-11-2024/rqc/uplink1/ps__0567_0717304816_000rfs_shot_306.msa
#FORMAT      : EMSA/MAS spectral data file
#VERSION     : TC202v2.0 PIXL
#TITLE       : Novarupta (sol567) subset1
#DATE        : 02-11-2024      Date in the format DD-MMM-YYYY, for example 07-JUL-2010
#TIME        :             The time of day at which the spectrum was recorded, in 24-hour format
#OWNER       : PIXL Flight Model       (PIXL will use this to indicate which instrument took the data.)
#NPOINTS     : 4096     Number of data points in the spectrum (This can be zero for configuration only files)
#NCOLUMNS    : 2     Number of data columns in the spectrum (This can be zero for configuration only files)
#XUNITS      : eV
#YUNITS      : COUNTS
#DATATYPE    : YY
#XPERCHAN    : 7.862, 7.881   eV per channel (separate by commas if more than one detector)
#OFFSET      : 18.5, -22.4         eV of first channel  (separate by commas if more than one detector
#SIGNALTYPE  : XRF
#YP_TEMP     : 1.466
#LIVETIME    : 8.84094, 8.81129   seconds (separate by commas if more than one detector)
#REALTIME    : 10, 10.0   seconds (separate by commas if more than one detector)
#SPECTRUM    : start of spectrum data
0, 0
0, 0
0, 0
0, 0
0, 0
0, 0
0, 0
0, 2
0, 5
0, 7
2, 4
10, 12
8, 17
24, 17
45, 52
99, 131
440, 531
119, 106
30, 30
22, 20
56, 49
280, 313
105, 129
49, 74
223, 232
115, 102
58, 85
30, 38
9, 10
3, 16
19, 33
15, 19
9, 19
160, 267
301, 403
43, 52
45, 45
58, 66
14, 12
3, 6
15, 20
66, 78
36, 37
15, 16
13, 13
21, 15
13, 12
13, 16
18, 19
22, 26
26, 21
15, 9
15, 20
36, 39
47, 42
32, 27
26, 27
305, 496
1486, 1910
1023, 1080
115, 115
13, 22
14, 19
85, 89
229, 288
173, 165
18, 23
5, 7
12, 13
7, 10
5, 8
2, 2
4, 7
12, 6
4, 6
3, 9
9, 4
7, 8
6, 7
6, 16
8, 0
2, 10
8, 8
7, 2
7, 4
6, 5
2, 3
4, 5
4, 8
2, 5
4, 5
4, 5
2, 7
5, 3
9, 3
1, 2
1, 3
4, 2
1, 2
3, 6
1, 8
3, 1
3, 2
2, 3
2, 2
3, 4
1, 0
5, 0
1, 4
1, 1
0, 1
1, 7
4, 3
1, 2
1, 1
7, 2
3, 5
2, 1
1, 2
1, 5
1, 0
3, 0
2, 3
2, 2
0, 2
2, 2
3, 2
1, 2
0, 0
0, 1
1, 1
1, 1
2, 0
0, 1
0, 1
3, 2
0, 2
0, 0
0, 0
0, 0
1, 0
0, 1
1, 0
0, 0
0, 0
0, 0
0, 1
1, 0
0, 0
0, 2
0, 1
1, 0
0, 1
0, 1
0, 0
1, 0
0, 1
0, 1
0, 1
0, 0
0, 1
0, 0
0, 0
0, 0
1, 0
1, 0
1, 0
0, 0
1, 0
0, 0
0, 0
1, 0
0, 0
0, 0
0, 0
0, 0
0, 0
0, 0
0, 0
0, 0
0, 0
0, 0
0, 0
0, 0
0, 1
0, 0
0, 0
0, 0
0, 0
0, 0
0, 0
0, 0
0, 0
0, 0
0, 0
1, 0
0, 0
0, 0
0, 0
0, 0
0, 0
0, 0
0, 1
0, 0
0, 0
0, 0
0, 0
1, 0
0, 0
0, 0
0, 0
0, 0
0, 0
0, 0
0, 0
0, 0
0, 0
0, 0
0, 0
0, 0
0, 0
0, 0
0, 0
0, 0
0, 0
0, 0
0, 0
0, 0
0, 0
0, 0
0, 0
0, 0
0, 0
0, 0
0, 0
0, 0
0, 0
0, 0
0, 0
0, 0
0, 0
0, 0
0, 0
0, 0
0, 0
0, 0
0, 0
0, 0
0, 0
0, 0
0, 0
0, 0
0, 0
0, 0
0, 0
0, 0
0, 0
0, 0
0, 0
0, 0
0, 0
0, 0
0, 0
0, 0
0, 0
0, 0
0, 0
0, 0
0, 0
0, 0
0, 0
0, 0
0, 0
0, 0
0, 0
0, 0
0, 0
0, 0
0, 0
0, 0
0, 0
0, 0
0, 0
0, 0
0, 0
0, 0
0, 0
0, 0
0, 0
0, 0
0, 0
0, 0
0, 0
0, 0
#ENDOFDATA     end of spectrum data