File: host_upload/02-11-2024/rqc/uplink1/ps__0567_0717304816_000rfs_shot_470.msa
#FORMAT      : EMSA/MAS spectral data file
#VERSION     : TC202v2.0 PIXL
#TITLE       : Novarupta (sol567) subset1
#DATE        : 02-11-2024      Date in the format DD-MMM-YYYY, for example 07-JUL-2010
#TIME        :             The time of day at which the spectrum was recorded, in 24-hour format
#OWNER       : PIXL Flight Model       (PIXL will use this to indicate which instrument took the data.)
#NPOINTS     : 4096     Number of data points in the spectrum (This can be zero for configuration only files)
#NCOLUMNS    : 2     Number of data columns in the spectrum (This can be zero for configuration only files)
#XUNITS      : eV
#YUNITS      : COUNTS
#DATATYPE    : YY
#XPERCHAN    : 7.862, 7.881   eV per channel (separate by commas if more than one detector)
#OFFSET      : 18.5, -22.4         eV of first channel  (separate by commas if more than one detector
#SIGNALTYPE  : XRF
#YP_TEMP     : 1.915
#LIVETIME    : 8.83397, 8.80724   seconds (separate by commas if more than one detector)
#REALTIME    : 10, 10.0   seconds (separate by commas if more than one detector)
#SPECTRUM    : start of spectrum data
0, 0
0, 0
0, 0
0, 0
0, 0
0, 0
0, 0
0, 1
5, 3
2, 5
4, 2
8, 6
15, 15
21, 30
26, 43
90, 124
490, 527
138, 95
33, 39
31, 21
44, 59
292, 329
97, 132
60, 68
170, 216
106, 114
62, 70
29, 22
10, 14
8, 5
28, 41
17, 26
11, 24
202, 281
337, 352
50, 61
38, 40
56, 46
17, 13
12, 12
18, 23
59, 66
29, 42
9, 9
10, 16
12, 21
10, 18
13, 11
15, 18
23, 41
19, 20
15, 27
20, 12
20, 29
51, 50
16, 22
30, 31
326, 478
1584, 1923
1076, 1079
144, 113
13, 21
23, 19
80, 109
206, 309
149, 170
17, 15
12, 9
8, 15
13, 5
5, 5
9, 4
9, 10
6, 13
7, 4
6, 10
5, 6
9, 11
7, 9
9, 21
5, 8
8, 4
1, 4
3, 3
5, 7
7, 7
4, 5
7, 7
6, 5
5, 2
4, 9
4, 5
4, 3
0, 6
5, 3
4, 7
1, 7
2, 3
1, 3
3, 2
5, 4
0, 3
3, 2
3, 1
4, 1
2, 3
5, 5
1, 2
4, 3
2, 5
0, 2
0, 4
1, 4
1, 2
3, 2
0, 3
0, 5
3, 2
2, 3
3, 2
1, 2
0, 5
0, 2
1, 3
3, 1
2, 0
2, 1
0, 4
0, 0
0, 0
1, 0
1, 2
0, 2
4, 1
1, 2
1, 2
2, 2
0, 1
1, 0
1, 0
0, 1
0, 2
0, 3
0, 0
1, 1
1, 1
0, 0
1, 0
0, 0
1, 0
0, 0
0, 1
1, 0
0, 1
0, 0
0, 0
1, 0
0, 0
0, 0
1, 0
0, 0
1, 0
0, 1
0, 0
0, 0
0, 0
0, 0
0, 0
1, 1
0, 0
0, 0
0, 0
0, 1
0, 0
1, 0
0, 0
0, 0
0, 0
0, 0
0, 1
0, 0
0, 0
0, 0
0, 0
0, 1
0, 0
0, 0
0, 0
0, 0
0, 0
0, 0
0, 0
0, 1
1, 0
0, 0
0, 0
0, 0
1, 0
0, 0
0, 0
0, 0
0, 0
0, 0
0, 0
0, 1
0, 0
0, 1
1, 0
0, 0
0, 0
0, 0
0, 0
0, 0
0, 0
0, 0
0, 0
0, 0
0, 0
0, 0
0, 0
0, 0
0, 0
0, 0
0, 0
0, 0
0, 0
0, 0
0, 0
0, 0
0, 0
0, 0
0, 0
0, 0
0, 0
0, 0
0, 0
0, 0
0, 0
0, 0
0, 0
0, 0
0, 0
0, 0
0, 0
0, 0
0, 0
0, 0
0, 0
0, 0
0, 0
0, 0
0, 0
0, 0
0, 0
0, 0
0, 0
0, 0
0, 0
0, 0
0, 0
0, 0
0, 0
0, 0
0, 0
0, 0
0, 0
0, 0
0, 0
0, 0
0, 0
0, 0
0, 0
0, 0
0, 0
0, 0
0, 0
0, 0
0, 0
0, 0
0, 0
0, 0
0, 0
0, 0
0, 0
0, 0
0, 0
0, 0
0, 0
0, 0
0, 0
0, 0
0, 0
0, 0
0, 0
#ENDOFDATA     end of spectrum data