File: host_upload/02-11-2024/rqc/uplink1/ps__0567_0717304816_000rfs_shot_483.msa
#FORMAT      : EMSA/MAS spectral data file
#VERSION     : TC202v2.0 PIXL
#TITLE       : Novarupta (sol567) subset1
#DATE        : 02-11-2024      Date in the format DD-MMM-YYYY, for example 07-JUL-2010
#TIME        :             The time of day at which the spectrum was recorded, in 24-hour format
#OWNER       : PIXL Flight Model       (PIXL will use this to indicate which instrument took the data.)
#NPOINTS     : 4096     Number of data points in the spectrum (This can be zero for configuration only files)
#NCOLUMNS    : 2     Number of data columns in the spectrum (This can be zero for configuration only files)
#XUNITS      : eV
#YUNITS      : COUNTS
#DATATYPE    : YY
#XPERCHAN    : 7.862, 7.881   eV per channel (separate by commas if more than one detector)
#OFFSET      : 18.5, -22.4         eV of first channel  (separate by commas if more than one detector
#SIGNALTYPE  : XRF
#YP_TEMP     : 2.107
#LIVETIME    : 8.83311, 8.64796   seconds (separate by commas if more than one detector)
#REALTIME    : 10, 10.0   seconds (separate by commas if more than one detector)
#SPECTRUM    : start of spectrum data
0, 0
0, 0
0, 0
0, 0
0, 0
0, 0
0, 1
0, 1
3, 3
4, 6
7, 5
5, 6
9, 10
26, 29
40, 45
103, 113
478, 518
106, 125
24, 31
15, 16
59, 52
277, 336
122, 114
74, 81
210, 254
113, 130
63, 72
21, 28
14, 15
7, 5
28, 29
16, 20
21, 22
180, 206
287, 371
47, 55
32, 43
38, 56
10, 19
11, 10
16, 28
48, 65
44, 30
22, 17
16, 14
20, 17
14, 12
11, 8
13, 12
27, 35
28, 29
17, 11
5, 15
28, 34
49, 57
26, 24
23, 33
344, 505
1615, 1941
1051, 1002
128, 100
16, 13
31, 27
72, 115
253, 311
183, 164
21, 20
11, 6
12, 9
7, 13
7, 7
7, 5
5, 10
6, 5
2, 3
11, 9
6, 8
2, 8
7, 6
10, 13
3, 5
9, 8
6, 6
6, 11
4, 6
6, 5
5, 5
4, 8
7, 4
11, 7
4, 4
7, 6
6, 6
4, 2
2, 9
4, 3
4, 5
2, 7
5, 0
3, 2
0, 4
2, 4
2, 3
0, 4
2, 4
4, 3
1, 3
5, 2
2, 3
5, 2
2, 3
1, 5
3, 2
3, 1
3, 0
3, 7
4, 5
4, 5
1, 2
1, 1
1, 0
2, 1
0, 2
2, 4
2, 0
2, 0
2, 3
2, 1
0, 1
4, 0
1, 2
1, 0
0, 1
1, 1
0, 2
0, 0
0, 1
0, 2
1, 0
0, 0
1, 3
1, 1
0, 1
0, 0
0, 1
0, 0
0, 0
0, 0
1, 0
1, 0
1, 1
1, 0
1, 0
0, 1
2, 0
0, 0
0, 0
0, 0
1, 1
1, 0
0, 0
1, 0
0, 0
0, 0
0, 0
0, 1
1, 0
0, 0
0, 1
0, 0
0, 1
0, 0
0, 0
0, 0
0, 0
0, 0
0, 0
0, 0
1, 0
0, 0
0, 0
1, 0
0, 0
0, 1
0, 1
0, 0
0, 0
0, 0
0, 0
0, 0
0, 0
0, 0
0, 0
0, 0
0, 0
0, 0
0, 0
0, 0
0, 0
0, 0
0, 0
0, 0
0, 0
0, 0
0, 1
0, 0
0, 0
0, 0
0, 0
0, 0
1, 0
0, 0
0, 0
0, 0
0, 0
0, 0
0, 0
0, 0
0, 0
0, 0
0, 0
0, 0
0, 0
0, 0
0, 0
0, 0
0, 0
0, 0
0, 0
0, 0
0, 0
0, 0
0, 0
0, 0
0, 0
0, 0
0, 0
0, 0
0, 0
0, 0
0, 0
0, 0
0, 0
0, 0
0, 0
0, 0
0, 0
0, 0
0, 0
0, 0
0, 0
0, 0
0, 0
0, 0
0, 0
0, 0
0, 0
0, 0
0, 0
0, 0
0, 0
0, 0
0, 0
0, 0
0, 0
0, 0
0, 0
0, 0
0, 0
0, 0
0, 0
0, 0
0, 0
0, 0
0, 0
0, 0
0, 0
0, 0
0, 0
0, 0
0, 0
0, 0
0, 0
0, 0
0, 0
0, 0
0, 0
0, 0
0, 0
0, 0
0, 0
0, 0
0, 0
0, 0
#ENDOFDATA     end of spectrum data