File: host_upload/02-11-2024/rqc/uplink1/ps__0567_0717304816_000rfs_shot_346.msa
#FORMAT      : EMSA/MAS spectral data file
#VERSION     : TC202v2.0 PIXL
#TITLE       : Novarupta (sol567) subset1
#DATE        : 02-11-2024      Date in the format DD-MMM-YYYY, for example 07-JUL-2010
#TIME        :             The time of day at which the spectrum was recorded, in 24-hour format
#OWNER       : PIXL Flight Model       (PIXL will use this to indicate which instrument took the data.)
#NPOINTS     : 4096     Number of data points in the spectrum (This can be zero for configuration only files)
#NCOLUMNS    : 2     Number of data columns in the spectrum (This can be zero for configuration only files)
#XUNITS      : eV
#YUNITS      : COUNTS
#DATATYPE    : YY
#XPERCHAN    : 7.862, 7.881   eV per channel (separate by commas if more than one detector)
#OFFSET      : 18.5, -22.4         eV of first channel  (separate by commas if more than one detector
#SIGNALTYPE  : XRF
#YP_TEMP     : 1.369
#LIVETIME    : 8.83851, 8.81901   seconds (separate by commas if more than one detector)
#REALTIME    : 10, 10.0   seconds (separate by commas if more than one detector)
#SPECTRUM    : start of spectrum data
0, 0
0, 0
0, 0
0, 0
0, 0
0, 0
0, 0
0, 0
2, 4
3, 2
6, 0
14, 8
14, 12
27, 24
33, 45
110, 110
472, 518
108, 141
27, 34
26, 28
40, 47
272, 322
120, 129
64, 62
186, 207
105, 107
74, 82
30, 31
6, 10
8, 11
18, 35
15, 12
19, 18
179, 238
305, 360
40, 51
26, 40
53, 53
13, 10
2, 6
17, 30
53, 75
32, 33
19, 13
14, 18
17, 31
8, 11
12, 11
11, 21
25, 46
24, 21
6, 7
10, 9
22, 31
28, 50
23, 28
24, 39
347, 453
1544, 1770
1030, 1073
96, 109
17, 27
16, 17
97, 83
265, 268
150, 174
17, 21
11, 3
12, 19
8, 5
11, 8
2, 4
7, 5
10, 5
10, 5
7, 13
7, 7
12, 10
11, 14
11, 12
8, 10
5, 7
3, 3
6, 5
4, 5
3, 1
5, 3
5, 9
9, 7
3, 8
2, 11
6, 3
4, 6
5, 5
4, 6
4, 2
5, 7
2, 5
3, 3
8, 1
4, 3
5, 6
8, 2
3, 5
1, 0
1, 3
3, 2
0, 3
3, 2
1, 5
1, 2
1, 4
2, 1
0, 2
6, 5
4, 5
3, 1
2, 3
2, 5
5, 1
4, 0
5, 3
4, 0
1, 2
3, 1
0, 2
3, 2
2, 1
0, 0
1, 0
0, 0
2, 0
1, 0
1, 1
2, 1
0, 1
1, 1
0, 0
1, 1
1, 1
3, 1
1, 1
1, 1
2, 0
1, 0
0, 1
0, 0
0, 1
1, 0
0, 0
0, 0
1, 0
1, 2
0, 0
0, 0
1, 0
0, 0
0, 1
0, 2
0, 0
0, 0
0, 1
0, 1
0, 0
0, 0
0, 1
0, 0
1, 1
2, 0
0, 0
1, 0
0, 0
0, 0
0, 1
0, 0
0, 0
1, 0
0, 0
2, 0
0, 0
0, 0
0, 0
0, 0
0, 0
0, 0
0, 1
0, 0
0, 0
0, 0
0, 0
0, 0
0, 0
0, 0
0, 0
0, 0
0, 1
0, 0
0, 0
0, 0
0, 0
0, 0
0, 0
0, 0
0, 0
0, 0
0, 0
0, 0
0, 0
0, 0
0, 0
0, 0
0, 0
0, 0
0, 0
0, 0
0, 0
0, 0
0, 0
0, 0
0, 0
0, 0
0, 0
0, 0
0, 0
0, 0
0, 0
0, 0
0, 0
0, 0
0, 0
0, 0
0, 0
0, 0
0, 0
0, 0
0, 0
0, 0
0, 0
0, 0
0, 0
0, 0
0, 0
0, 0
0, 0
0, 0
0, 0
0, 0
0, 0
0, 0
0, 0
0, 0
0, 0
0, 0
0, 0
0, 0
0, 0
0, 0
0, 0
0, 0
0, 0
0, 0
0, 0
0, 0
0, 0
0, 0
0, 0
0, 0
0, 0
0, 0
0, 0
0, 0
0, 0
0, 0
0, 0
0, 0
0, 0
0, 0
0, 0
0, 0
0, 0
0, 0
0, 0
0, 0
0, 0
0, 0
0, 0
0, 0
0, 0
0, 0
0, 0
0, 0
0, 0
0, 0
0, 0
#ENDOFDATA     end of spectrum data