File: host_upload/02-11-2024/rqc/uplink1/ps__0567_0717304816_000rfs_shot_12.msa
#FORMAT      : EMSA/MAS spectral data file
#VERSION     : TC202v2.0 PIXL
#TITLE       : Novarupta (sol567) subset1
#DATE        : 02-11-2024      Date in the format DD-MMM-YYYY, for example 07-JUL-2010
#TIME        :             The time of day at which the spectrum was recorded, in 24-hour format
#OWNER       : PIXL Flight Model       (PIXL will use this to indicate which instrument took the data.)
#NPOINTS     : 4096     Number of data points in the spectrum (This can be zero for configuration only files)
#NCOLUMNS    : 2     Number of data columns in the spectrum (This can be zero for configuration only files)
#XUNITS      : eV
#YUNITS      : COUNTS
#DATATYPE    : YY
#XPERCHAN    : 7.862, 7.881   eV per channel (separate by commas if more than one detector)
#OFFSET      : 18.5, -22.4         eV of first channel  (separate by commas if more than one detector
#SIGNALTYPE  : XRF
#YP_TEMP     : -4.371
#LIVETIME    : 8.84365, 8.82156   seconds (separate by commas if more than one detector)
#REALTIME    : 10, 10.0   seconds (separate by commas if more than one detector)
#SPECTRUM    : start of spectrum data
0, 0
0, 0
0, 0
0, 0
0, 0
0, 0
0, 0
0, 0
2, 2
4, 2
3, 7
3, 12
11, 13
23, 21
36, 46
141, 161
404, 485
95, 101
30, 31
16, 28
50, 84
252, 283
95, 97
87, 104
174, 222
76, 96
52, 71
33, 29
8, 2
12, 10
23, 31
6, 17
26, 39
249, 271
238, 266
37, 42
39, 50
45, 35
11, 18
9, 12
25, 34
47, 61
29, 31
10, 14
13, 18
21, 23
11, 14
14, 8
8, 19
21, 39
14, 25
12, 3
20, 20
54, 50
47, 37
22, 19
61, 80
641, 808
1545, 1872
640, 684
70, 59
13, 23
29, 43
159, 177
230, 254
114, 89
12, 16
7, 7
10, 12
6, 8
5, 10
6, 10
3, 5
5, 4
6, 5
7, 6
2, 4
6, 9
6, 21
7, 10
2, 5
6, 4
4, 2
6, 4
2, 5
3, 6
3, 5
5, 5
5, 4
1, 4
2, 5
3, 4
3, 3
4, 3
3, 6
2, 5
3, 9
5, 6
6, 2
2, 2
3, 4
6, 2
1, 4
1, 0
4, 2
2, 4
3, 1
3, 7
2, 4
3, 1
1, 3
0, 3
1, 3
1, 1
1, 3
1, 1
4, 5
2, 2
0, 2
1, 1
2, 1
3, 0
2, 2
4, 1
1, 1
0, 0
1, 2
2, 3
1, 0
0, 0
1, 0
2, 1
1, 2
2, 2
0, 1
0, 1
3, 0
1, 2
0, 0
2, 1
0, 1
1, 0
0, 1
0, 1
0, 0
0, 0
1, 1
0, 0
0, 0
0, 0
0, 0
1, 1
0, 1
0, 1
0, 0
1, 0
0, 0
1, 1
0, 0
0, 0
0, 0
0, 0
0, 0
2, 0
0, 0
0, 0
0, 0
1, 1
1, 0
0, 1
0, 0
0, 0
0, 0
0, 0
1, 0
2, 0
0, 0
0, 0
0, 0
0, 0
0, 0
0, 0
0, 0
1, 0
0, 1
0, 0
0, 0
0, 0
0, 0
0, 0
0, 1
1, 0
0, 0
0, 0
0, 0
0, 0
0, 0
0, 0
0, 0
0, 0
0, 0
0, 0
1, 0
0, 0
0, 0
0, 0
0, 0
0, 0
0, 0
0, 0
0, 0
1, 0
0, 0
0, 0
0, 0
0, 0
0, 0
0, 0
0, 0
0, 0
0, 0
0, 0
0, 0
0, 0
0, 0
0, 0
0, 0
0, 0
0, 0
0, 0
0, 0
0, 0
0, 0
0, 0
0, 0
0, 0
0, 0
0, 0
0, 0
0, 0
0, 0
0, 0
0, 0
0, 0
0, 0
0, 0
0, 0
0, 0
0, 0
0, 0
0, 0
0, 0
0, 0
0, 0
0, 0
0, 0
0, 0
0, 0
0, 0
0, 0
0, 0
0, 0
0, 0
0, 0
0, 0
0, 0
0, 0
0, 0
0, 0
0, 0
0, 0
0, 0
0, 0
0, 0
0, 0
0, 0
0, 0
0, 0
0, 0
0, 0
0, 0
0, 0
0, 0
0, 0
0, 0
0, 0
0, 0
0, 0
0, 0
0, 0
0, 0
0, 0
0, 0
0, 0
#ENDOFDATA     end of spectrum data