File: host_upload/02-11-2024/rqc/uplink1/ps__0567_0717304816_000rfs_shot_484.msa
#FORMAT      : EMSA/MAS spectral data file
#VERSION     : TC202v2.0 PIXL
#TITLE       : Novarupta (sol567) subset1
#DATE        : 02-11-2024      Date in the format DD-MMM-YYYY, for example 07-JUL-2010
#TIME        :             The time of day at which the spectrum was recorded, in 24-hour format
#OWNER       : PIXL Flight Model       (PIXL will use this to indicate which instrument took the data.)
#NPOINTS     : 4096     Number of data points in the spectrum (This can be zero for configuration only files)
#NCOLUMNS    : 2     Number of data columns in the spectrum (This can be zero for configuration only files)
#XUNITS      : eV
#YUNITS      : COUNTS
#DATATYPE    : YY
#XPERCHAN    : 7.862, 7.881   eV per channel (separate by commas if more than one detector)
#OFFSET      : 18.5, -22.4         eV of first channel  (separate by commas if more than one detector
#SIGNALTYPE  : XRF
#YP_TEMP     : 1.947
#LIVETIME    : 8.82431, 8.81337   seconds (separate by commas if more than one detector)
#REALTIME    : 10, 10.0   seconds (separate by commas if more than one detector)
#SPECTRUM    : start of spectrum data
0, 0
0, 0
0, 0
0, 0
0, 0
0, 0
0, 0
0, 1
4, 7
3, 5
3, 6
4, 12
17, 13
16, 26
48, 56
118, 109
445, 549
101, 128
17, 45
24, 14
49, 61
273, 326
113, 109
60, 89
231, 281
110, 118
51, 66
22, 35
8, 6
16, 11
29, 42
18, 18
20, 19
188, 250
298, 368
53, 48
35, 35
47, 53
13, 11
9, 14
15, 27
58, 61
37, 37
13, 12
11, 14
10, 21
13, 13
4, 9
13, 17
23, 36
25, 33
16, 11
15, 11
43, 31
56, 55
28, 27
16, 32
305, 488
1583, 1879
1054, 1075
136, 118
13, 14
26, 22
79, 96
244, 319
152, 167
24, 19
14, 9
17, 15
11, 12
8, 3
6, 7
3, 9
7, 10
11, 6
9, 6
4, 9
7, 13
12, 8
9, 11
4, 4
8, 7
5, 3
6, 7
7, 5
3, 7
9, 3
6, 7
8, 3
6, 6
3, 4
6, 7
2, 5
3, 6
3, 4
4, 3
3, 4
3, 3
1, 1
2, 2
3, 3
3, 4
4, 3
5, 1
3, 0
2, 1
6, 2
3, 3
4, 1
2, 4
2, 4
1, 4
3, 3
1, 3
0, 0
2, 4
4, 1
2, 1
1, 1
3, 1
4, 1
1, 1
2, 2
2, 0
2, 1
0, 2
0, 0
1, 5
1, 3
1, 0
0, 2
1, 1
1, 0
0, 1
0, 0
1, 0
0, 3
2, 1
0, 1
0, 0
0, 0
1, 0
0, 0
0, 1
0, 2
0, 1
1, 0
0, 0
0, 0
1, 0
0, 0
1, 0
1, 0
0, 0
0, 0
0, 0
0, 0
1, 0
0, 0
1, 0
0, 0
0, 0
1, 0
0, 0
0, 0
0, 0
0, 0
0, 0
0, 0
0, 1
0, 2
0, 0
0, 0
0, 0
0, 0
0, 0
0, 0
0, 1
0, 0
0, 1
0, 0
0, 0
0, 0
0, 1
0, 0
0, 0
0, 0
0, 0
0, 0
0, 0
1, 0
0, 0
0, 0
0, 1
0, 0
0, 0
1, 0
0, 0
0, 0
0, 0
1, 0
0, 0
0, 0
0, 0
0, 0
0, 0
0, 1
0, 0
0, 0
0, 0
0, 0
0, 0
0, 0
0, 1
0, 0
0, 0
0, 0
0, 0
0, 0
0, 0
0, 0
0, 0
0, 0
0, 0
0, 0
0, 0
0, 0
0, 0
0, 0
0, 0
0, 0
0, 0
0, 0
0, 0
0, 0
0, 0
0, 0
0, 0
0, 0
0, 0
0, 0
0, 0
0, 0
0, 0
0, 0
0, 0
0, 0
0, 0
0, 0
0, 0
0, 0
0, 0
0, 0
0, 0
0, 0
0, 0
0, 0
0, 0
0, 0
0, 0
0, 0
0, 0
0, 0
0, 0
0, 0
0, 0
0, 0
0, 0
0, 0
0, 0
0, 0
0, 0
0, 0
0, 0
0, 0
0, 0
0, 0
0, 0
0, 0
0, 0
0, 0
0, 0
0, 0
0, 0
0, 0
0, 0
0, 0
0, 0
0, 0
0, 0
0, 0
0, 0
0, 0
0, 0
#ENDOFDATA     end of spectrum data