File: host_upload/02-11-2024/rqc/uplink1/ps__0567_0717304816_000rfs_shot_161.msa
#FORMAT      : EMSA/MAS spectral data file
#VERSION     : TC202v2.0 PIXL
#TITLE       : Novarupta (sol567) subset1
#DATE        : 02-11-2024      Date in the format DD-MMM-YYYY, for example 07-JUL-2010
#TIME        :             The time of day at which the spectrum was recorded, in 24-hour format
#OWNER       : PIXL Flight Model       (PIXL will use this to indicate which instrument took the data.)
#NPOINTS     : 4096     Number of data points in the spectrum (This can be zero for configuration only files)
#NCOLUMNS    : 2     Number of data columns in the spectrum (This can be zero for configuration only files)
#XUNITS      : eV
#YUNITS      : COUNTS
#DATATYPE    : YY
#XPERCHAN    : 7.862, 7.881   eV per channel (separate by commas if more than one detector)
#OFFSET      : 18.5, -22.4         eV of first channel  (separate by commas if more than one detector
#SIGNALTYPE  : XRF
#YP_TEMP     : -0.17
#LIVETIME    : 8.82464, 8.82009   seconds (separate by commas if more than one detector)
#REALTIME    : 10, 10.0   seconds (separate by commas if more than one detector)
#SPECTRUM    : start of spectrum data
0, 0
0, 0
0, 0
0, 0
0, 0
0, 0
0, 0
1, 0
4, 3
0, 2
4, 2
15, 7
14, 9
23, 15
40, 35
124, 133
470, 488
128, 105
28, 26
23, 26
59, 66
289, 341
128, 110
80, 67
197, 269
126, 111
75, 80
29, 28
19, 12
20, 8
28, 34
20, 14
23, 27
240, 253
338, 315
52, 49
32, 40
52, 50
12, 19
7, 11
13, 22
48, 75
39, 35
19, 18
14, 17
19, 12
15, 12
16, 12
13, 14
24, 25
28, 16
15, 15
15, 18
43, 39
57, 47
19, 17
38, 35
426, 461
1658, 1833
1035, 982
89, 97
13, 14
12, 19
87, 106
268, 263
165, 146
19, 21
8, 9
11, 14
6, 13
4, 9
6, 11
4, 6
3, 3
3, 3
6, 8
7, 9
10, 9
8, 10
7, 5
14, 7
10, 7
7, 1
4, 7
6, 4
9, 5
5, 12
7, 8
3, 7
4, 5
6, 7
4, 8
5, 1
2, 4
3, 4
4, 6
2, 2
4, 2
1, 5
3, 5
3, 5
1, 1
4, 4
4, 4
4, 1
1, 3
0, 2
2, 2
4, 6
4, 3
2, 2
5, 3
0, 1
1, 0
2, 3
2, 0
7, 1
4, 2
1, 1
1, 4
1, 2
0, 0
1, 4
3, 2
1, 1
1, 2
2, 0
2, 0
1, 0
0, 2
1, 2
2, 2
1, 1
1, 0
1, 2
0, 3
0, 0
0, 1
0, 1
0, 0
0, 1
0, 0
0, 0
4, 2
1, 1
0, 0
0, 0
0, 1
2, 2
0, 0
0, 0
1, 1
1, 1
0, 0
0, 0
0, 0
0, 0
0, 0
1, 0
0, 0
0, 1
1, 0
0, 0
0, 0
0, 0
0, 0
0, 0
0, 0
1, 0
0, 0
0, 0
1, 1
0, 0
0, 0
0, 0
0, 0
0, 0
0, 0
0, 0
0, 0
0, 1
0, 0
0, 0
0, 0
1, 0
0, 0
0, 0
0, 0
2, 0
0, 0
0, 0
0, 0
0, 0
0, 0
0, 0
0, 0
0, 0
0, 0
0, 0
0, 0
0, 0
0, 0
0, 0
0, 0
0, 0
0, 0
0, 0
0, 0
0, 0
0, 0
0, 0
0, 0
0, 0
0, 0
0, 0
0, 0
0, 0
0, 0
0, 0
0, 0
0, 0
0, 0
0, 0
0, 0
0, 0
0, 0
0, 0
0, 0
0, 0
0, 0
0, 0
0, 0
0, 0
0, 0
0, 0
0, 0
0, 0
0, 0
0, 0
0, 0
0, 0
0, 0
0, 0
0, 0
0, 0
0, 0
0, 0
0, 0
0, 0
0, 0
0, 0
0, 0
0, 0
0, 0
0, 0
0, 0
0, 0
0, 0
0, 0
0, 0
0, 0
0, 0
0, 0
0, 0
0, 0
0, 0
0, 0
0, 0
0, 0
0, 0
0, 0
0, 0
0, 0
0, 0
0, 0
0, 0
0, 0
0, 0
0, 0
0, 0
0, 0
0, 0
0, 0
0, 0
0, 0
0, 0
0, 0
0, 0
0, 0
0, 0
0, 0
0, 0
0, 0
0, 0
#ENDOFDATA     end of spectrum data