File: host_upload/02-11-2024/rqc/uplink1/ps__0567_0717304816_000rfs_shot_127.msa
#FORMAT      : EMSA/MAS spectral data file
#VERSION     : TC202v2.0 PIXL
#TITLE       : Novarupta (sol567) subset1
#DATE        : 02-11-2024      Date in the format DD-MMM-YYYY, for example 07-JUL-2010
#TIME        :             The time of day at which the spectrum was recorded, in 24-hour format
#OWNER       : PIXL Flight Model       (PIXL will use this to indicate which instrument took the data.)
#NPOINTS     : 4096     Number of data points in the spectrum (This can be zero for configuration only files)
#NCOLUMNS    : 2     Number of data columns in the spectrum (This can be zero for configuration only files)
#XUNITS      : eV
#YUNITS      : COUNTS
#DATATYPE    : YY
#XPERCHAN    : 7.862, 7.881   eV per channel (separate by commas if more than one detector)
#OFFSET      : 18.5, -22.4         eV of first channel  (separate by commas if more than one detector
#SIGNALTYPE  : XRF
#YP_TEMP     : -0.234
#LIVETIME    : 8.8332, 8.81713   seconds (separate by commas if more than one detector)
#REALTIME    : 10, 10.0   seconds (separate by commas if more than one detector)
#SPECTRUM    : start of spectrum data
0, 0
0, 0
0, 0
0, 0
0, 0
0, 0
0, 1
0, 0
2, 2
1, 5
3, 2
11, 12
10, 11
23, 28
44, 32
122, 142
475, 565
109, 109
32, 38
19, 26
36, 53
285, 347
121, 103
56, 67
195, 229
97, 127
52, 70
24, 27
6, 13
8, 9
14, 32
6, 19
12, 22
196, 257
289, 326
51, 41
42, 37
49, 77
14, 18
6, 7
12, 30
64, 69
26, 40
10, 13
12, 17
21, 19
10, 10
10, 8
19, 8
22, 51
29, 25
18, 10
10, 16
32, 43
46, 51
26, 22
32, 39
431, 525
1567, 1934
959, 1014
101, 104
16, 13
20, 25
83, 124
235, 287
147, 140
14, 22
7, 14
13, 14
10, 9
2, 7
3, 5
4, 4
7, 9
7, 10
3, 15
4, 8
8, 2
11, 6
9, 12
5, 6
7, 2
3, 2
3, 7
5, 5
1, 4
5, 7
1, 7
2, 6
5, 5
3, 5
7, 5
4, 2
3, 4
5, 5
1, 3
2, 4
3, 4
6, 3
6, 1
2, 2
1, 3
1, 3
6, 2
2, 2
1, 2
3, 1
6, 7
5, 3
4, 1
3, 1
2, 6
1, 1
2, 3
3, 2
2, 1
4, 3
3, 3
1, 2
3, 1
1, 1
3, 2
1, 1
3, 2
1, 4
1, 1
0, 0
0, 1
2, 0
2, 2
0, 3
0, 3
0, 0
0, 3
0, 0
2, 1
0, 0
0, 2
0, 0
2, 1
0, 3
0, 1
2, 0
0, 0
0, 2
3, 1
0, 0
0, 0
1, 0
1, 0
0, 0
0, 0
0, 1
0, 2
0, 0
0, 1
0, 0
0, 0
1, 0
0, 1
0, 0
0, 1
0, 2
0, 0
0, 0
0, 0
0, 0
0, 1
0, 0
0, 0
0, 0
0, 0
0, 0
1, 1
0, 0
0, 1
0, 0
0, 0
0, 0
0, 0
0, 0
0, 0
0, 0
0, 0
0, 0
0, 0
0, 0
0, 0
0, 0
0, 0
1, 1
0, 0
0, 0
0, 0
0, 0
0, 0
1, 0
0, 0
0, 0
0, 0
0, 0
0, 0
0, 0
0, 0
0, 0
0, 0
0, 0
0, 0
0, 0
0, 0
0, 0
0, 0
0, 0
0, 0
0, 0
0, 0
0, 0
0, 0
0, 0
0, 0
0, 0
0, 0
0, 0
0, 0
0, 0
0, 0
0, 0
0, 0
0, 0
0, 0
0, 0
0, 0
0, 0
0, 0
0, 0
0, 0
0, 0
0, 0
0, 0
0, 0
0, 0
0, 0
0, 0
0, 0
0, 0
0, 0
0, 0
0, 0
0, 0
0, 0
0, 0
0, 0
0, 0
0, 0
0, 0
0, 0
0, 0
0, 0
0, 0
0, 0
0, 0
0, 0
0, 0
0, 0
0, 0
0, 0
0, 0
0, 0
0, 0
0, 0
0, 0
0, 0
0, 0
0, 0
0, 0
0, 0
0, 0
0, 0
0, 0
0, 0
0, 0
0, 0
0, 0
0, 0
0, 0
0, 0
0, 0
0, 0
0, 0
0, 0
0, 0
0, 0
0, 0
0, 0
#ENDOFDATA     end of spectrum data