File: host_upload/02-11-2024/rqc/uplink1/ps__0567_0717304816_000rfs_shot_475.msa
#FORMAT      : EMSA/MAS spectral data file
#VERSION     : TC202v2.0 PIXL
#TITLE       : Novarupta (sol567) subset1
#DATE        : 02-11-2024      Date in the format DD-MMM-YYYY, for example 07-JUL-2010
#TIME        :             The time of day at which the spectrum was recorded, in 24-hour format
#OWNER       : PIXL Flight Model       (PIXL will use this to indicate which instrument took the data.)
#NPOINTS     : 4096     Number of data points in the spectrum (This can be zero for configuration only files)
#NCOLUMNS    : 2     Number of data columns in the spectrum (This can be zero for configuration only files)
#XUNITS      : eV
#YUNITS      : COUNTS
#DATATYPE    : YY
#XPERCHAN    : 7.862, 7.881   eV per channel (separate by commas if more than one detector)
#OFFSET      : 18.5, -22.4         eV of first channel  (separate by commas if more than one detector
#SIGNALTYPE  : XRF
#YP_TEMP     : 2.267
#LIVETIME    : 8.82248, 8.82361   seconds (separate by commas if more than one detector)
#REALTIME    : 10, 10.0   seconds (separate by commas if more than one detector)
#SPECTRUM    : start of spectrum data
0, 0
0, 0
0, 0
0, 0
0, 0
0, 0
0, 0
1, 2
4, 3
1, 3
1, 5
13, 12
12, 5
24, 17
40, 35
109, 112
529, 507
118, 114
36, 31
24, 29
64, 55
313, 342
129, 126
60, 70
227, 236
112, 121
79, 75
23, 26
7, 14
9, 10
22, 33
15, 15
16, 16
215, 225
358, 313
53, 61
36, 44
64, 41
13, 9
13, 5
21, 24
57, 52
40, 39
18, 16
12, 18
15, 17
21, 13
12, 13
10, 18
25, 34
22, 26
22, 11
13, 18
35, 39
43, 45
19, 14
38, 41
409, 461
1662, 1714
1164, 1020
141, 102
17, 24
13, 19
81, 82
242, 271
156, 151
29, 18
8, 10
14, 16
12, 11
2, 7
6, 4
9, 8
2, 5
8, 7
5, 9
9, 10
3, 6
9, 12
12, 8
9, 11
3, 5
6, 5
3, 6
2, 5
2, 5
4, 4
8, 4
5, 4
1, 4
4, 3
5, 4
4, 2
5, 4
3, 4
5, 6
5, 1
2, 2
3, 7
2, 5
4, 2
3, 4
2, 2
3, 3
5, 0
5, 2
0, 3
4, 4
4, 4
2, 3
3, 6
2, 2
2, 3
6, 4
1, 2
2, 5
1, 2
5, 3
0, 1
1, 2
1, 1
2, 2
0, 1
3, 3
2, 1
0, 1
1, 1
1, 1
2, 5
1, 1
2, 1
2, 0
0, 4
1, 0
0, 0
0, 1
1, 3
0, 1
0, 0
0, 0
3, 0
0, 0
1, 0
1, 0
0, 0
0, 1
1, 2
1, 0
1, 0
3, 1
1, 0
0, 1
0, 2
1, 1
1, 0
0, 0
0, 0
0, 0
0, 0
1, 0
1, 0
0, 0
0, 0
0, 0
0, 0
0, 0
0, 0
0, 0
0, 1
0, 1
1, 0
0, 1
0, 0
1, 0
0, 0
0, 0
0, 0
0, 0
0, 0
1, 0
0, 0
0, 0
0, 0
1, 0
1, 1
0, 0
0, 0
0, 0
0, 0
0, 0
0, 0
1, 0
0, 0
0, 0
0, 0
0, 0
0, 0
0, 0
0, 0
0, 0
0, 0
0, 0
0, 0
0, 0
0, 0
1, 0
0, 0
0, 0
0, 0
0, 0
0, 0
0, 0
0, 0
0, 0
0, 0
0, 0
0, 0
0, 0
0, 0
0, 0
0, 0
0, 0
0, 0
0, 0
0, 0
0, 0
0, 0
0, 0
0, 0
0, 0
0, 0
0, 0
0, 0
0, 0
0, 0
0, 0
0, 0
0, 0
0, 0
0, 0
0, 0
0, 0
0, 0
0, 0
0, 0
0, 0
0, 0
0, 0
0, 0
0, 0
0, 0
0, 0
0, 0
0, 0
0, 0
0, 0
0, 0
0, 0
0, 0
0, 0
0, 0
0, 0
0, 0
0, 0
0, 0
0, 0
0, 0
0, 0
0, 0
0, 0
0, 0
0, 0
0, 0
0, 0
0, 0
0, 0
0, 0
0, 0
0, 0
0, 0
0, 0
0, 0
0, 0
0, 0
0, 0
0, 0
0, 0
0, 0
0, 0
0, 0
0, 0
0, 0
0, 0
0, 0
#ENDOFDATA     end of spectrum data