File: host_upload/02-11-2024/rqc/uplink1/ps__0567_0717304816_000rfs_shot_467.msa
#FORMAT      : EMSA/MAS spectral data file
#VERSION     : TC202v2.0 PIXL
#TITLE       : Novarupta (sol567) subset1
#DATE        : 02-11-2024      Date in the format DD-MMM-YYYY, for example 07-JUL-2010
#TIME        :             The time of day at which the spectrum was recorded, in 24-hour format
#OWNER       : PIXL Flight Model       (PIXL will use this to indicate which instrument took the data.)
#NPOINTS     : 4096     Number of data points in the spectrum (This can be zero for configuration only files)
#NCOLUMNS    : 2     Number of data columns in the spectrum (This can be zero for configuration only files)
#XUNITS      : eV
#YUNITS      : COUNTS
#DATATYPE    : YY
#XPERCHAN    : 7.862, 7.881   eV per channel (separate by commas if more than one detector)
#OFFSET      : 18.5, -22.4         eV of first channel  (separate by commas if more than one detector
#SIGNALTYPE  : XRF
#YP_TEMP     : 1.979
#LIVETIME    : 8.84115, 8.8188   seconds (separate by commas if more than one detector)
#REALTIME    : 10, 10.0   seconds (separate by commas if more than one detector)
#SPECTRUM    : start of spectrum data
0, 0
0, 0
0, 0
0, 0
0, 0
0, 0
0, 0
0, 0
6, 4
2, 3
2, 3
15, 7
13, 12
21, 20
34, 39
116, 138
487, 525
126, 115
32, 27
20, 22
41, 62
280, 338
126, 104
79, 72
224, 238
99, 122
63, 75
29, 27
8, 5
10, 8
25, 26
12, 19
19, 18
203, 266
294, 313
44, 49
32, 48
51, 43
11, 13
13, 12
19, 24
59, 57
37, 34
9, 9
19, 14
24, 14
20, 15
13, 5
9, 10
19, 37
20, 24
12, 15
13, 14
33, 45
49, 50
16, 20
24, 44
344, 467
1519, 1864
1075, 1042
118, 106
21, 15
14, 22
80, 100
243, 302
159, 179
21, 16
10, 5
16, 14
9, 8
5, 10
5, 6
5, 6
1, 8
9, 11
7, 7
11, 5
11, 9
14, 18
10, 10
3, 5
5, 5
7, 7
7, 5
6, 3
7, 3
4, 3
9, 5
3, 7
3, 5
3, 2
1, 2
5, 6
4, 2
5, 5
6, 4
3, 5
5, 3
3, 4
6, 5
3, 4
6, 1
1, 2
1, 2
5, 2
5, 2
5, 6
5, 4
3, 5
0, 4
3, 1
0, 3
2, 2
4, 8
1, 4
3, 3
0, 4
5, 2
3, 1
1, 1
1, 0
0, 2
0, 5
0, 2
1, 1
2, 1
2, 5
1, 0
0, 0
2, 3
2, 0
2, 0
1, 0
1, 0
0, 0
0, 2
0, 1
1, 0
0, 0
1, 1
0, 1
2, 1
2, 0
0, 1
1, 1
1, 0
0, 0
2, 1
0, 1
0, 1
1, 0
0, 0
0, 0
0, 0
1, 1
0, 0
0, 0
0, 0
0, 0
0, 0
1, 0
1, 0
1, 1
0, 0
0, 0
0, 0
0, 1
0, 1
0, 1
0, 1
0, 0
0, 0
0, 0
0, 0
1, 0
0, 1
0, 0
1, 0
0, 0
0, 0
0, 0
0, 0
0, 0
0, 0
0, 1
0, 0
0, 1
0, 0
0, 0
0, 0
0, 0
0, 0
0, 0
0, 0
0, 0
0, 0
0, 0
0, 0
0, 0
0, 0
0, 0
0, 0
0, 0
0, 0
0, 0
0, 0
0, 0
0, 0
0, 0
0, 0
0, 0
0, 0
0, 0
0, 0
0, 0
0, 0
0, 0
0, 0
0, 0
0, 0
0, 0
0, 0
0, 0
0, 0
0, 0
0, 0
0, 0
0, 0
0, 0
0, 0
0, 0
0, 0
0, 0
0, 0
0, 0
0, 0
0, 0
0, 0
0, 0
0, 0
0, 0
0, 0
0, 0
0, 0
0, 0
0, 0
0, 0
0, 0
0, 0
0, 0
0, 0
0, 0
0, 0
0, 0
0, 0
0, 0
0, 0
0, 0
0, 0
0, 0
0, 0
0, 0
0, 0
0, 0
0, 0
0, 0
0, 0
0, 0
0, 0
0, 0
0, 0
0, 0
0, 0
0, 0
0, 0
0, 0
0, 0
0, 0
0, 0
0, 0
0, 0
0, 0
0, 0
0, 0
0, 0
0, 0
0, 0
0, 0
0, 0
0, 0
0, 0
0, 0
0, 0
0, 0
#ENDOFDATA     end of spectrum data