File: host_upload/02-11-2024/rqc/uplink1/ps__0567_0717304816_000rfs_shot_211.msa
#FORMAT      : EMSA/MAS spectral data file
#VERSION     : TC202v2.0 PIXL
#TITLE       : Novarupta (sol567) subset1
#DATE        : 02-11-2024      Date in the format DD-MMM-YYYY, for example 07-JUL-2010
#TIME        :             The time of day at which the spectrum was recorded, in 24-hour format
#OWNER       : PIXL Flight Model       (PIXL will use this to indicate which instrument took the data.)
#NPOINTS     : 4096     Number of data points in the spectrum (This can be zero for configuration only files)
#NCOLUMNS    : 2     Number of data columns in the spectrum (This can be zero for configuration only files)
#XUNITS      : eV
#YUNITS      : COUNTS
#DATATYPE    : YY
#XPERCHAN    : 7.862, 7.881   eV per channel (separate by commas if more than one detector)
#OFFSET      : 18.5, -22.4         eV of first channel  (separate by commas if more than one detector
#SIGNALTYPE  : XRF
#YP_TEMP     : 0.6
#LIVETIME    : 8.83072, 8.82945   seconds (separate by commas if more than one detector)
#REALTIME    : 10, 10.0   seconds (separate by commas if more than one detector)
#SPECTRUM    : start of spectrum data
0, 0
0, 0
0, 0
0, 0
0, 0
0, 0
0, 0
1, 0
2, 2
3, 2
4, 1
12, 13
5, 22
18, 25
35, 43
101, 140
466, 526
125, 99
19, 36
23, 22
52, 61
302, 314
129, 122
62, 74
174, 200
112, 110
60, 66
23, 21
12, 7
7, 11
27, 30
15, 19
22, 22
200, 196
293, 326
45, 51
47, 51
50, 49
10, 6
6, 9
18, 21
63, 57
30, 30
12, 15
15, 13
14, 19
15, 13
9, 8
11, 14
22, 35
16, 18
13, 11
13, 16
37, 41
54, 42
19, 19
24, 33
334, 513
1650, 1816
1077, 1058
136, 106
17, 17
26, 29
76, 124
255, 277
155, 123
24, 26
8, 12
9, 16
6, 8
1, 3
8, 8
5, 5
6, 5
9, 11
3, 8
5, 3
6, 7
11, 10
6, 5
3, 5
3, 5
10, 3
4, 6
2, 5
10, 5
3, 6
1, 5
2, 5
2, 5
5, 3
3, 4
1, 3
4, 4
1, 1
2, 3
4, 2
1, 1
2, 3
3, 3
2, 2
3, 2
6, 4
3, 0
1, 2
3, 2
1, 5
7, 3
5, 5
4, 5
3, 4
2, 3
0, 4
2, 2
1, 2
5, 2
4, 2
2, 0
1, 0
1, 2
1, 1
1, 0
4, 3
1, 0
0, 1
0, 1
0, 0
0, 0
2, 1
1, 1
0, 3
0, 0
0, 1
0, 0
0, 1
0, 1
1, 1
1, 1
1, 0
0, 3
0, 1
1, 1
0, 1
0, 0
0, 0
0, 0
0, 0
1, 0
1, 1
0, 0
2, 0
0, 0
0, 1
0, 1
0, 0
1, 0
0, 0
0, 0
0, 0
1, 0
1, 0
0, 0
0, 0
0, 0
0, 0
0, 0
0, 0
0, 0
0, 0
0, 0
0, 0
0, 1
1, 2
0, 0
0, 0
0, 0
0, 0
0, 0
1, 0
0, 0
0, 0
0, 0
0, 0
1, 1
0, 1
0, 0
0, 0
0, 1
0, 0
0, 1
0, 0
0, 0
0, 0
0, 1
0, 0
0, 0
0, 0
0, 0
0, 0
0, 0
0, 0
0, 0
0, 0
0, 0
0, 0
0, 0
0, 0
0, 0
0, 0
0, 0
1, 0
0, 0
0, 0
0, 0
0, 0
0, 0
0, 0
0, 0
0, 0
0, 0
0, 0
0, 0
0, 0
0, 0
0, 0
0, 0
0, 0
0, 0
0, 0
0, 0
0, 0
0, 0
0, 0
0, 0
0, 0
0, 0
0, 0
0, 0
0, 0
0, 0
0, 0
0, 0
0, 0
0, 0
0, 0
0, 0
0, 0
0, 0
0, 0
0, 0
0, 0
0, 0
0, 0
0, 0
0, 0
0, 0
0, 0
0, 0
0, 0
0, 0
0, 0
0, 0
0, 0
0, 0
0, 0
0, 0
0, 0
0, 0
0, 0
0, 0
0, 0
0, 0
0, 0
0, 0
0, 0
0, 0
0, 0
0, 0
0, 0
0, 0
0, 0
0, 0
0, 0
0, 0
0, 0
0, 0
0, 0
0, 0
0, 0
0, 0
0, 0
0, 0
0, 0
0, 0
#ENDOFDATA     end of spectrum data