File: host_upload/02-11-2024/rqc/uplink1/ps__0567_0717304816_000rfs_shot_373.msa
#FORMAT      : EMSA/MAS spectral data file
#VERSION     : TC202v2.0 PIXL
#TITLE       : Novarupta (sol567) subset1
#DATE        : 02-11-2024      Date in the format DD-MMM-YYYY, for example 07-JUL-2010
#TIME        :             The time of day at which the spectrum was recorded, in 24-hour format
#OWNER       : PIXL Flight Model       (PIXL will use this to indicate which instrument took the data.)
#NPOINTS     : 4096     Number of data points in the spectrum (This can be zero for configuration only files)
#NCOLUMNS    : 2     Number of data columns in the spectrum (This can be zero for configuration only files)
#XUNITS      : eV
#YUNITS      : COUNTS
#DATATYPE    : YY
#XPERCHAN    : 7.862, 7.881   eV per channel (separate by commas if more than one detector)
#OFFSET      : 18.5, -22.4         eV of first channel  (separate by commas if more than one detector
#SIGNALTYPE  : XRF
#YP_TEMP     : 1.626
#LIVETIME    : 8.81804, 8.80201   seconds (separate by commas if more than one detector)
#REALTIME    : 10, 10.0   seconds (separate by commas if more than one detector)
#SPECTRUM    : start of spectrum data
0, 0
0, 0
0, 0
0, 0
0, 0
0, 0
0, 0
0, 0
3, 3
0, 2
5, 5
6, 10
11, 14
25, 26
29, 49
106, 133
493, 559
107, 131
28, 39
27, 24
60, 47
329, 334
111, 130
74, 95
220, 262
127, 114
58, 82
28, 35
12, 14
12, 6
22, 29
15, 19
18, 22
185, 237
328, 348
45, 50
46, 43
46, 58
10, 13
7, 8
16, 18
65, 61
35, 41
12, 17
9, 15
14, 24
10, 12
11, 11
11, 13
22, 39
22, 20
8, 6
10, 18
22, 40
37, 60
15, 13
26, 44
371, 504
1597, 1927
1128, 1136
125, 96
19, 17
26, 24
76, 108
244, 305
159, 183
23, 20
6, 6
20, 23
6, 16
3, 7
5, 10
5, 6
9, 10
5, 7
10, 13
7, 8
8, 13
7, 17
9, 10
8, 15
8, 6
2, 7
5, 4
5, 5
5, 9
5, 4
2, 4
7, 3
5, 4
2, 4
4, 1
5, 4
6, 5
1, 4
3, 3
3, 1
3, 3
4, 3
5, 5
2, 3
2, 2
5, 2
0, 3
2, 2
4, 2
4, 2
6, 3
2, 2
1, 5
5, 3
1, 2
3, 0
0, 6
2, 5
2, 3
1, 4
3, 4
2, 1
3, 3
1, 2
1, 2
3, 2
1, 3
1, 2
1, 1
2, 4
2, 1
2, 3
1, 2
1, 4
2, 2
3, 2
1, 0
2, 1
3, 1
1, 0
0, 3
0, 1
0, 1
2, 0
0, 0
1, 1
0, 1
1, 1
1, 1
1, 0
0, 1
0, 0
0, 0
0, 0
0, 0
1, 0
0, 0
1, 0
0, 0
1, 0
1, 1
0, 0
0, 0
0, 1
0, 0
0, 0
0, 0
0, 0
0, 0
0, 0
0, 0
0, 0
1, 0
0, 0
0, 1
0, 0
0, 0
0, 0
0, 0
0, 0
2, 0
0, 0
0, 0
0, 0
0, 0
0, 0
0, 0
1, 0
0, 0
0, 0
0, 0
0, 0
0, 0
0, 0
0, 0
0, 0
0, 0
0, 0
0, 0
0, 0
0, 0
0, 0
0, 0
0, 0
0, 0
0, 0
0, 0
0, 0
0, 0
0, 0
0, 0
0, 0
0, 0
0, 0
0, 0
0, 0
0, 0
0, 0
0, 0
0, 0
0, 0
0, 0
0, 0
0, 0
0, 0
0, 0
0, 0
0, 0
0, 0
0, 0
0, 0
0, 0
0, 0
0, 0
0, 0
0, 0
0, 0
0, 0
0, 0
0, 0
0, 0
0, 0
0, 0
0, 0
0, 0
0, 0
0, 0
0, 0
0, 0
0, 0
0, 0
0, 0
0, 0
0, 0
0, 0
0, 0
0, 0
0, 0
0, 0
0, 0
0, 0
0, 0
0, 0
0, 0
0, 0
0, 0
0, 0
0, 0
0, 0
0, 0
0, 0
0, 0
0, 0
0, 0
0, 0
0, 0
0, 0
0, 0
0, 0
0, 0
0, 0
0, 0
0, 0
0, 0
0, 0
0, 0
0, 0
0, 0
0, 0
0, 0
0, 0
0, 0
0, 0
0, 0
0, 0
0, 0
0, 0
#ENDOFDATA     end of spectrum data