File: host_upload/02-11-2024/rqc/uplink1/ps__0567_0717304816_000rfs_shot_145.msa
#FORMAT      : EMSA/MAS spectral data file
#VERSION     : TC202v2.0 PIXL
#TITLE       : Novarupta (sol567) subset1
#DATE        : 02-11-2024      Date in the format DD-MMM-YYYY, for example 07-JUL-2010
#TIME        :             The time of day at which the spectrum was recorded, in 24-hour format
#OWNER       : PIXL Flight Model       (PIXL will use this to indicate which instrument took the data.)
#NPOINTS     : 4096     Number of data points in the spectrum (This can be zero for configuration only files)
#NCOLUMNS    : 2     Number of data columns in the spectrum (This can be zero for configuration only files)
#XUNITS      : eV
#YUNITS      : COUNTS
#DATATYPE    : YY
#XPERCHAN    : 7.862, 7.881   eV per channel (separate by commas if more than one detector)
#OFFSET      : 18.5, -22.4         eV of first channel  (separate by commas if more than one detector
#SIGNALTYPE  : XRF
#YP_TEMP     : -0.33
#LIVETIME    : 8.8351, 8.82029   seconds (separate by commas if more than one detector)
#REALTIME    : 10, 10.0   seconds (separate by commas if more than one detector)
#SPECTRUM    : start of spectrum data
0, 0
0, 0
0, 0
0, 0
0, 0
0, 0
0, 0
0, 0
1, 3
5, 4
4, 6
13, 13
5, 10
29, 30
45, 40
99, 142
478, 535
143, 106
33, 37
19, 25
45, 55
304, 331
117, 109
91, 97
232, 225
107, 125
81, 69
21, 31
5, 8
9, 12
26, 31
24, 17
22, 21
192, 234
322, 365
59, 48
38, 41
46, 48
14, 17
7, 18
26, 23
62, 69
31, 38
12, 14
16, 17
25, 20
13, 9
13, 9
12, 9
29, 31
26, 25
12, 17
7, 20
31, 35
48, 42
31, 23
28, 30
425, 533
1627, 1820
1027, 986
116, 84
14, 18
24, 21
73, 112
272, 258
149, 145
19, 23
9, 4
20, 9
14, 9
2, 4
7, 3
4, 6
6, 9
2, 7
6, 5
6, 7
11, 9
5, 5
13, 12
7, 6
3, 4
4, 6
3, 4
6, 7
6, 9
1, 7
7, 9
8, 5
5, 2
6, 3
3, 6
5, 6
3, 4
3, 3
8, 4
0, 3
9, 6
2, 3
6, 2
4, 2
2, 4
2, 1
4, 2
3, 1
1, 3
2, 2
1, 2
3, 1
1, 1
1, 5
1, 3
3, 3
1, 1
2, 1
2, 3
5, 1
2, 2
4, 0
2, 3
1, 1
1, 1
2, 1
1, 1
0, 1
1, 1
0, 2
1, 1
0, 5
2, 1
2, 0
1, 0
1, 2
0, 1
2, 1
0, 0
0, 4
0, 1
0, 1
0, 0
0, 0
0, 0
1, 0
0, 0
2, 1
0, 1
0, 0
0, 1
1, 0
0, 1
0, 0
0, 0
0, 0
1, 0
0, 1
1, 0
1, 0
0, 1
0, 2
0, 0
0, 0
0, 0
0, 0
0, 0
0, 0
1, 0
0, 0
0, 0
1, 0
0, 2
0, 0
0, 0
0, 1
0, 1
0, 0
0, 0
0, 1
0, 0
0, 0
0, 0
0, 0
0, 0
1, 1
1, 1
1, 0
0, 0
0, 0
0, 0
0, 0
0, 0
0, 0
0, 0
0, 0
0, 0
1, 0
0, 0
0, 0
0, 1
0, 0
0, 0
0, 0
0, 0
0, 0
0, 0
0, 0
0, 0
0, 0
0, 0
0, 0
0, 0
0, 0
0, 0
0, 0
0, 0
0, 0
0, 0
0, 0
0, 0
0, 0
0, 0
0, 0
0, 0
0, 0
0, 0
0, 0
0, 0
0, 0
0, 0
0, 0
0, 0
0, 0
0, 0
0, 0
0, 0
0, 0
0, 0
0, 0
0, 0
0, 0
0, 0
0, 0
0, 0
0, 0
0, 0
0, 0
0, 0
0, 0
0, 0
0, 0
0, 0
0, 0
0, 0
0, 0
0, 0
0, 0
0, 0
0, 0
0, 0
0, 0
0, 0
0, 0
0, 0
0, 0
0, 0
0, 0
0, 0
0, 0
0, 0
0, 0
0, 0
0, 0
0, 0
0, 0
0, 0
0, 0
0, 0
0, 0
0, 0
0, 0
0, 0
0, 0
0, 0
0, 0
0, 0
0, 0
0, 0
0, 0
0, 0
0, 0
0, 0
0, 0
0, 0
0, 0
0, 0
#ENDOFDATA     end of spectrum data