File: host_upload/02-11-2024/rqc/uplink1/ps__0567_0717304816_000rfs_shot_424.msa
#FORMAT      : EMSA/MAS spectral data file
#VERSION     : TC202v2.0 PIXL
#TITLE       : Novarupta (sol567) subset1
#DATE        : 02-11-2024      Date in the format DD-MMM-YYYY, for example 07-JUL-2010
#TIME        :             The time of day at which the spectrum was recorded, in 24-hour format
#OWNER       : PIXL Flight Model       (PIXL will use this to indicate which instrument took the data.)
#NPOINTS     : 4096     Number of data points in the spectrum (This can be zero for configuration only files)
#NCOLUMNS    : 2     Number of data columns in the spectrum (This can be zero for configuration only files)
#XUNITS      : eV
#YUNITS      : COUNTS
#DATATYPE    : YY
#XPERCHAN    : 7.862, 7.881   eV per channel (separate by commas if more than one detector)
#OFFSET      : 18.5, -22.4         eV of first channel  (separate by commas if more than one detector
#SIGNALTYPE  : XRF
#YP_TEMP     : 1.69
#LIVETIME    : 8.85309, 8.8225   seconds (separate by commas if more than one detector)
#REALTIME    : 10, 10.0   seconds (separate by commas if more than one detector)
#SPECTRUM    : start of spectrum data
0, 0
0, 0
0, 0
0, 0
0, 0
0, 0
1, 0
0, 0
2, 1
5, 3
8, 3
7, 6
11, 14
23, 24
46, 44
110, 112
429, 533
128, 113
28, 36
26, 25
40, 65
293, 335
105, 130
64, 87
209, 247
108, 125
62, 70
27, 28
9, 8
14, 13
18, 24
16, 16
17, 22
192, 250
289, 370
61, 43
42, 47
59, 60
11, 17
5, 17
12, 27
51, 60
32, 39
15, 16
13, 17
19, 21
9, 7
14, 11
13, 16
24, 31
20, 22
15, 10
10, 16
29, 33
60, 54
19, 25
19, 40
298, 482
1525, 1870
1042, 1049
106, 119
14, 8
10, 29
81, 112
243, 309
143, 153
31, 18
9, 7
21, 12
7, 8
5, 7
2, 5
3, 9
1, 6
4, 5
5, 15
5, 7
6, 9
10, 13
16, 14
1, 6
7, 7
10, 1
5, 5
2, 8
5, 3
6, 4
4, 4
5, 4
4, 4
4, 7
5, 4
1, 3
4, 3
6, 6
3, 4
1, 2
1, 3
2, 3
5, 3
7, 6
1, 4
3, 1
1, 3
5, 2
2, 3
2, 3
0, 3
0, 3
4, 4
2, 4
5, 2
2, 2
3, 2
1, 2
1, 4
2, 5
1, 1
0, 1
1, 1
1, 0
2, 0
1, 1
0, 1
1, 2
1, 2
1, 0
1, 0
0, 1
0, 0
0, 1
0, 0
1, 2
3, 2
2, 0
0, 0
2, 0
2, 1
0, 2
2, 0
0, 0
0, 0
1, 1
1, 0
0, 0
1, 0
0, 0
0, 1
0, 0
0, 0
0, 0
0, 0
0, 1
1, 1
0, 0
1, 0
0, 1
1, 0
0, 0
0, 0
0, 0
1, 0
0, 0
1, 1
0, 0
0, 0
0, 0
0, 0
0, 0
0, 0
0, 0
0, 0
0, 2
0, 0
1, 0
0, 0
0, 0
0, 0
0, 0
0, 0
0, 0
0, 0
0, 0
0, 0
0, 0
0, 0
0, 0
0, 0
0, 0
0, 1
0, 0
0, 0
0, 0
0, 0
0, 1
0, 0
0, 0
0, 0
0, 0
0, 0
0, 0
0, 0
0, 0
0, 0
0, 0
0, 0
0, 0
0, 0
0, 0
0, 1
0, 0
0, 0
0, 0
0, 0
0, 0
0, 0
0, 0
0, 0
0, 1
0, 0
0, 0
0, 0
0, 0
0, 0
0, 0
0, 0
0, 0
0, 0
0, 0
0, 0
0, 0
0, 0
0, 0
0, 0
0, 0
0, 0
0, 0
0, 0
0, 0
0, 0
0, 0
0, 0
0, 0
0, 0
0, 0
0, 0
0, 0
0, 0
0, 0
0, 0
0, 0
0, 0
0, 0
0, 0
0, 0
0, 0
0, 0
0, 0
0, 0
0, 0
0, 0
0, 0
0, 0
0, 0
0, 0
0, 0
0, 0
0, 0
0, 0
0, 0
0, 0
0, 0
0, 0
0, 0
0, 0
0, 0
0, 0
0, 0
0, 0
0, 0
0, 0
0, 0
0, 0
0, 0
0, 0
0, 0
0, 0
0, 0
0, 0
0, 0
0, 0
0, 0
0, 0
0, 0
#ENDOFDATA     end of spectrum data