File: host_upload/02-11-2024/rqc/uplink1/ps__0567_0717304816_000rfs_shot_459.msa
#FORMAT      : EMSA/MAS spectral data file
#VERSION     : TC202v2.0 PIXL
#TITLE       : Novarupta (sol567) subset1
#DATE        : 02-11-2024      Date in the format DD-MMM-YYYY, for example 07-JUL-2010
#TIME        :             The time of day at which the spectrum was recorded, in 24-hour format
#OWNER       : PIXL Flight Model       (PIXL will use this to indicate which instrument took the data.)
#NPOINTS     : 4096     Number of data points in the spectrum (This can be zero for configuration only files)
#NCOLUMNS    : 2     Number of data columns in the spectrum (This can be zero for configuration only files)
#XUNITS      : eV
#YUNITS      : COUNTS
#DATATYPE    : YY
#XPERCHAN    : 7.862, 7.881   eV per channel (separate by commas if more than one detector)
#OFFSET      : 18.5, -22.4         eV of first channel  (separate by commas if more than one detector
#SIGNALTYPE  : XRF
#YP_TEMP     : 2.171
#LIVETIME    : 8.82531, 8.81717   seconds (separate by commas if more than one detector)
#REALTIME    : 10, 10.0   seconds (separate by commas if more than one detector)
#SPECTRUM    : start of spectrum data
0, 0
0, 0
0, 0
0, 0
0, 0
0, 0
0, 0
0, 0
0, 4
3, 1
1, 4
19, 8
15, 22
17, 12
54, 37
116, 109
470, 509
108, 92
36, 35
19, 29
68, 77
349, 419
147, 143
67, 75
226, 228
132, 113
90, 65
29, 24
9, 12
10, 4
27, 28
12, 15
13, 15
194, 243
332, 328
56, 50
51, 51
46, 45
13, 15
8, 6
27, 21
71, 74
47, 35
13, 17
15, 14
20, 17
12, 10
7, 12
19, 18
34, 31
19, 13
11, 13
8, 14
43, 29
45, 60
23, 18
28, 35
350, 462
1595, 1826
1132, 1069
138, 112
12, 11
22, 20
63, 90
261, 285
174, 156
25, 15
6, 9
15, 13
6, 10
3, 3
3, 5
6, 4
1, 5
6, 5
8, 4
4, 4
7, 9
5, 9
11, 11
10, 7
2, 3
2, 5
5, 6
4, 6
4, 4
3, 6
6, 2
2, 3
3, 5
5, 4
4, 7
5, 5
2, 0
3, 3
1, 3
3, 2
2, 1
2, 3
2, 4
2, 4
1, 2
4, 1
2, 3
2, 2
4, 4
1, 5
3, 3
1, 2
1, 3
1, 1
3, 2
2, 1
2, 2
0, 0
3, 4
4, 4
5, 2
2, 3
1, 0
3, 1
1, 1
0, 3
1, 2
2, 4
2, 1
0, 3
1, 0
1, 2
2, 1
0, 0
1, 1
0, 1
0, 2
1, 0
0, 0
1, 0
0, 1
0, 1
0, 0
1, 0
0, 0
1, 0
0, 0
0, 0
0, 1
0, 1
0, 0
0, 0
1, 0
1, 0
0, 0
1, 0
0, 1
0, 1
0, 1
1, 0
0, 0
0, 0
1, 0
0, 0
0, 0
0, 0
1, 1
1, 0
0, 1
0, 0
0, 0
0, 0
0, 0
1, 1
0, 1
1, 0
0, 0
0, 1
0, 0
0, 0
0, 0
0, 0
0, 0
1, 0
1, 0
0, 0
0, 1
1, 0
0, 1
0, 1
0, 0
0, 0
0, 1
0, 0
0, 0
0, 0
0, 0
0, 0
0, 0
0, 0
0, 0
0, 0
0, 0
0, 0
0, 0
0, 0
0, 0
0, 0
0, 0
1, 0
0, 1
0, 0
0, 0
0, 0
0, 0
0, 0
0, 0
0, 0
0, 0
0, 0
0, 0
0, 0
0, 0
0, 0
0, 0
0, 0
0, 0
0, 0
0, 0
0, 0
0, 0
0, 0
0, 0
0, 0
0, 0
0, 0
0, 0
0, 0
0, 0
0, 0
0, 0
0, 0
0, 0
0, 0
0, 0
0, 0
0, 0
0, 0
0, 0
0, 0
0, 0
0, 0
0, 0
0, 0
0, 0
0, 0
0, 0
0, 0
0, 0
0, 0
0, 0
0, 0
0, 0
0, 0
0, 0
0, 0
0, 0
0, 0
0, 0
0, 0
0, 0
0, 0
0, 0
0, 0
0, 0
0, 0
0, 0
0, 0
0, 0
0, 0
0, 0
0, 0
0, 0
0, 0
0, 0
0, 0
0, 0
0, 0
0, 0
0, 0
0, 0
0, 0
0, 0
0, 0
0, 0
0, 0
0, 0
#ENDOFDATA     end of spectrum data