File: host_upload/02-11-2024/rqc/uplink1/ps__0567_0717304816_000rfs_shot_170.msa
#FORMAT      : EMSA/MAS spectral data file
#VERSION     : TC202v2.0 PIXL
#TITLE       : Novarupta (sol567) subset1
#DATE        : 02-11-2024      Date in the format DD-MMM-YYYY, for example 07-JUL-2010
#TIME        :             The time of day at which the spectrum was recorded, in 24-hour format
#OWNER       : PIXL Flight Model       (PIXL will use this to indicate which instrument took the data.)
#NPOINTS     : 4096     Number of data points in the spectrum (This can be zero for configuration only files)
#NCOLUMNS    : 2     Number of data columns in the spectrum (This can be zero for configuration only files)
#XUNITS      : eV
#YUNITS      : COUNTS
#DATATYPE    : YY
#XPERCHAN    : 7.862, 7.881   eV per channel (separate by commas if more than one detector)
#OFFSET      : 18.5, -22.4         eV of first channel  (separate by commas if more than one detector
#SIGNALTYPE  : XRF
#YP_TEMP     : 0.279
#LIVETIME    : 8.83096, 8.81141   seconds (separate by commas if more than one detector)
#REALTIME    : 10, 10.0   seconds (separate by commas if more than one detector)
#SPECTRUM    : start of spectrum data
0, 0
0, 0
0, 0
0, 0
0, 0
0, 0
0, 0
0, 3
3, 3
5, 3
6, 4
12, 10
18, 11
19, 21
52, 43
95, 122
445, 530
138, 109
22, 29
18, 16
50, 69
310, 342
117, 115
82, 93
240, 275
99, 112
74, 64
32, 14
9, 8
13, 6
25, 32
22, 17
30, 22
222, 245
326, 363
46, 51
43, 47
45, 62
11, 7
8, 12
16, 24
52, 59
27, 39
19, 21
13, 13
19, 24
7, 17
10, 9
10, 21
27, 37
23, 42
17, 20
14, 10
32, 31
53, 45
17, 24
37, 38
376, 516
1631, 1876
1083, 1030
110, 105
20, 13
32, 24
108, 104
247, 274
162, 141
22, 17
8, 6
17, 17
9, 14
4, 3
7, 5
4, 4
8, 6
10, 5
6, 7
11, 6
10, 6
9, 11
10, 11
8, 10
5, 10
6, 10
4, 7
8, 7
6, 6
4, 6
8, 5
7, 3
4, 3
3, 8
9, 3
4, 4
4, 4
8, 7
4, 3
2, 1
3, 5
4, 5
3, 1
2, 0
2, 0
2, 1
2, 2
4, 2
1, 2
2, 1
2, 4
5, 1
5, 4
0, 4
3, 4
3, 1
0, 2
1, 3
3, 5
5, 3
3, 2
3, 2
1, 2
3, 0
0, 0
1, 3
1, 1
2, 2
0, 3
0, 0
1, 2
1, 1
3, 1
2, 1
0, 0
1, 1
3, 1
0, 0
2, 0
2, 1
2, 1
1, 0
1, 0
0, 0
1, 0
0, 1
2, 2
0, 0
0, 0
0, 0
1, 0
0, 1
0, 0
0, 0
1, 1
0, 0
0, 0
0, 0
2, 1
1, 0
1, 0
0, 0
1, 0
1, 0
0, 0
0, 0
0, 0
2, 1
1, 0
0, 1
0, 0
1, 0
0, 0
0, 0
0, 0
0, 0
0, 0
0, 1
0, 0
0, 0
0, 0
0, 0
0, 0
0, 1
1, 0
0, 0
2, 0
0, 0
0, 0
1, 0
0, 0
0, 0
0, 0
0, 0
0, 0
0, 0
0, 0
0, 1
0, 0
0, 0
0, 0
0, 0
0, 1
0, 0
0, 0
0, 0
0, 0
0, 0
0, 0
0, 0
0, 0
0, 0
0, 0
1, 0
0, 0
0, 0
0, 0
0, 0
0, 0
0, 0
0, 0
0, 0
0, 0
0, 0
0, 0
0, 0
0, 0
0, 0
0, 0
0, 0
0, 0
0, 0
0, 0
0, 0
0, 0
0, 0
0, 0
0, 0
0, 0
0, 0
0, 0
0, 0
0, 0
0, 0
0, 0
0, 0
0, 0
0, 0
0, 0
0, 0
0, 0
0, 0
0, 0
0, 0
0, 0
0, 0
0, 0
0, 0
0, 0
0, 0
0, 0
0, 0
0, 0
0, 0
0, 0
0, 0
0, 0
0, 0
0, 0
0, 0
0, 0
0, 0
0, 0
0, 0
0, 0
0, 0
0, 0
0, 0
0, 0
0, 0
0, 0
0, 0
0, 0
0, 0
0, 0
0, 0
0, 0
0, 0
0, 0
0, 0
0, 0
0, 0
0, 0
0, 0
0, 0
0, 0
0, 0
#ENDOFDATA     end of spectrum data