File: host_upload/02-11-2024/rqc/uplink1/ps__0567_0717304816_000rfs_shot_180.msa
#FORMAT      : EMSA/MAS spectral data file
#VERSION     : TC202v2.0 PIXL
#TITLE       : Novarupta (sol567) subset1
#DATE        : 02-11-2024      Date in the format DD-MMM-YYYY, for example 07-JUL-2010
#TIME        :             The time of day at which the spectrum was recorded, in 24-hour format
#OWNER       : PIXL Flight Model       (PIXL will use this to indicate which instrument took the data.)
#NPOINTS     : 4096     Number of data points in the spectrum (This can be zero for configuration only files)
#NCOLUMNS    : 2     Number of data columns in the spectrum (This can be zero for configuration only files)
#XUNITS      : eV
#YUNITS      : COUNTS
#DATATYPE    : YY
#XPERCHAN    : 7.862, 7.881   eV per channel (separate by commas if more than one detector)
#OFFSET      : 18.5, -22.4         eV of first channel  (separate by commas if more than one detector
#SIGNALTYPE  : XRF
#YP_TEMP     : 0.407
#LIVETIME    : 8.83849, 8.82291   seconds (separate by commas if more than one detector)
#REALTIME    : 10, 10.0   seconds (separate by commas if more than one detector)
#SPECTRUM    : start of spectrum data
0, 0
0, 0
0, 0
0, 0
0, 0
0, 0
0, 0
0, 1
4, 2
4, 4
2, 2
11, 6
18, 15
25, 19
45, 37
136, 139
495, 530
138, 121
32, 26
28, 20
64, 59
303, 338
132, 113
80, 95
254, 243
132, 122
77, 83
31, 39
12, 10
11, 8
22, 37
12, 15
14, 31
205, 250
326, 346
52, 51
36, 41
54, 46
13, 14
6, 5
18, 20
56, 70
41, 39
17, 14
13, 18
24, 12
15, 8
4, 13
17, 18
33, 31
18, 20
9, 6
11, 12
34, 24
41, 48
13, 16
25, 44
366, 500
1615, 1853
1070, 975
107, 102
17, 20
24, 27
64, 101
249, 278
166, 156
14, 22
5, 11
19, 18
11, 8
3, 9
6, 4
5, 9
3, 5
5, 11
9, 7
5, 7
5, 11
6, 11
7, 9
7, 8
2, 5
9, 12
3, 6
5, 8
5, 2
5, 4
7, 5
5, 5
4, 5
4, 4
4, 7
6, 6
2, 5
8, 6
0, 5
2, 3
5, 4
3, 2
2, 5
3, 3
4, 3
6, 8
1, 4
4, 1
2, 2
3, 2
0, 3
2, 3
2, 0
2, 2
4, 3
2, 3
1, 2
0, 1
3, 0
3, 5
2, 1
2, 2
0, 1
0, 2
3, 2
3, 3
3, 6
4, 1
2, 1
2, 0
0, 2
0, 2
1, 1
1, 1
1, 2
1, 0
1, 2
1, 1
1, 2
0, 0
0, 0
1, 1
0, 2
0, 1
2, 0
1, 0
0, 1
0, 0
1, 1
0, 0
1, 1
0, 1
1, 0
0, 0
3, 0
0, 0
0, 0
1, 0
0, 0
1, 0
0, 0
1, 0
0, 0
1, 0
0, 0
0, 0
0, 0
0, 0
0, 0
0, 0
0, 0
0, 0
0, 0
1, 1
0, 0
0, 1
1, 0
0, 0
0, 0
1, 0
1, 1
0, 0
0, 1
2, 0
1, 0
0, 0
0, 0
0, 0
0, 0
0, 0
0, 0
0, 0
0, 0
0, 0
0, 1
0, 1
0, 0
0, 0
0, 0
0, 0
0, 0
0, 0
0, 0
0, 0
0, 0
0, 0
0, 0
0, 0
0, 0
0, 0
0, 0
0, 0
0, 0
0, 0
0, 0
0, 0
0, 0
0, 0
0, 0
0, 0
0, 0
0, 0
0, 0
0, 0
0, 0
0, 0
0, 0
0, 0
0, 0
0, 0
0, 0
0, 0
0, 0
0, 0
0, 0
0, 0
0, 0
0, 0
0, 0
0, 0
0, 0
0, 0
0, 0
0, 0
0, 0
0, 0
0, 0
0, 0
0, 0
0, 0
0, 0
0, 0
0, 0
0, 0
0, 0
0, 0
0, 0
0, 0
0, 0
0, 0
0, 0
0, 0
0, 0
0, 0
0, 0
0, 0
0, 0
0, 0
0, 0
0, 0
0, 0
0, 0
0, 0
0, 0
0, 0
0, 0
0, 0
0, 0
0, 0
0, 0
0, 0
0, 0
0, 0
0, 0
0, 0
0, 0
0, 0
0, 0
0, 0
0, 0
0, 0
0, 0
0, 0
0, 0
0, 0
0, 0
0, 0
#ENDOFDATA     end of spectrum data