File: host_upload/02-11-2024/rqc/uplink1/ps__0567_0717304816_000rfs_shot_380.msa
#FORMAT      : EMSA/MAS spectral data file
#VERSION     : TC202v2.0 PIXL
#TITLE       : Novarupta (sol567) subset1
#DATE        : 02-11-2024      Date in the format DD-MMM-YYYY, for example 07-JUL-2010
#TIME        :             The time of day at which the spectrum was recorded, in 24-hour format
#OWNER       : PIXL Flight Model       (PIXL will use this to indicate which instrument took the data.)
#NPOINTS     : 4096     Number of data points in the spectrum (This can be zero for configuration only files)
#NCOLUMNS    : 2     Number of data columns in the spectrum (This can be zero for configuration only files)
#XUNITS      : eV
#YUNITS      : COUNTS
#DATATYPE    : YY
#XPERCHAN    : 7.862, 7.881   eV per channel (separate by commas if more than one detector)
#OFFSET      : 18.5, -22.4         eV of first channel  (separate by commas if more than one detector
#SIGNALTYPE  : XRF
#YP_TEMP     : 1.883
#LIVETIME    : 8.83628, 8.81632   seconds (separate by commas if more than one detector)
#REALTIME    : 10, 10.0   seconds (separate by commas if more than one detector)
#SPECTRUM    : start of spectrum data
0, 0
0, 0
0, 0
0, 0
0, 0
0, 0
1, 0
1, 0
2, 6
5, 1
3, 1
13, 9
14, 12
19, 25
38, 46
94, 128
501, 549
118, 128
25, 41
18, 24
40, 61
283, 350
108, 140
67, 84
195, 255
104, 120
64, 70
32, 33
11, 7
16, 11
33, 24
17, 25
20, 28
195, 248
325, 416
51, 45
35, 52
56, 65
11, 13
13, 9
20, 23
53, 59
28, 27
15, 12
22, 18
19, 15
13, 7
12, 11
11, 13
25, 29
24, 26
17, 7
12, 11
29, 43
59, 60
26, 28
27, 32
335, 461
1497, 1832
1017, 1133
114, 114
16, 14
23, 25
62, 88
226, 263
162, 150
27, 21
6, 14
10, 15
11, 9
4, 6
6, 8
5, 5
5, 8
7, 12
8, 12
4, 4
8, 12
8, 10
14, 11
4, 7
4, 7
5, 5
6, 9
5, 9
7, 5
2, 3
5, 6
6, 9
4, 1
1, 2
6, 9
5, 2
3, 2
6, 5
4, 2
1, 2
4, 3
4, 4
5, 1
6, 3
5, 3
2, 5
5, 2
2, 4
1, 5
1, 5
1, 1
2, 4
2, 2
1, 2
2, 4
5, 1
1, 0
0, 3
1, 2
2, 7
4, 3
1, 0
2, 3
0, 2
1, 1
1, 1
3, 3
0, 1
2, 1
0, 1
1, 3
1, 2
0, 1
1, 1
3, 2
0, 1
1, 2
0, 0
0, 1
0, 1
1, 0
0, 2
1, 2
1, 0
1, 0
0, 1
1, 1
1, 0
0, 1
1, 2
0, 0
0, 1
0, 0
1, 1
0, 1
0, 0
1, 0
1, 0
0, 1
0, 0
0, 0
0, 0
0, 0
0, 0
2, 0
0, 0
0, 2
0, 0
0, 0
1, 1
1, 1
0, 1
0, 0
0, 1
0, 0
1, 2
1, 0
0, 0
0, 0
1, 0
0, 0
0, 0
0, 0
0, 0
0, 0
0, 0
0, 0
0, 0
0, 0
0, 1
0, 0
0, 0
0, 1
0, 0
0, 1
0, 0
0, 0
0, 0
0, 0
0, 0
0, 0
0, 1
0, 0
0, 0
0, 0
0, 1
0, 0
0, 0
0, 1
0, 0
0, 0
0, 0
0, 0
0, 0
0, 0
0, 0
1, 0
0, 0
0, 0
0, 0
0, 0
0, 0
0, 0
0, 0
0, 0
0, 0
0, 0
0, 0
0, 0
0, 0
0, 0
0, 0
0, 0
0, 0
0, 0
0, 0
0, 0
0, 0
0, 0
0, 0
0, 0
0, 0
0, 0
0, 0
0, 0
0, 0
0, 0
0, 0
0, 0
0, 0
0, 0
0, 0
0, 0
0, 0
0, 0
0, 0
0, 0
0, 0
0, 0
0, 0
0, 0
0, 0
0, 0
0, 0
0, 0
0, 0
0, 0
0, 0
0, 0
0, 0
0, 0
0, 0
0, 0
0, 0
0, 0
0, 0
0, 0
0, 0
0, 0
0, 0
0, 0
0, 0
0, 0
0, 0
0, 0
0, 0
0, 0
0, 0
0, 0
0, 0
0, 0
0, 0
0, 0
0, 0
0, 0
0, 0
0, 0
#ENDOFDATA     end of spectrum data