File: host_upload/02-11-2024/rqc/uplink1/ps__0567_0717304816_000rfs_shot_428.msa
#FORMAT      : EMSA/MAS spectral data file
#VERSION     : TC202v2.0 PIXL
#TITLE       : Novarupta (sol567) subset1
#DATE        : 02-11-2024      Date in the format DD-MMM-YYYY, for example 07-JUL-2010
#TIME        :             The time of day at which the spectrum was recorded, in 24-hour format
#OWNER       : PIXL Flight Model       (PIXL will use this to indicate which instrument took the data.)
#NPOINTS     : 4096     Number of data points in the spectrum (This can be zero for configuration only files)
#NCOLUMNS    : 2     Number of data columns in the spectrum (This can be zero for configuration only files)
#XUNITS      : eV
#YUNITS      : COUNTS
#DATATYPE    : YY
#XPERCHAN    : 7.862, 7.881   eV per channel (separate by commas if more than one detector)
#OFFSET      : 18.5, -22.4         eV of first channel  (separate by commas if more than one detector
#SIGNALTYPE  : XRF
#YP_TEMP     : 1.69
#LIVETIME    : 8.8353, 8.8154   seconds (separate by commas if more than one detector)
#REALTIME    : 10, 10.0   seconds (separate by commas if more than one detector)
#SPECTRUM    : start of spectrum data
0, 0
0, 0
0, 0
0, 0
0, 0
0, 0
0, 0
1, 1
0, 4
2, 5
2, 2
6, 10
11, 14
16, 34
54, 50
100, 114
501, 511
99, 137
25, 34
30, 20
53, 54
278, 284
114, 112
72, 66
198, 215
107, 105
75, 60
33, 24
7, 7
6, 6
29, 25
20, 14
18, 22
172, 241
305, 308
43, 47
34, 37
48, 53
16, 12
6, 10
17, 31
55, 56
33, 41
10, 18
9, 14
11, 21
9, 13
10, 8
16, 13
19, 27
20, 40
11, 14
18, 16
36, 41
39, 52
28, 20
31, 45
312, 426
1546, 1844
1009, 1076
108, 120
10, 13
15, 18
87, 81
276, 286
151, 164
19, 20
4, 12
14, 13
12, 9
6, 7
3, 3
5, 6
8, 8
3, 3
7, 9
9, 7
6, 8
8, 18
14, 9
5, 6
7, 5
4, 9
5, 5
6, 3
5, 7
7, 6
2, 9
3, 2
4, 3
4, 1
6, 5
3, 3
2, 6
2, 5
10, 4
0, 3
5, 7
3, 5
5, 2
3, 1
6, 1
3, 4
2, 3
5, 3
2, 3
3, 4
0, 3
2, 4
0, 0
5, 1
5, 4
0, 1
1, 1
3, 4
3, 3
2, 2
3, 2
3, 4
0, 0
5, 1
0, 3
1, 2
0, 2
0, 1
0, 3
2, 2
3, 1
3, 2
0, 3
2, 1
1, 2
1, 1
1, 0
0, 1
1, 0
0, 1
2, 1
1, 1
2, 0
0, 0
1, 0
0, 3
1, 0
1, 0
4, 0
0, 0
1, 0
0, 0
1, 0
0, 0
0, 0
0, 0
0, 0
0, 0
0, 0
1, 0
2, 1
1, 1
0, 0
0, 0
0, 0
0, 0
1, 0
0, 1
0, 0
1, 0
0, 0
0, 0
1, 1
0, 1
1, 0
1, 0
0, 1
0, 0
0, 0
1, 1
0, 0
0, 0
0, 0
0, 0
1, 0
0, 0
0, 1
1, 0
0, 0
0, 0
0, 0
0, 1
0, 0
0, 0
1, 1
0, 0
0, 1
0, 0
0, 0
0, 0
0, 0
0, 0
0, 0
0, 0
0, 0
0, 0
0, 0
0, 0
0, 0
0, 0
0, 0
0, 0
0, 0
0, 0
0, 0
0, 0
0, 0
0, 0
0, 0
0, 0
0, 0
0, 0
0, 0
0, 0
0, 0
0, 0
0, 0
0, 0
0, 0
0, 0
0, 0
0, 0
0, 0
0, 0
0, 0
0, 0
0, 0
0, 0
0, 0
0, 0
0, 0
0, 0
0, 0
0, 0
0, 0
0, 0
0, 0
0, 0
0, 0
0, 0
0, 0
0, 0
0, 0
0, 0
0, 0
0, 0
0, 0
0, 0
0, 0
0, 0
0, 0
0, 0
0, 0
0, 0
0, 0
0, 0
0, 0
0, 0
0, 0
0, 0
0, 0
0, 0
0, 0
0, 0
0, 0
0, 0
0, 0
0, 0
0, 0
0, 0
0, 0
0, 0
0, 0
0, 0
0, 0
0, 0
0, 0
0, 0
0, 0
0, 0
0, 0
0, 0
0, 0
0, 0
0, 0
0, 0
0, 0
#ENDOFDATA     end of spectrum data