File: host_upload/02-11-2024/rqc/uplink1/ps__0567_0717304816_000rfs_shot_386.msa
#FORMAT      : EMSA/MAS spectral data file
#VERSION     : TC202v2.0 PIXL
#TITLE       : Novarupta (sol567) subset1
#DATE        : 02-11-2024      Date in the format DD-MMM-YYYY, for example 07-JUL-2010
#TIME        :             The time of day at which the spectrum was recorded, in 24-hour format
#OWNER       : PIXL Flight Model       (PIXL will use this to indicate which instrument took the data.)
#NPOINTS     : 4096     Number of data points in the spectrum (This can be zero for configuration only files)
#NCOLUMNS    : 2     Number of data columns in the spectrum (This can be zero for configuration only files)
#XUNITS      : eV
#YUNITS      : COUNTS
#DATATYPE    : YY
#XPERCHAN    : 7.862, 7.881   eV per channel (separate by commas if more than one detector)
#OFFSET      : 18.5, -22.4         eV of first channel  (separate by commas if more than one detector
#SIGNALTYPE  : XRF
#YP_TEMP     : 1.658
#LIVETIME    : 8.82355, 8.64348   seconds (separate by commas if more than one detector)
#REALTIME    : 10, 10.0   seconds (separate by commas if more than one detector)
#SPECTRUM    : start of spectrum data
0, 0
0, 0
0, 0
0, 0
0, 0
0, 0
0, 0
0, 1
3, 2
6, 7
3, 5
8, 7
10, 16
36, 21
44, 37
106, 130
485, 559
112, 123
29, 38
20, 19
66, 57
303, 327
122, 134
64, 84
233, 256
103, 122
70, 54
24, 34
9, 11
4, 12
31, 32
8, 15
13, 16
201, 222
298, 336
48, 50
38, 58
63, 52
12, 18
15, 8
17, 26
70, 69
30, 39
15, 11
15, 14
20, 26
10, 17
16, 11
21, 17
33, 34
29, 30
9, 13
10, 14
35, 31
49, 39
24, 11
21, 42
353, 450
1606, 1747
1091, 1049
137, 106
17, 23
21, 28
91, 91
256, 280
152, 144
34, 20
7, 11
10, 15
12, 8
6, 4
6, 6
5, 10
3, 7
5, 9
4, 2
11, 12
4, 6
11, 11
7, 14
8, 11
2, 4
6, 4
3, 6
6, 6
5, 8
3, 6
2, 3
8, 6
3, 2
5, 3
4, 8
7, 5
3, 6
5, 11
1, 4
5, 2
3, 1
4, 0
4, 4
3, 3
4, 4
3, 2
2, 0
1, 2
4, 4
4, 4
5, 3
2, 2
3, 2
1, 1
2, 2
1, 0
1, 3
3, 6
2, 5
5, 5
2, 2
1, 1
2, 2
4, 0
2, 1
1, 4
1, 1
0, 1
2, 0
1, 1
0, 2
1, 3
2, 1
1, 0
1, 2
0, 1
2, 2
1, 0
0, 0
2, 0
0, 3
0, 1
1, 1
0, 0
0, 0
0, 0
0, 0
1, 0
0, 1
1, 1
0, 2
1, 0
0, 1
0, 3
1, 1
1, 0
0, 0
1, 1
0, 0
1, 0
0, 0
1, 0
0, 0
0, 0
1, 1
0, 0
0, 0
1, 0
0, 0
0, 0
0, 1
0, 1
0, 0
0, 3
0, 0
0, 0
0, 0
1, 0
0, 0
1, 1
0, 0
0, 0
0, 0
0, 0
1, 0
0, 0
0, 0
0, 0
0, 0
0, 2
0, 0
0, 1
0, 0
0, 1
0, 0
0, 0
0, 0
0, 0
0, 0
0, 0
0, 0
0, 0
0, 0
0, 0
0, 0
0, 0
0, 0
0, 0
0, 0
0, 0
0, 0
0, 0
0, 0
0, 0
0, 0
0, 0
0, 0
0, 0
0, 0
0, 0
0, 0
0, 0
0, 0
0, 0
0, 0
0, 0
0, 0
0, 0
0, 0
0, 0
0, 0
0, 0
0, 0
0, 0
0, 0
0, 0
0, 0
0, 0
0, 0
0, 0
0, 0
0, 0
0, 0
0, 0
0, 0
0, 0
0, 0
0, 0
0, 0
0, 0
0, 0
0, 0
0, 0
0, 0
0, 0
0, 0
0, 0
0, 0
0, 0
0, 0
0, 0
0, 0
0, 0
0, 0
0, 0
0, 0
0, 0
0, 0
0, 0
0, 0
0, 0
0, 0
0, 0
0, 0
0, 0
0, 0
0, 0
0, 0
0, 0
0, 0
0, 0
0, 0
0, 0
0, 0
0, 0
0, 0
0, 0
0, 0
0, 0
0, 0
0, 0
0, 0
0, 0
0, 0
0, 0
0, 0
0, 0
#ENDOFDATA     end of spectrum data