File: host_upload/02-11-2024/rqc/uplink1/ps__0567_0717304816_000rfs_shot_93.msa
#FORMAT      : EMSA/MAS spectral data file
#VERSION     : TC202v2.0 PIXL
#TITLE       : Novarupta (sol567) subset1
#DATE        : 02-11-2024      Date in the format DD-MMM-YYYY, for example 07-JUL-2010
#TIME        :             The time of day at which the spectrum was recorded, in 24-hour format
#OWNER       : PIXL Flight Model       (PIXL will use this to indicate which instrument took the data.)
#NPOINTS     : 4096     Number of data points in the spectrum (This can be zero for configuration only files)
#NCOLUMNS    : 2     Number of data columns in the spectrum (This can be zero for configuration only files)
#XUNITS      : eV
#YUNITS      : COUNTS
#DATATYPE    : YY
#XPERCHAN    : 7.862, 7.881   eV per channel (separate by commas if more than one detector)
#OFFSET      : 18.5, -22.4         eV of first channel  (separate by commas if more than one detector
#SIGNALTYPE  : XRF
#YP_TEMP     : -1.004
#LIVETIME    : 8.847, 8.83528   seconds (separate by commas if more than one detector)
#REALTIME    : 10, 10.0   seconds (separate by commas if more than one detector)
#SPECTRUM    : start of spectrum data
0, 0
0, 0
0, 0
0, 0
0, 0
0, 0
0, 0
0, 0
1, 3
2, 1
5, 4
16, 12
14, 7
33, 24
48, 46
123, 130
448, 481
123, 93
40, 26
19, 32
55, 57
259, 259
111, 105
76, 76
201, 233
107, 107
67, 54
38, 19
9, 8
6, 4
32, 30
12, 13
21, 25
201, 224
321, 334
45, 33
41, 41
46, 54
14, 9
7, 15
29, 18
52, 63
24, 39
13, 13
10, 16
31, 21
12, 9
10, 11
14, 16
26, 34
25, 21
12, 6
10, 8
39, 33
36, 37
23, 18
39, 52
386, 528
1619, 1722
995, 863
98, 88
22, 23
19, 23
100, 111
244, 262
129, 124
21, 14
7, 9
12, 10
15, 8
5, 6
7, 6
7, 7
5, 7
12, 6
5, 8
12, 10
11, 7
10, 13
10, 7
13, 8
4, 3
4, 4
5, 4
5, 1
4, 0
5, 4
5, 4
3, 3
3, 5
3, 3
4, 3
4, 8
4, 3
4, 3
3, 3
4, 2
1, 8
4, 5
3, 5
2, 5
1, 2
4, 1
0, 3
1, 5
3, 5
1, 4
1, 2
2, 3
3, 3
3, 2
0, 2
2, 0
1, 1
0, 2
3, 0
9, 4
1, 2
2, 1
1, 1
3, 2
3, 2
0, 3
1, 0
2, 1
2, 1
1, 3
0, 1
1, 2
2, 1
2, 2
0, 0
0, 0
1, 0
2, 1
0, 0
0, 0
0, 0
0, 0
0, 0
0, 2
1, 1
4, 0
1, 0
1, 0
1, 2
0, 1
0, 0
0, 0
0, 0
1, 0
0, 0
0, 0
0, 0
0, 0
0, 0
0, 2
0, 1
0, 0
0, 0
0, 1
1, 0
0, 1
0, 0
1, 1
0, 0
1, 2
0, 0
1, 0
0, 0
1, 0
1, 0
0, 0
0, 0
0, 0
1, 0
0, 0
0, 0
1, 1
0, 0
0, 0
0, 1
1, 0
0, 0
0, 0
0, 0
0, 1
0, 0
0, 0
0, 0
1, 0
0, 0
0, 0
0, 0
0, 0
0, 0
0, 0
0, 0
0, 0
0, 0
0, 0
0, 0
0, 0
0, 0
0, 0
0, 0
0, 0
0, 0
0, 0
0, 0
0, 0
0, 0
0, 0
0, 0
0, 0
0, 0
0, 0
0, 0
0, 0
0, 0
0, 0
0, 0
0, 0
0, 0
0, 0
0, 0
0, 0
0, 0
0, 0
0, 0
0, 0
0, 0
0, 0
0, 0
0, 0
0, 0
0, 0
0, 0
0, 0
0, 0
0, 0
0, 0
0, 0
0, 0
0, 0
0, 0
0, 0
0, 0
0, 0
0, 0
0, 0
0, 0
0, 0
0, 0
0, 0
0, 0
0, 0
0, 0
0, 0
0, 0
0, 0
0, 0
0, 0
0, 0
0, 0
0, 0
0, 0
0, 0
0, 0
0, 0
0, 0
0, 0
0, 0
0, 0
0, 0
0, 0
0, 0
0, 0
0, 0
0, 0
0, 0
0, 0
0, 0
0, 0
0, 0
0, 0
0, 0
0, 0
0, 0
0, 0
0, 0
0, 0
0, 0
0, 0
#ENDOFDATA     end of spectrum data