File: host_upload/02-11-2024/rqc/uplink1/ps__0567_0717304816_000rfs_shot_72.msa
#FORMAT      : EMSA/MAS spectral data file
#VERSION     : TC202v2.0 PIXL
#TITLE       : Novarupta (sol567) subset1
#DATE        : 02-11-2024      Date in the format DD-MMM-YYYY, for example 07-JUL-2010
#TIME        :             The time of day at which the spectrum was recorded, in 24-hour format
#OWNER       : PIXL Flight Model       (PIXL will use this to indicate which instrument took the data.)
#NPOINTS     : 4096     Number of data points in the spectrum (This can be zero for configuration only files)
#NCOLUMNS    : 2     Number of data columns in the spectrum (This can be zero for configuration only files)
#XUNITS      : eV
#YUNITS      : COUNTS
#DATATYPE    : YY
#XPERCHAN    : 7.862, 7.881   eV per channel (separate by commas if more than one detector)
#OFFSET      : 18.5, -22.4         eV of first channel  (separate by commas if more than one detector
#SIGNALTYPE  : XRF
#YP_TEMP     : -1.742
#LIVETIME    : 8.83946, 8.64636   seconds (separate by commas if more than one detector)
#REALTIME    : 10, 10.0   seconds (separate by commas if more than one detector)
#SPECTRUM    : start of spectrum data
0, 0
0, 0
0, 0
0, 0
0, 0
0, 0
0, 0
0, 0
3, 4
4, 2
2, 3
13, 13
18, 6
35, 20
41, 38
111, 124
482, 573
117, 129
24, 35
23, 26
71, 84
311, 336
114, 115
79, 108
206, 219
112, 125
68, 89
26, 27
8, 10
13, 11
24, 34
24, 14
27, 21
242, 273
293, 357
39, 52
49, 55
49, 49
4, 13
12, 10
19, 13
63, 58
32, 21
11, 11
6, 8
15, 24
15, 7
12, 13
10, 15
22, 36
12, 12
14, 15
13, 13
26, 35
44, 51
29, 31
42, 45
422, 556
1563, 1840
880, 866
94, 99
21, 13
18, 17
82, 131
220, 289
151, 138
19, 19
9, 10
14, 10
7, 13
7, 9
9, 5
7, 6
7, 6
8, 3
9, 8
13, 2
6, 9
9, 13
12, 7
10, 5
6, 5
9, 4
1, 6
5, 8
5, 2
2, 5
3, 10
5, 5
5, 6
3, 5
1, 2
2, 1
2, 3
2, 6
4, 5
2, 4
4, 5
2, 2
0, 7
4, 1
2, 5
1, 3
3, 3
3, 3
1, 0
2, 2
1, 2
2, 1
4, 3
2, 5
2, 4
6, 0
3, 1
1, 1
2, 8
0, 5
0, 2
1, 1
0, 3
2, 0
2, 1
2, 4
1, 1
0, 4
2, 0
3, 2
0, 1
1, 0
1, 0
0, 2
0, 5
2, 1
0, 1
0, 0
0, 0
1, 2
0, 0
0, 0
0, 0
0, 0
0, 1
1, 0
0, 0
1, 0
1, 0
0, 0
0, 0
1, 1
0, 0
0, 1
0, 0
0, 1
0, 0
0, 0
0, 1
0, 0
0, 0
0, 1
0, 0
1, 1
0, 0
0, 1
0, 1
1, 0
0, 0
0, 0
0, 0
0, 0
0, 0
0, 0
0, 1
0, 0
0, 0
0, 0
0, 0
0, 0
0, 0
0, 0
0, 0
0, 0
0, 0
0, 1
1, 0
0, 0
0, 0
0, 0
0, 0
1, 0
0, 0
0, 0
0, 0
0, 0
1, 0
0, 0
0, 0
0, 0
0, 0
0, 0
0, 0
0, 0
0, 0
0, 0
0, 0
0, 0
0, 0
0, 0
0, 0
0, 0
1, 0
0, 0
0, 0
0, 0
0, 0
0, 0
0, 0
0, 0
0, 0
0, 0
0, 0
0, 0
0, 0
0, 0
0, 0
0, 0
0, 0
0, 0
0, 0
0, 0
0, 0
0, 0
0, 0
0, 0
0, 0
0, 0
0, 0
0, 0
0, 0
0, 0
0, 0
0, 0
0, 0
0, 0
0, 0
0, 0
0, 0
0, 0
0, 0
0, 0
0, 0
0, 0
0, 0
0, 0
0, 0
0, 0
0, 0
0, 0
0, 0
0, 0
0, 0
0, 0
0, 0
0, 0
0, 0
0, 0
0, 0
0, 0
0, 0
0, 0
0, 0
0, 0
0, 0
0, 0
0, 0
0, 0
0, 0
0, 0
0, 0
0, 0
0, 0
0, 0
0, 0
0, 0
0, 0
0, 0
0, 0
0, 0
0, 0
0, 0
0, 0
0, 0
0, 0
0, 0
0, 0
#ENDOFDATA     end of spectrum data