File: host_upload/02-11-2024/rqc/uplink1/ps__0567_0717304816_000rfs_shot_441.msa
#FORMAT      : EMSA/MAS spectral data file
#VERSION     : TC202v2.0 PIXL
#TITLE       : Novarupta (sol567) subset1
#DATE        : 02-11-2024      Date in the format DD-MMM-YYYY, for example 07-JUL-2010
#TIME        :             The time of day at which the spectrum was recorded, in 24-hour format
#OWNER       : PIXL Flight Model       (PIXL will use this to indicate which instrument took the data.)
#NPOINTS     : 4096     Number of data points in the spectrum (This can be zero for configuration only files)
#NCOLUMNS    : 2     Number of data columns in the spectrum (This can be zero for configuration only files)
#XUNITS      : eV
#YUNITS      : COUNTS
#DATATYPE    : YY
#XPERCHAN    : 7.862, 7.881   eV per channel (separate by commas if more than one detector)
#OFFSET      : 18.5, -22.4         eV of first channel  (separate by commas if more than one detector
#SIGNALTYPE  : XRF
#YP_TEMP     : 2.011
#LIVETIME    : 8.83888, 8.81129   seconds (separate by commas if more than one detector)
#REALTIME    : 10, 10.0   seconds (separate by commas if more than one detector)
#SPECTRUM    : start of spectrum data
0, 0
0, 0
0, 0
0, 0
0, 0
0, 0
0, 0
1, 0
3, 3
5, 5
1, 3
9, 7
16, 13
20, 22
51, 37
112, 123
455, 489
117, 116
25, 27
25, 29
49, 61
283, 318
138, 110
69, 96
209, 225
110, 113
76, 77
26, 27
7, 9
6, 6
28, 26
12, 23
13, 24
178, 238
300, 340
46, 51
40, 44
48, 57
14, 16
3, 9
26, 23
51, 59
36, 31
15, 16
14, 10
25, 17
18, 18
13, 10
8, 18
23, 25
16, 28
15, 12
13, 26
34, 41
42, 45
22, 17
26, 33
328, 475
1578, 1815
1017, 1105
124, 102
19, 16
19, 18
88, 100
248, 281
174, 166
22, 13
15, 9
11, 16
8, 10
5, 10
9, 4
3, 8
10, 6
6, 7
9, 9
11, 3
6, 14
10, 5
9, 16
9, 7
5, 9
4, 9
8, 7
5, 8
4, 2
4, 5
4, 9
3, 6
2, 8
2, 6
2, 6
2, 6
4, 4
4, 5
2, 7
2, 1
2, 3
3, 3
2, 2
2, 3
6, 0
4, 5
7, 3
6, 3
1, 5
1, 2
0, 1
1, 5
1, 3
1, 0
2, 2
0, 5
2, 3
2, 4
0, 2
2, 2
2, 2
2, 0
1, 4
2, 0
1, 4
2, 5
1, 3
0, 1
1, 1
2, 0
0, 3
0, 1
1, 0
1, 1
0, 1
1, 0
2, 0
0, 0
2, 0
1, 0
0, 0
1, 3
0, 1
0, 2
0, 0
0, 1
0, 1
1, 0
0, 0
0, 0
0, 1
0, 0
0, 1
0, 2
0, 1
0, 0
1, 0
2, 1
0, 0
1, 0
0, 1
2, 0
0, 0
0, 0
0, 0
0, 0
0, 0
0, 0
0, 0
1, 1
0, 1
0, 0
0, 0
0, 1
0, 1
0, 0
1, 0
0, 0
0, 0
0, 1
0, 0
0, 0
0, 0
1, 0
0, 0
0, 0
0, 1
0, 0
0, 0
0, 1
0, 0
0, 0
0, 0
0, 0
0, 0
0, 0
0, 0
0, 0
0, 0
0, 1
0, 0
0, 0
0, 0
0, 0
0, 0
0, 0
0, 0
0, 0
0, 0
0, 0
0, 0
0, 0
0, 0
0, 0
0, 0
0, 0
0, 0
0, 0
0, 0
0, 0
0, 0
0, 0
0, 0
0, 0
0, 0
0, 0
0, 0
0, 0
0, 0
0, 0
0, 0
0, 0
0, 0
0, 0
0, 0
0, 0
0, 0
0, 0
0, 0
0, 0
0, 0
0, 0
0, 0
0, 0
0, 0
0, 0
0, 0
0, 0
0, 0
0, 0
0, 0
0, 0
0, 0
0, 0
0, 0
0, 0
0, 0
0, 0
0, 0
0, 0
0, 0
0, 0
0, 0
0, 0
0, 0
0, 0
0, 0
0, 0
0, 0
0, 0
0, 0
0, 0
0, 0
0, 0
0, 0
0, 0
0, 0
0, 0
0, 0
0, 0
0, 0
0, 0
0, 0
0, 0
0, 0
0, 0
0, 0
0, 0
0, 0
0, 0
0, 0
0, 0
0, 0
0, 0
0, 0
0, 0
0, 0
#ENDOFDATA     end of spectrum data