File: host_upload/02-11-2024/rqc/uplink1/ps__0567_0717304816_000rfs_shot_394.msa
#FORMAT      : EMSA/MAS spectral data file
#VERSION     : TC202v2.0 PIXL
#TITLE       : Novarupta (sol567) subset1
#DATE        : 02-11-2024      Date in the format DD-MMM-YYYY, for example 07-JUL-2010
#TIME        :             The time of day at which the spectrum was recorded, in 24-hour format
#OWNER       : PIXL Flight Model       (PIXL will use this to indicate which instrument took the data.)
#NPOINTS     : 4096     Number of data points in the spectrum (This can be zero for configuration only files)
#NCOLUMNS    : 2     Number of data columns in the spectrum (This can be zero for configuration only files)
#XUNITS      : eV
#YUNITS      : COUNTS
#DATATYPE    : YY
#XPERCHAN    : 7.862, 7.881   eV per channel (separate by commas if more than one detector)
#OFFSET      : 18.5, -22.4         eV of first channel  (separate by commas if more than one detector
#SIGNALTYPE  : XRF
#YP_TEMP     : 1.69
#LIVETIME    : 8.8185, 8.82007   seconds (separate by commas if more than one detector)
#REALTIME    : 10, 10.0   seconds (separate by commas if more than one detector)
#SPECTRUM    : start of spectrum data
0, 0
0, 0
0, 0
0, 0
0, 0
0, 0
0, 0
2, 0
7, 4
2, 6
1, 2
11, 8
13, 8
21, 18
53, 47
120, 121
535, 498
127, 107
33, 29
26, 23
55, 53
296, 279
122, 96
69, 87
233, 239
144, 94
60, 68
28, 31
5, 18
6, 13
19, 21
20, 18
21, 21
199, 239
394, 354
59, 47
46, 48
41, 51
14, 9
14, 10
24, 25
69, 63
38, 32
12, 22
14, 5
25, 18
16, 17
9, 9
13, 13
30, 23
21, 26
11, 8
15, 14
37, 33
65, 49
20, 27
27, 29
373, 456
1703, 1805
1175, 997
142, 101
15, 23
20, 15
80, 99
251, 300
159, 150
24, 14
10, 10
13, 20
8, 7
9, 9
10, 4
7, 5
6, 9
11, 6
9, 4
5, 8
4, 8
15, 10
7, 12
6, 8
8, 2
4, 4
6, 6
8, 3
7, 9
0, 11
5, 11
1, 3
8, 4
6, 4
3, 5
7, 6
3, 3
5, 3
5, 3
5, 1
8, 4
1, 2
1, 5
0, 3
8, 3
1, 6
4, 3
0, 2
5, 5
2, 1
3, 1
2, 0
2, 0
4, 4
3, 2
0, 4
3, 2
3, 1
2, 4
6, 4
2, 0
2, 3
0, 2
2, 1
1, 2
2, 4
1, 3
1, 0
1, 0
0, 1
2, 0
2, 2
2, 1
1, 2
1, 0
1, 3
0, 0
3, 0
2, 1
3, 0
0, 2
0, 1
2, 0
0, 0
0, 0
0, 1
1, 0
1, 0
0, 0
1, 0
1, 0
0, 2
0, 1
0, 0
0, 0
0, 0
0, 1
0, 1
0, 0
0, 0
0, 0
1, 0
0, 1
0, 0
1, 1
0, 0
1, 0
0, 0
1, 0
0, 1
0, 0
0, 0
1, 0
0, 0
1, 0
0, 0
2, 0
0, 0
0, 0
0, 0
1, 0
0, 0
0, 0
0, 0
1, 0
0, 0
0, 1
0, 0
0, 0
1, 1
0, 0
0, 0
0, 0
0, 0
1, 0
0, 0
0, 0
0, 0
0, 0
0, 0
0, 0
0, 0
0, 0
0, 0
0, 0
0, 0
0, 0
1, 0
0, 1
0, 0
0, 0
0, 0
0, 0
0, 0
0, 0
0, 0
0, 0
0, 0
0, 0
0, 0
0, 0
0, 0
0, 0
0, 0
0, 0
0, 0
0, 0
0, 0
0, 0
0, 0
0, 0
0, 0
0, 0
0, 0
0, 0
0, 0
0, 0
0, 0
0, 0
0, 0
0, 0
0, 0
0, 0
0, 0
0, 0
0, 0
0, 0
0, 0
0, 0
0, 0
0, 0
0, 0
0, 0
0, 0
0, 0
0, 0
0, 0
0, 0
0, 0
0, 0
0, 0
0, 0
0, 0
0, 0
0, 0
0, 0
0, 0
0, 0
0, 0
0, 0
0, 0
0, 0
0, 0
0, 0
0, 0
0, 0
0, 0
0, 0
0, 0
0, 0
0, 0
0, 0
0, 0
0, 0
0, 0
0, 0
0, 0
0, 0
0, 0
0, 0
0, 0
0, 0
0, 0
0, 0
0, 0
0, 0
0, 0
#ENDOFDATA     end of spectrum data