File: host_upload/02-11-2024/rqc/uplink1/ps__0567_0717304816_000rfs_shot_447.msa
#FORMAT      : EMSA/MAS spectral data file
#VERSION     : TC202v2.0 PIXL
#TITLE       : Novarupta (sol567) subset1
#DATE        : 02-11-2024      Date in the format DD-MMM-YYYY, for example 07-JUL-2010
#TIME        :             The time of day at which the spectrum was recorded, in 24-hour format
#OWNER       : PIXL Flight Model       (PIXL will use this to indicate which instrument took the data.)
#NPOINTS     : 4096     Number of data points in the spectrum (This can be zero for configuration only files)
#NCOLUMNS    : 2     Number of data columns in the spectrum (This can be zero for configuration only files)
#XUNITS      : eV
#YUNITS      : COUNTS
#DATATYPE    : YY
#XPERCHAN    : 7.862, 7.881   eV per channel (separate by commas if more than one detector)
#OFFSET      : 18.5, -22.4         eV of first channel  (separate by commas if more than one detector
#SIGNALTYPE  : XRF
#YP_TEMP     : 1.883
#LIVETIME    : 8.8291, 8.64642   seconds (separate by commas if more than one detector)
#REALTIME    : 10, 10.0   seconds (separate by commas if more than one detector)
#SPECTRUM    : start of spectrum data
0, 0
0, 0
0, 0
0, 0
0, 0
0, 0
0, 0
0, 1
2, 1
1, 4
2, 4
12, 2
10, 21
30, 30
30, 50
102, 111
453, 569
113, 108
21, 29
21, 17
46, 52
298, 341
116, 106
78, 62
205, 228
109, 108
73, 82
30, 30
6, 13
7, 11
28, 24
10, 30
13, 20
199, 209
323, 346
55, 46
36, 30
51, 58
5, 17
11, 9
19, 24
60, 57
43, 28
24, 18
13, 11
10, 25
8, 10
6, 9
15, 17
39, 34
20, 14
18, 12
14, 8
44, 40
48, 53
24, 22
33, 49
328, 453
1518, 1729
1067, 980
141, 99
20, 17
19, 18
55, 94
260, 267
172, 146
13, 19
9, 7
10, 14
10, 6
3, 8
5, 9
8, 6
5, 7
2, 6
8, 9
5, 10
6, 4
6, 10
9, 8
9, 9
2, 6
3, 5
5, 6
9, 5
4, 7
8, 7
7, 9
10, 4
2, 2
6, 4
4, 3
2, 4
2, 5
3, 4
4, 1
1, 5
5, 1
4, 9
2, 3
6, 0
0, 3
7, 1
4, 2
2, 1
3, 3
1, 2
3, 1
3, 3
3, 1
3, 2
3, 0
3, 6
2, 2
2, 2
0, 5
0, 5
3, 2
3, 4
3, 1
0, 1
0, 0
2, 2
1, 2
1, 2
0, 0
0, 3
0, 1
2, 2
2, 3
0, 0
1, 3
1, 2
1, 0
3, 0
1, 0
1, 0
1, 2
0, 1
0, 0
1, 2
0, 0
0, 0
0, 1
1, 0
0, 0
0, 0
1, 1
0, 1
1, 0
0, 0
2, 0
0, 1
0, 2
0, 0
0, 1
0, 0
1, 0
0, 0
0, 0
0, 0
0, 0
0, 0
0, 0
0, 0
0, 0
1, 0
1, 0
0, 0
0, 0
0, 1
0, 1
2, 1
0, 0
0, 0
0, 0
0, 1
0, 0
0, 0
0, 0
0, 0
0, 0
0, 1
0, 2
1, 0
0, 0
0, 0
0, 0
0, 0
0, 0
0, 0
0, 0
1, 0
0, 0
0, 0
0, 0
0, 0
0, 0
0, 0
0, 0
0, 0
0, 1
0, 0
0, 0
0, 0
0, 0
0, 0
0, 0
0, 0
0, 0
0, 0
0, 0
0, 0
0, 0
0, 0
0, 0
0, 0
0, 0
0, 0
0, 0
0, 0
0, 0
0, 0
0, 0
0, 0
0, 0
0, 0
0, 0
0, 0
0, 0
0, 0
0, 0
0, 0
0, 0
0, 0
0, 0
0, 0
0, 0
0, 0
0, 0
0, 0
0, 0
0, 0
0, 0
0, 0
0, 0
0, 0
0, 0
0, 0
0, 0
0, 0
0, 0
0, 0
0, 0
0, 0
0, 0
0, 0
0, 0
0, 0
0, 0
0, 0
0, 0
0, 0
0, 0
0, 0
0, 0
0, 0
0, 0
0, 0
0, 0
0, 0
0, 0
0, 0
0, 0
0, 0
0, 0
0, 0
0, 0
0, 0
0, 0
0, 0
0, 0
0, 0
0, 0
0, 0
0, 0
0, 0
0, 0
0, 0
0, 0
0, 0
0, 0
0, 0
0, 0
#ENDOFDATA     end of spectrum data