File: host_upload/02-11-2024/rqc/uplink1/ps__0567_0717304816_000rfs_shot_471.msa
#FORMAT      : EMSA/MAS spectral data file
#VERSION     : TC202v2.0 PIXL
#TITLE       : Novarupta (sol567) subset1
#DATE        : 02-11-2024      Date in the format DD-MMM-YYYY, for example 07-JUL-2010
#TIME        :             The time of day at which the spectrum was recorded, in 24-hour format
#OWNER       : PIXL Flight Model       (PIXL will use this to indicate which instrument took the data.)
#NPOINTS     : 4096     Number of data points in the spectrum (This can be zero for configuration only files)
#NCOLUMNS    : 2     Number of data columns in the spectrum (This can be zero for configuration only files)
#XUNITS      : eV
#YUNITS      : COUNTS
#DATATYPE    : YY
#XPERCHAN    : 7.862, 7.881   eV per channel (separate by commas if more than one detector)
#OFFSET      : 18.5, -22.4         eV of first channel  (separate by commas if more than one detector
#SIGNALTYPE  : XRF
#YP_TEMP     : 1.915
#LIVETIME    : 8.83659, 8.80857   seconds (separate by commas if more than one detector)
#REALTIME    : 10, 10.0   seconds (separate by commas if more than one detector)
#SPECTRUM    : start of spectrum data
0, 0
0, 0
0, 0
0, 0
0, 0
0, 0
0, 0
1, 2
1, 1
7, 4
6, 2
9, 7
16, 22
21, 31
48, 54
109, 108
431, 555
112, 117
27, 24
25, 19
40, 55
277, 312
120, 126
74, 92
226, 282
105, 127
77, 84
25, 36
10, 9
7, 5
22, 30
17, 20
21, 30
179, 248
301, 338
50, 46
37, 54
51, 51
11, 17
6, 14
23, 27
51, 70
45, 38
16, 14
5, 15
21, 12
17, 19
11, 15
15, 16
26, 25
19, 33
11, 11
7, 16
23, 34
48, 42
28, 26
27, 29
311, 461
1538, 1882
1121, 1103
126, 118
19, 25
29, 28
85, 127
243, 327
142, 174
31, 21
7, 14
17, 14
8, 5
6, 7
6, 6
7, 10
7, 6
6, 6
8, 5
10, 7
6, 8
11, 15
10, 6
7, 9
7, 5
6, 7
6, 3
4, 6
5, 8
8, 4
7, 7
6, 7
7, 5
6, 4
1, 6
4, 5
2, 1
2, 1
5, 4
2, 6
5, 3
1, 3
1, 2
1, 3
0, 6
5, 6
3, 4
2, 6
4, 6
2, 3
1, 2
2, 2
1, 4
4, 2
0, 1
1, 1
2, 4
2, 3
3, 0
5, 1
2, 3
0, 3
2, 3
3, 3
5, 0
1, 2
4, 1
2, 1
0, 0
2, 1
0, 1
1, 1
1, 0
0, 2
1, 1
1, 2
1, 2
0, 2
0, 1
0, 0
1, 2
0, 1
0, 1
1, 2
0, 2
1, 1
1, 1
0, 0
0, 0
0, 1
1, 0
0, 0
0, 3
0, 1
0, 1
1, 0
1, 0
0, 0
0, 0
2, 1
0, 0
0, 0
1, 3
0, 0
1, 1
0, 0
0, 0
0, 0
1, 0
1, 1
0, 0
1, 0
0, 0
0, 1
1, 0
1, 0
0, 0
1, 0
0, 0
1, 0
0, 0
1, 0
0, 0
0, 0
0, 0
0, 1
0, 0
0, 0
0, 0
0, 0
0, 0
0, 0
0, 0
0, 0
0, 0
0, 1
0, 0
0, 0
0, 0
0, 0
0, 0
0, 0
0, 0
0, 0
0, 0
0, 0
0, 0
0, 0
0, 0
0, 0
0, 0
0, 0
0, 0
0, 0
0, 0
0, 0
0, 0
0, 0
0, 0
0, 1
0, 0
0, 0
0, 0
0, 0
0, 0
0, 0
0, 0
0, 0
0, 0
0, 0
0, 0
0, 0
0, 0
0, 0
0, 0
0, 0
0, 0
0, 0
0, 0
0, 0
0, 0
0, 0
0, 0
0, 0
0, 0
0, 0
0, 0
0, 0
0, 0
0, 0
0, 0
0, 0
0, 0
0, 0
0, 0
0, 0
0, 0
0, 0
0, 0
0, 0
0, 0
0, 0
0, 0
0, 0
0, 0
0, 0
0, 0
0, 0
0, 0
0, 0
0, 0
0, 0
0, 0
0, 0
0, 0
0, 0
0, 0
0, 0
0, 0
0, 0
0, 0
0, 0
0, 0
0, 0
0, 0
0, 0
0, 0
0, 0
0, 0
0, 0
0, 0
0, 0
0, 0
0, 0
0, 0
0, 0
0, 0
#ENDOFDATA     end of spectrum data