File: host_upload/06-09-2024/ps_0852/dump3/ps__0852shot_2450.msa
#FORMAT      : EMSA/MAS spectral data file
#VERSION     : TC202v2.0 PIXL
#TITLE       : N/A
#DATE        :       Date in the format DD-MMM-YYYY, for example 07-JUL-2010
#TIME        :             The time of day at which the spectrum was recorded, in 24-hour format
#OWNER       : PIXL Flight Model       (PIXL will use this to indicate which instrument took the data.)
#NPOINTS     : 4096     Number of data points in the spectrum (This can be zero for configuration only files)
#NCOLUMNS    : 2     Number of data columns in the spectrum (This can be zero for configuration only files)
#XUNITS      : eV
#YUNITS      : COUNTS
#DATATYPE    : YY
#XPERCHAN    : 7.862, 7.881   eV per channel (separate by commas if more than one detector)
#OFFSET      : 18.5, -22.4         eV of first channel  (separate by commas if more than one detector
#SIGNALTYPE  : XRF
#YP_TEMP     : 2.428
#LIVETIME    : 8.55161, 8.56375   seconds (separate by commas if more than one detector)
#REALTIME    : 10, 10.0   seconds (separate by commas if more than one detector)
#SPECTRUM    : start of spectrum data
0, 0
0, 0
0, 0
0, 0
0, 0
0, 0
0, 0
0, 1
0, 0
2, 0
1, 1
51, 38
69, 56
8, 6
6, 5
91, 92
434, 467
108, 103
3, 3
4, 3
2, 5
20, 21
1, 5
13, 8
32, 48
43, 53
22, 28
12, 11
1, 5
3, 3
2, 5
3, 5
1, 3
7, 11
16, 10
7, 8
5, 9
13, 6
14, 9
6, 4
3, 11
3, 8
12, 14
8, 14
8, 4
5, 5
9, 4
3, 8
8, 10
8, 10
7, 9
5, 9
10, 14
37, 40
57, 69
25, 29
35, 67
482, 580
2164, 2230
1560, 1385
169, 117
16, 12
16, 26
94, 123
339, 379
212, 201
35, 23
9, 10
8, 14
7, 8
2, 3
6, 2
3, 2
6, 1
13, 8
14, 5
9, 4
5, 5
1, 1
2, 6
1, 3
2, 4
4, 1
3, 1
6, 1
5, 11
6, 2
5, 3
8, 4
5, 10
3, 9
3, 3
1, 5
0, 2
3, 3
2, 3
0, 1
1, 0
3, 5
5, 1
7, 7
6, 6
1, 7
1, 4
1, 3
0, 1
1, 8
3, 1
4, 1
1, 2
7, 1
1, 1
7, 0
4, 4
1, 4
3, 3
2, 7
4, 1
1, 3
2, 2
4, 0
0, 1
2, 1
2, 0
1, 2
3, 1
1, 2
2, 1
2, 2
0, 0
1, 2
0, 2
2, 0
0, 1
0, 2
0, 1
0, 0
0, 0
0, 0
1, 1
1, 0
0, 1
0, 1
1, 0
0, 0
0, 0
0, 1
1, 1
0, 1
0, 0
0, 1
0, 0
0, 0
0, 0
0, 0
0, 0
0, 0
0, 0
1, 0
0, 0
0, 1
1, 0
0, 0
0, 0
0, 0
0, 0
1, 0
0, 0
0, 0
0, 0
1, 1
1, 2
0, 0
0, 0
0, 0
0, 0
1, 0
0, 0
0, 0
0, 0
0, 0
0, 0
0, 0
0, 0
0, 0
0, 0
0, 0
0, 1
0, 0
0, 0
0, 0
0, 0
0, 0
0, 0
0, 1
0, 1
0, 0
0, 0
0, 0
1, 0
0, 0
0, 0
0, 0
0, 0
0, 0
0, 0
0, 0
0, 0
0, 0
0, 0
0, 0
0, 0
0, 0
0, 0
0, 0
0, 0
0, 0
0, 0
0, 0
0, 0
0, 0
0, 0
0, 0
0, 0
0, 0
0, 0
0, 0
0, 0
0, 0
0, 0
0, 0
0, 0
0, 0
0, 0
0, 0
0, 0
0, 0
0, 0
0, 0
0, 0
0, 0
0, 0
0, 0
0, 0
0, 0
0, 0
0, 0
0, 0
0, 0
0, 0
0, 0
0, 0
0, 0
0, 0
0, 0
0, 0
0, 0
0, 0
0, 0
0, 0
0, 0
0, 0
0, 0
0, 0
0, 0
0, 0
0, 0
0, 0
0, 0
0, 0
0, 0
0, 0
0, 0
0, 0
0, 0
0, 0
0, 0
0, 0
0, 0
0, 0
0, 0
0, 0
0, 0
0, 0
0, 0
0, 0
0, 0
0, 0
0, 0
0, 0
0, 0
0, 0
0, 0
0, 0
#ENDOFDATA     end of spectrum data