File: host_upload/06-09-2024/ps_0852/dump3/ps__0852shot_2091.msa
#FORMAT      : EMSA/MAS spectral data file
#VERSION     : TC202v2.0 PIXL
#TITLE       : N/A
#DATE        :       Date in the format DD-MMM-YYYY, for example 07-JUL-2010
#TIME        :             The time of day at which the spectrum was recorded, in 24-hour format
#OWNER       : PIXL Flight Model       (PIXL will use this to indicate which instrument took the data.)
#NPOINTS     : 4096     Number of data points in the spectrum (This can be zero for configuration only files)
#NCOLUMNS    : 2     Number of data columns in the spectrum (This can be zero for configuration only files)
#XUNITS      : eV
#YUNITS      : COUNTS
#DATATYPE    : YY
#XPERCHAN    : 7.862, 7.881   eV per channel (separate by commas if more than one detector)
#OFFSET      : 18.5, -22.4         eV of first channel  (separate by commas if more than one detector
#SIGNALTYPE  : XRF
#YP_TEMP     : 2.588
#LIVETIME    : 8.55218, 8.55283   seconds (separate by commas if more than one detector)
#REALTIME    : 10, 10.0   seconds (separate by commas if more than one detector)
#SPECTRUM    : start of spectrum data
0, 0
0, 0
0, 0
0, 0
0, 0
0, 0
0, 0
0, 0
0, 0
0, 0
2, 5
45, 38
56, 65
4, 6
2, 5
93, 87
432, 407
106, 91
7, 4
1, 2
3, 1
0, 2
1, 1
6, 7
39, 57
46, 66
19, 35
20, 15
8, 4
2, 7
1, 6
2, 4
5, 5
7, 16
17, 20
5, 3
6, 7
8, 8
4, 22
10, 27
6, 11
10, 5
18, 22
16, 38
10, 58
15, 37
13, 15
5, 7
12, 8
24, 16
18, 2
8, 13
5, 23
40, 43
64, 53
26, 22
55, 46
499, 563
2096, 2323
1522, 1349
227, 126
21, 14
22, 30
93, 142
307, 333
228, 195
28, 25
11, 5
6, 16
13, 13
7, 4
10, 7
6, 10
4, 14
3, 11
3, 14
9, 5
5, 4
5, 2
3, 7
1, 0
3, 4
3, 3
5, 1
2, 2
6, 3
2, 5
1, 0
3, 5
0, 7
1, 3
2, 0
2, 4
1, 11
2, 13
1, 6
3, 5
5, 3
3, 3
1, 3
1, 3
1, 2
1, 0
2, 1
3, 1
1, 0
4, 2
3, 6
0, 1
1, 4
1, 3
2, 1
1, 3
3, 1
1, 4
3, 4
0, 3
5, 3
2, 3
1, 0
3, 0
4, 1
1, 1
3, 1
2, 0
1, 2
2, 2
2, 2
1, 2
1, 0
0, 1
1, 2
2, 3
0, 0
1, 0
1, 2
1, 1
1, 1
1, 1
0, 0
2, 0
0, 1
2, 0
1, 0
0, 1
0, 2
0, 1
1, 1
0, 0
1, 1
1, 0
0, 1
1, 1
0, 0
0, 0
2, 0
0, 0
1, 0
0, 0
2, 0
0, 0
1, 1
0, 0
0, 1
1, 1
1, 0
2, 0
0, 1
0, 1
1, 0
0, 0
0, 0
0, 0
1, 0
0, 2
1, 0
0, 1
1, 0
1, 1
0, 0
0, 0
0, 0
0, 1
0, 1
0, 0
0, 0
0, 1
0, 0
0, 0
0, 0
0, 0
0, 1
0, 0
0, 0
0, 0
0, 0
1, 0
0, 0
0, 0
0, 0
0, 0
0, 0
0, 0
0, 0
0, 0
0, 0
0, 0
0, 0
0, 0
0, 0
0, 0
0, 0
1, 0
0, 0
0, 0
0, 0
0, 0
0, 0
0, 0
0, 0
0, 0
0, 0
0, 1
0, 0
0, 0
0, 0
0, 0
0, 0
0, 0
0, 0
0, 0
0, 0
0, 0
0, 0
0, 0
0, 0
0, 0
0, 0
0, 0
0, 0
0, 0
0, 0
0, 0
0, 0
0, 0
0, 0
0, 0
0, 0
0, 0
0, 0
0, 0
0, 0
0, 0
0, 0
0, 0
0, 0
0, 0
0, 0
0, 0
0, 0
0, 0
0, 0
0, 0
0, 0
0, 0
0, 0
0, 0
0, 0
0, 0
0, 0
0, 0
0, 0
0, 0
0, 0
0, 0
0, 0
0, 0
0, 0
0, 0
0, 0
0, 0
0, 0
0, 0
0, 0
0, 0
0, 0
0, 0
0, 0
0, 0
0, 0
0, 0
0, 0
0, 0
0, 0
#ENDOFDATA     end of spectrum data