File: host_upload/06-09-2024/ps_0852/dump3/ps__0852shot_2576.msa
#FORMAT      : EMSA/MAS spectral data file
#VERSION     : TC202v2.0 PIXL
#TITLE       : N/A
#DATE        :       Date in the format DD-MMM-YYYY, for example 07-JUL-2010
#TIME        :             The time of day at which the spectrum was recorded, in 24-hour format
#OWNER       : PIXL Flight Model       (PIXL will use this to indicate which instrument took the data.)
#NPOINTS     : 4096     Number of data points in the spectrum (This can be zero for configuration only files)
#NCOLUMNS    : 2     Number of data columns in the spectrum (This can be zero for configuration only files)
#XUNITS      : eV
#YUNITS      : COUNTS
#DATATYPE    : YY
#XPERCHAN    : 7.862, 7.881   eV per channel (separate by commas if more than one detector)
#OFFSET      : 18.5, -22.4         eV of first channel  (separate by commas if more than one detector
#SIGNALTYPE  : XRF
#YP_TEMP     : 2.171
#LIVETIME    : 8.54329, 8.60427   seconds (separate by commas if more than one detector)
#REALTIME    : 10, 10.0   seconds (separate by commas if more than one detector)
#SPECTRUM    : start of spectrum data
0, 0
0, 0
0, 0
0, 0
0, 0
0, 0
0, 0
0, 1
0, 11
0, 23
1, 7
42, 55
68, 55
5, 7
4, 9
96, 106
476, 416
104, 86
3, 3
1, 3
2, 5
5, 8
4, 6
7, 79
42, 1115
23, 1575
18, 171
13, 11
6, 2
0, 4
3, 1
3, 1
3, 3
10, 10
13, 13
9, 3
31, 2
32, 4
8, 54
6, 81
1, 16
9, 10
17, 10
16, 9
35, 6
16, 5
4, 10
7, 5
8, 18
11, 55
20, 21
43, 5
42, 10
50, 44
51, 53
29, 24
36, 29
465, 593
2195, 2372
1669, 1271
189, 126
9, 15
32, 30
83, 121
331, 348
222, 210
31, 21
13, 14
10, 21
9, 7
2, 0
3, 1
3, 16
7, 32
6, 23
6, 8
3, 5
3, 6
5, 4
7, 7
3, 3
5, 4
4, 7
5, 8
5, 4
7, 3
3, 7
3, 3
3, 2
4, 8
3, 3
2, 2
1, 4
1, 3
9, 3
18, 4
10, 2
3, 1
3, 2
3, 4
4, 1
1, 2
1, 0
2, 2
3, 1
2, 3
2, 4
4, 1
4, 7
2, 3
6, 4
0, 2
2, 5
2, 2
4, 2
3, 3
4, 6
5, 5
1, 0
3, 4
0, 3
2, 1
2, 1
2, 1
1, 2
0, 1
1, 1
3, 2
1, 1
2, 1
2, 0
3, 3
2, 0
2, 2
0, 1
1, 1
0, 0
1, 0
1, 1
2, 0
0, 0
0, 0
1, 0
1, 0
2, 0
1, 0
0, 0
2, 0
0, 0
0, 0
0, 0
0, 0
0, 0
0, 1
1, 0
0, 0
0, 1
0, 0
0, 0
1, 1
0, 0
0, 0
0, 0
0, 0
0, 0
0, 0
0, 0
0, 0
0, 0
0, 1
0, 0
1, 0
0, 0
0, 0
0, 0
0, 0
0, 0
0, 0
0, 0
0, 0
0, 0
1, 0
0, 2
0, 0
0, 0
0, 0
0, 0
0, 0
0, 0
1, 0
0, 1
0, 0
0, 0
0, 1
0, 0
0, 0
0, 0
0, 0
0, 0
0, 1
0, 0
0, 0
0, 0
0, 0
1, 0
0, 0
0, 0
0, 0
0, 0
1, 0
0, 0
0, 0
0, 0
0, 0
0, 0
0, 0
0, 0
0, 0
0, 0
0, 0
0, 0
0, 0
0, 0
0, 0
0, 0
0, 0
0, 0
0, 0
0, 0
0, 0
0, 0
0, 0
0, 0
0, 0
0, 0
0, 0
0, 0
0, 0
0, 0
0, 0
0, 0
0, 0
0, 0
0, 0
0, 0
0, 0
0, 0
0, 0
0, 0
0, 0
0, 0
0, 0
0, 0
0, 0
0, 0
0, 0
0, 0
0, 0
0, 0
0, 0
0, 0
0, 0
0, 0
0, 0
0, 0
0, 0
0, 0
0, 0
0, 0
0, 0
0, 0
0, 0
0, 0
0, 0
0, 0
0, 0
0, 0
0, 0
0, 0
0, 0
0, 0
0, 0
0, 0
0, 0
0, 0
0, 0
0, 0
0, 0
0, 0
0, 0
0, 0
0, 0
0, 0
0, 0
#ENDOFDATA     end of spectrum data