File: host_upload/06-09-2024/ps_0852/dump3/ps__0852shot_2556.msa
#FORMAT      : EMSA/MAS spectral data file
#VERSION     : TC202v2.0 PIXL
#TITLE       : N/A
#DATE        :       Date in the format DD-MMM-YYYY, for example 07-JUL-2010
#TIME        :             The time of day at which the spectrum was recorded, in 24-hour format
#OWNER       : PIXL Flight Model       (PIXL will use this to indicate which instrument took the data.)
#NPOINTS     : 4096     Number of data points in the spectrum (This can be zero for configuration only files)
#NCOLUMNS    : 2     Number of data columns in the spectrum (This can be zero for configuration only files)
#XUNITS      : eV
#YUNITS      : COUNTS
#DATATYPE    : YY
#XPERCHAN    : 7.862, 7.881   eV per channel (separate by commas if more than one detector)
#OFFSET      : 18.5, -22.4         eV of first channel  (separate by commas if more than one detector
#SIGNALTYPE  : XRF
#YP_TEMP     : 2.267
#LIVETIME    : 8.5562, 8.56505   seconds (separate by commas if more than one detector)
#REALTIME    : 10, 10.0   seconds (separate by commas if more than one detector)
#SPECTRUM    : start of spectrum data
0, 0
0, 0
0, 0
0, 0
0, 0
0, 0
0, 0
0, 0
1, 1
3, 0
5, 0
56, 48
60, 66
7, 5
5, 6
91, 116
439, 447
104, 82
10, 4
5, 1
2, 1
4, 3
1, 2
11, 8
48, 65
40, 86
25, 26
10, 12
5, 9
2, 1
2, 4
2, 4
3, 2
21, 14
27, 19
4, 0
2, 13
3, 2
9, 5
5, 3
3, 2
16, 13
21, 19
17, 17
4, 2
5, 7
3, 7
7, 34
12, 137
10, 78
21, 13
50, 6
115, 9
81, 39
67, 48
26, 15
28, 41
498, 542
2358, 2322
1646, 1346
204, 129
17, 20
18, 16
80, 110
334, 349
250, 205
41, 17
58, 2
62, 15
18, 4
5, 1
1, 11
0, 1
7, 6
1, 4
5, 5
9, 5
2, 2
7, 7
5, 6
5, 2
4, 2
4, 6
1, 3
4, 8
2, 3
3, 3
5, 2
2, 7
4, 2
2, 3
4, 3
10, 1
14, 4
14, 2
9, 5
2, 7
2, 2
2, 2
2, 1
7, 1
4, 2
0, 1
1, 2
3, 3
5, 2
1, 4
1, 3
7, 2
2, 4
1, 4
6, 3
1, 2
0, 1
0, 1
2, 1
4, 4
2, 2
3, 0
2, 1
1, 1
1, 2
1, 0
3, 1
4, 0
0, 2
1, 0
0, 3
3, 0
0, 0
0, 1
1, 2
1, 1
1, 1
1, 0
0, 0
0, 1
0, 0
0, 0
0, 0
2, 1
0, 0
1, 0
1, 2
0, 0
1, 1
2, 0
0, 2
0, 0
1, 0
0, 0
0, 0
2, 0
0, 0
0, 0
0, 0
0, 0
0, 1
1, 0
0, 0
0, 0
0, 0
0, 0
1, 0
1, 0
0, 0
0, 0
0, 0
1, 1
2, 0
0, 1
0, 0
1, 0
0, 0
0, 0
0, 0
1, 0
0, 0
0, 0
0, 0
0, 0
0, 0
0, 0
1, 0
0, 0
0, 0
0, 0
0, 0
0, 0
0, 0
0, 0
0, 0
0, 0
1, 0
0, 0
0, 0
1, 0
0, 0
0, 1
0, 0
0, 0
0, 0
0, 0
0, 0
0, 0
0, 0
0, 0
0, 0
0, 0
0, 0
0, 0
0, 0
0, 0
0, 0
0, 0
0, 0
0, 0
0, 0
0, 0
0, 0
0, 0
0, 0
0, 0
0, 0
0, 0
0, 0
0, 0
0, 0
0, 0
0, 0
0, 0
0, 0
0, 0
0, 0
0, 0
0, 0
0, 0
0, 0
0, 0
0, 0
0, 0
0, 0
0, 0
0, 0
0, 0
0, 0
0, 0
0, 0
0, 0
0, 0
0, 0
0, 0
0, 0
0, 0
0, 0
0, 0
0, 0
0, 0
0, 0
0, 0
0, 0
0, 0
0, 0
0, 0
0, 0
0, 0
0, 0
0, 0
0, 0
0, 0
0, 0
0, 0
0, 0
0, 0
0, 0
0, 0
0, 0
0, 0
0, 0
0, 0
0, 0
0, 0
0, 0
0, 0
0, 0
0, 0
0, 0
0, 0
0, 0
0, 0
0, 0
0, 0
0, 0
0, 0
#ENDOFDATA     end of spectrum data