File: host_upload/06-09-2024/ps_0852/dump3/ps__0852shot_2539.msa
#FORMAT      : EMSA/MAS spectral data file
#VERSION     : TC202v2.0 PIXL
#TITLE       : N/A
#DATE        :       Date in the format DD-MMM-YYYY, for example 07-JUL-2010
#TIME        :             The time of day at which the spectrum was recorded, in 24-hour format
#OWNER       : PIXL Flight Model       (PIXL will use this to indicate which instrument took the data.)
#NPOINTS     : 4096     Number of data points in the spectrum (This can be zero for configuration only files)
#NCOLUMNS    : 2     Number of data columns in the spectrum (This can be zero for configuration only files)
#XUNITS      : eV
#YUNITS      : COUNTS
#DATATYPE    : YY
#XPERCHAN    : 7.862, 7.881   eV per channel (separate by commas if more than one detector)
#OFFSET      : 18.5, -22.4         eV of first channel  (separate by commas if more than one detector
#SIGNALTYPE  : XRF
#YP_TEMP     : 1.947
#LIVETIME    : 8.5673, 8.55777   seconds (separate by commas if more than one detector)
#REALTIME    : 10, 10.0   seconds (separate by commas if more than one detector)
#SPECTRUM    : start of spectrum data
0, 0
0, 0
0, 0
0, 0
0, 0
0, 0
0, 0
0, 1
0, 6
0, 40
0, 8
50, 52
64, 64
5, 10
3, 7
88, 111
407, 470
101, 92
5, 4
3, 5
3, 1
6, 6
2, 7
6, 58
36, 1394
58, 2163
27, 206
9, 8
7, 4
1, 4
3, 1
2, 2
4, 5
9, 17
19, 16
5, 6
7, 34
11, 21
9, 8
2, 1
4, 2
15, 12
7, 20
8, 7
3, 8
10, 12
9, 4
6, 5
15, 12
21, 23
12, 16
10, 8
10, 16
31, 45
59, 54
20, 21
22, 39
456, 596
2095, 2403
1534, 1412
176, 158
35, 44
23, 25
78, 117
338, 337
234, 206
33, 20
3, 7
13, 18
10, 7
4, 4
6, 3
5, 2
17, 4
20, 6
11, 9
6, 6
4, 3
1, 1
1, 1
1, 2
3, 3
2, 10
4, 9
5, 6
10, 6
6, 7
2, 8
0, 4
3, 3
2, 3
2, 4
1, 2
3, 5
4, 3
8, 4
3, 5
10, 4
3, 10
2, 4
2, 2
1, 4
1, 4
1, 1
0, 2
1, 2
1, 0
2, 1
1, 3
0, 6
2, 2
3, 4
3, 1
1, 1
0, 4
5, 2
0, 1
2, 5
2, 4
2, 1
0, 0
4, 1
1, 2
1, 2
1, 0
0, 2
2, 2
1, 1
1, 1
0, 0
2, 1
1, 0
1, 0
0, 1
1, 1
0, 1
0, 1
0, 0
1, 0
0, 0
1, 0
0, 1
1, 0
1, 0
0, 2
0, 0
0, 1
1, 0
0, 1
1, 0
1, 1
0, 0
0, 0
1, 1
1, 1
2, 0
0, 0
0, 0
1, 0
0, 0
0, 0
1, 0
0, 2
0, 0
0, 1
0, 1
0, 1
0, 1
0, 0
0, 0
0, 1
0, 0
0, 0
0, 0
0, 0
0, 0
0, 0
0, 0
0, 0
0, 1
1, 0
0, 0
1, 0
0, 0
1, 0
0, 1
0, 0
0, 0
0, 0
0, 0
0, 0
0, 0
0, 0
0, 0
0, 0
0, 0
0, 1
0, 0
0, 0
0, 0
0, 0
0, 0
0, 0
0, 0
0, 0
0, 0
0, 0
0, 0
0, 0
0, 0
0, 0
0, 0
0, 0
0, 0
0, 0
0, 1
0, 0
0, 0
0, 0
0, 0
0, 0
0, 0
0, 0
0, 0
0, 0
0, 0
0, 0
0, 0
0, 0
0, 0
0, 0
0, 0
0, 0
0, 0
0, 0
0, 0
0, 0
0, 0
0, 0
0, 0
0, 0
0, 0
0, 0
0, 0
0, 0
0, 0
0, 0
0, 0
0, 0
0, 0
0, 0
0, 0
0, 0
0, 0
0, 0
0, 0
0, 0
0, 0
0, 0
0, 0
0, 0
0, 0
0, 0
0, 0
0, 0
0, 0
0, 0
0, 0
0, 0
0, 0
0, 0
0, 0
0, 0
0, 0
0, 0
0, 0
0, 0
0, 0
0, 0
0, 0
0, 0
0, 0
0, 0
0, 0
0, 0
0, 0
0, 0
0, 0
0, 0
0, 0
0, 0
0, 0
0, 0
0, 0
#ENDOFDATA     end of spectrum data