File: host_upload/06-09-2024/ps_0852/dump3/ps__0852shot_2362.msa
#FORMAT      : EMSA/MAS spectral data file
#VERSION     : TC202v2.0 PIXL
#TITLE       : N/A
#DATE        :       Date in the format DD-MMM-YYYY, for example 07-JUL-2010
#TIME        :             The time of day at which the spectrum was recorded, in 24-hour format
#OWNER       : PIXL Flight Model       (PIXL will use this to indicate which instrument took the data.)
#NPOINTS     : 4096     Number of data points in the spectrum (This can be zero for configuration only files)
#NCOLUMNS    : 2     Number of data columns in the spectrum (This can be zero for configuration only files)
#XUNITS      : eV
#YUNITS      : COUNTS
#DATATYPE    : YY
#XPERCHAN    : 7.862, 7.881   eV per channel (separate by commas if more than one detector)
#OFFSET      : 18.5, -22.4         eV of first channel  (separate by commas if more than one detector
#SIGNALTYPE  : XRF
#YP_TEMP     : 2.332
#LIVETIME    : 8.56637, 8.53903   seconds (separate by commas if more than one detector)
#REALTIME    : 10, 10.0   seconds (separate by commas if more than one detector)
#SPECTRUM    : start of spectrum data
0, 0
0, 0
0, 0
0, 0
0, 0
0, 0
0, 0
1, 1
1, 8
0, 21
3, 8
35, 60
69, 83
4, 7
1, 6
95, 113
435, 477
100, 107
7, 5
1, 1
0, 4
6, 2
3, 5
6, 49
30, 1204
44, 1741
26, 183
11, 11
4, 4
1, 6
2, 4
2, 4
1, 3
6, 7
20, 9
6, 11
10, 45
9, 30
5, 9
6, 6
3, 3
9, 8
14, 16
13, 5
6, 2
5, 6
2, 2
7, 6
8, 6
15, 22
21, 15
8, 6
6, 5
38, 46
62, 47
21, 17
25, 36
434, 586
2170, 2405
1581, 1465
168, 154
30, 41
31, 33
103, 137
303, 370
230, 178
23, 27
8, 11
11, 13
9, 8
6, 5
4, 1
10, 6
14, 3
27, 7
15, 5
3, 8
2, 4
3, 6
2, 1
1, 1
4, 5
4, 1
6, 7
5, 5
8, 5
6, 9
2, 2
5, 2
0, 7
4, 0
5, 3
3, 4
1, 4
3, 2
0, 3
3, 5
3, 2
5, 10
2, 10
2, 4
0, 3
2, 3
2, 1
1, 3
3, 0
4, 0
5, 0
5, 3
1, 2
5, 2
2, 0
1, 1
0, 0
0, 5
3, 2
3, 3
2, 3
1, 1
4, 0
1, 0
2, 2
3, 3
0, 2
3, 2
1, 0
1, 1
1, 0
1, 1
2, 0
0, 2
0, 0
1, 1
2, 0
0, 2
1, 5
2, 1
0, 1
0, 2
1, 0
1, 0
1, 0
1, 0
2, 1
0, 1
3, 0
0, 1
1, 0
0, 0
0, 0
0, 0
1, 0
0, 0
1, 1
0, 1
0, 0
1, 0
0, 0
0, 0
2, 0
0, 0
0, 0
0, 1
0, 0
0, 0
1, 0
0, 0
0, 0
2, 0
0, 1
0, 2
0, 0
0, 0
0, 1
0, 0
0, 1
0, 0
0, 1
0, 0
0, 0
0, 0
1, 0
0, 0
0, 0
0, 0
0, 0
0, 0
0, 0
0, 0
0, 1
0, 0
0, 0
0, 0
1, 1
0, 0
0, 0
0, 0
0, 0
0, 0
0, 1
0, 0
0, 0
0, 0
0, 0
0, 0
0, 0
0, 0
0, 0
0, 0
0, 0
0, 0
0, 0
0, 0
0, 0
0, 0
0, 0
0, 0
0, 0
0, 0
0, 0
0, 1
0, 0
1, 0
0, 0
0, 0
0, 0
0, 0
0, 0
0, 0
0, 0
0, 0
0, 0
0, 0
0, 0
0, 0
0, 0
0, 0
0, 0
0, 0
0, 0
0, 0
0, 0
0, 0
0, 0
0, 0
0, 0
0, 0
0, 0
0, 0
0, 0
0, 0
0, 0
0, 0
0, 0
0, 0
0, 0
0, 0
0, 0
0, 0
0, 0
0, 0
0, 0
0, 0
0, 0
0, 0
0, 0
0, 0
0, 0
0, 0
0, 0
0, 0
0, 0
0, 0
0, 0
0, 0
0, 0
0, 0
0, 0
0, 0
0, 0
0, 0
0, 0
0, 0
0, 0
0, 0
0, 0
0, 0
0, 0
0, 0
0, 0
0, 0
0, 0
0, 0
0, 0
#ENDOFDATA     end of spectrum data