File: host_upload/06-09-2024/ps_0852/dump3/ps__0852shot_2353.msa
#FORMAT      : EMSA/MAS spectral data file
#VERSION     : TC202v2.0 PIXL
#TITLE       : N/A
#DATE        :       Date in the format DD-MMM-YYYY, for example 07-JUL-2010
#TIME        :             The time of day at which the spectrum was recorded, in 24-hour format
#OWNER       : PIXL Flight Model       (PIXL will use this to indicate which instrument took the data.)
#NPOINTS     : 4096     Number of data points in the spectrum (This can be zero for configuration only files)
#NCOLUMNS    : 2     Number of data columns in the spectrum (This can be zero for configuration only files)
#XUNITS      : eV
#YUNITS      : COUNTS
#DATATYPE    : YY
#XPERCHAN    : 7.862, 7.881   eV per channel (separate by commas if more than one detector)
#OFFSET      : 18.5, -22.4         eV of first channel  (separate by commas if more than one detector
#SIGNALTYPE  : XRF
#YP_TEMP     : 2.235
#LIVETIME    : 8.56728, 8.3711   seconds (separate by commas if more than one detector)
#REALTIME    : 10, 10.0   seconds (separate by commas if more than one detector)
#SPECTRUM    : start of spectrum data
0, 0
0, 0
0, 0
0, 0
0, 0
0, 0
0, 0
0, 0
0, 1
0, 1
4, 1
36, 36
59, 52
2, 6
2, 5
93, 114
407, 485
94, 110
4, 5
4, 3
3, 7
21, 26
13, 8
15, 12
37, 64
56, 45
30, 25
15, 8
0, 4
1, 1
4, 2
3, 2
3, 3
4, 6
9, 9
4, 8
1, 5
7, 12
1, 15
0, 3
2, 6
10, 7
13, 28
6, 28
5, 1
5, 5
6, 8
4, 6
5, 10
6, 12
13, 4
10, 4
9, 17
45, 53
54, 54
18, 20
34, 32
433, 614
2088, 2433
1559, 1447
175, 153
12, 19
20, 23
94, 113
346, 401
221, 197
34, 22
35, 11
34, 16
10, 10
3, 6
4, 8
8, 6
5, 4
7, 4
6, 5
5, 5
2, 2
1, 5
2, 5
6, 4
4, 2
1, 8
9, 10
3, 18
3, 7
4, 0
5, 3
2, 4
1, 3
5, 4
2, 5
3, 2
0, 6
3, 2
2, 7
2, 5
5, 4
5, 3
0, 2
2, 3
1, 2
0, 1
5, 4
2, 6
1, 7
1, 4
1, 0
5, 4
1, 2
0, 1
2, 0
1, 2
0, 0
4, 2
6, 6
3, 6
0, 2
5, 0
3, 1
2, 4
0, 0
4, 2
0, 2
1, 1
2, 2
2, 1
0, 4
0, 2
1, 1
0, 2
1, 0
0, 0
3, 2
1, 2
1, 0
1, 2
2, 0
0, 1
0, 0
1, 0
1, 0
1, 0
0, 0
1, 0
0, 1
0, 0
0, 0
0, 1
1, 0
0, 1
0, 0
0, 2
0, 2
1, 0
2, 0
1, 1
0, 0
0, 0
0, 0
0, 1
0, 0
0, 0
0, 0
0, 0
0, 0
0, 0
0, 1
0, 0
1, 1
1, 0
0, 1
0, 0
1, 0
0, 0
0, 1
1, 0
1, 0
1, 0
0, 0
0, 0
1, 1
0, 0
1, 0
0, 0
0, 0
0, 0
0, 0
0, 0
0, 0
0, 0
0, 0
0, 0
0, 0
0, 0
0, 2
1, 0
0, 0
0, 0
0, 0
0, 0
0, 0
0, 0
0, 0
0, 0
0, 0
0, 0
0, 0
0, 0
0, 0
0, 0
0, 0
0, 0
0, 0
0, 0
0, 0
0, 0
0, 0
0, 0
1, 0
0, 0
0, 0
0, 0
0, 0
0, 0
0, 0
0, 0
0, 0
0, 0
0, 0
0, 0
0, 0
0, 0
0, 0
0, 0
0, 0
0, 0
0, 0
0, 0
0, 0
0, 0
0, 0
0, 0
0, 0
0, 0
0, 0
0, 0
0, 0
0, 0
0, 0
0, 0
0, 0
0, 0
0, 0
0, 0
0, 0
0, 0
0, 0
0, 0
0, 0
0, 0
0, 0
0, 0
0, 0
0, 0
0, 0
0, 0
0, 0
0, 0
0, 0
0, 0
0, 0
0, 0
0, 0
0, 0
0, 0
0, 0
0, 0
0, 0
0, 0
0, 0
0, 0
0, 0
0, 0
0, 0
0, 0
0, 0
0, 0
0, 0
0, 0
0, 0
0, 0
0, 0
0, 0
#ENDOFDATA     end of spectrum data