File: host_upload/06-09-2024/ps_0852/dump3/ps__0852shot_2042.msa
#FORMAT      : EMSA/MAS spectral data file
#VERSION     : TC202v2.0 PIXL
#TITLE       : N/A
#DATE        :       Date in the format DD-MMM-YYYY, for example 07-JUL-2010
#TIME        :             The time of day at which the spectrum was recorded, in 24-hour format
#OWNER       : PIXL Flight Model       (PIXL will use this to indicate which instrument took the data.)
#NPOINTS     : 4096     Number of data points in the spectrum (This can be zero for configuration only files)
#NCOLUMNS    : 2     Number of data columns in the spectrum (This can be zero for configuration only files)
#XUNITS      : eV
#YUNITS      : COUNTS
#DATATYPE    : YY
#XPERCHAN    : 7.862, 7.881   eV per channel (separate by commas if more than one detector)
#OFFSET      : 18.5, -22.4         eV of first channel  (separate by commas if more than one detector
#SIGNALTYPE  : XRF
#YP_TEMP     : 2.428
#LIVETIME    : 8.54984, 8.55663   seconds (separate by commas if more than one detector)
#REALTIME    : 10, 10.0   seconds (separate by commas if more than one detector)
#SPECTRUM    : start of spectrum data
0, 0
0, 0
0, 0
0, 0
0, 0
0, 0
0, 0
1, 0
1, 4
0, 1
0, 2
47, 55
69, 74
5, 3
7, 1
94, 110
452, 371
133, 93
4, 3
1, 1
0, 2
3, 6
3, 2
10, 16
31, 111
35, 129
20, 23
10, 7
8, 3
4, 1
4, 1
0, 1
4, 3
10, 12
21, 14
49, 5
18, 6
11, 8
6, 15
5, 15
3, 9
10, 7
35, 17
72, 9
53, 7
21, 7
10, 7
7, 4
6, 10
18, 10
12, 15
18, 12
22, 14
37, 52
65, 62
32, 23
40, 34
505, 566
2238, 2273
1674, 1344
211, 144
18, 16
23, 26
115, 128
358, 368
240, 187
35, 33
11, 4
17, 16
8, 2
10, 3
6, 5
10, 1
12, 6
5, 9
12, 14
5, 2
9, 4
5, 4
5, 4
3, 6
7, 7
11, 1
2, 7
9, 4
3, 6
2, 4
7, 2
3, 3
7, 2
5, 5
5, 4
2, 6
9, 2
4, 4
3, 0
4, 1
4, 4
2, 1
2, 3
1, 1
4, 2
4, 3
2, 1
2, 2
2, 2
0, 4
3, 4
6, 2
3, 1
2, 1
5, 3
1, 3
2, 0
2, 2
6, 1
4, 5
5, 2
1, 3
8, 1
2, 1
1, 2
2, 3
3, 0
1, 2
2, 0
0, 2
1, 0
1, 1
2, 2
0, 0
1, 3
0, 1
1, 0
0, 0
0, 0
1, 1
0, 0
1, 0
0, 3
1, 0
1, 0
0, 0
0, 0
1, 1
0, 0
0, 1
2, 0
0, 1
0, 0
0, 0
0, 1
0, 1
0, 0
0, 0
1, 0
1, 0
1, 0
0, 0
0, 0
1, 0
1, 0
0, 0
1, 0
0, 0
1, 0
1, 1
1, 0
1, 1
0, 0
0, 0
0, 1
1, 0
0, 0
2, 0
0, 0
0, 0
0, 0
1, 1
1, 0
1, 0
1, 0
0, 0
1, 0
0, 0
0, 1
0, 0
0, 0
0, 1
0, 1
0, 0
0, 0
0, 1
0, 0
0, 0
0, 0
0, 0
0, 0
0, 0
0, 0
0, 0
0, 0
0, 0
0, 0
0, 0
0, 0
0, 0
0, 0
0, 0
0, 0
0, 0
0, 0
0, 0
0, 0
0, 0
0, 0
0, 0
0, 0
0, 0
0, 0
0, 0
0, 0
0, 0
0, 0
0, 0
0, 0
0, 0
0, 0
0, 0
0, 0
0, 0
0, 0
0, 0
0, 0
0, 0
0, 0
0, 0
0, 0
0, 0
0, 0
0, 0
0, 0
0, 0
0, 0
0, 0
0, 0
0, 0
0, 0
0, 0
0, 0
0, 0
0, 0
0, 0
0, 0
0, 0
0, 0
0, 0
0, 0
0, 0
0, 0
0, 0
0, 0
0, 0
0, 0
0, 0
0, 0
0, 0
0, 0
0, 0
0, 0
0, 0
0, 0
0, 0
0, 0
0, 0
0, 0
0, 0
0, 0
0, 0
0, 0
0, 0
0, 0
0, 0
0, 0
0, 0
0, 0
0, 0
0, 0
0, 0
0, 0
0, 0
0, 0
0, 0
0, 0
#ENDOFDATA     end of spectrum data