File: host_upload/06-09-2024/ps_0852/dump3/ps__0852shot_2141.msa
#FORMAT      : EMSA/MAS spectral data file
#VERSION     : TC202v2.0 PIXL
#TITLE       : N/A
#DATE        :       Date in the format DD-MMM-YYYY, for example 07-JUL-2010
#TIME        :             The time of day at which the spectrum was recorded, in 24-hour format
#OWNER       : PIXL Flight Model       (PIXL will use this to indicate which instrument took the data.)
#NPOINTS     : 4096     Number of data points in the spectrum (This can be zero for configuration only files)
#NCOLUMNS    : 2     Number of data columns in the spectrum (This can be zero for configuration only files)
#XUNITS      : eV
#YUNITS      : COUNTS
#DATATYPE    : YY
#XPERCHAN    : 7.862, 7.881   eV per channel (separate by commas if more than one detector)
#OFFSET      : 18.5, -22.4         eV of first channel  (separate by commas if more than one detector
#SIGNALTYPE  : XRF
#YP_TEMP     : 2.684
#LIVETIME    : 8.55318, 8.57341   seconds (separate by commas if more than one detector)
#REALTIME    : 10, 10.0   seconds (separate by commas if more than one detector)
#SPECTRUM    : start of spectrum data
0, 0
0, 0
0, 0
0, 0
0, 0
0, 0
0, 0
0, 1
4, 0
3, 3
3, 3
33, 34
53, 42
6, 5
7, 8
73, 70
419, 311
118, 82
6, 7
5, 2
14, 11
65, 60
26, 24
26, 22
75, 63
68, 82
32, 21
22, 13
12, 7
4, 6
12, 3
3, 2
14, 7
136, 114
245, 166
31, 27
26, 18
39, 21
14, 15
16, 6
5, 7
14, 16
18, 6
46, 6
89, 6
51, 8
13, 21
10, 21
13, 23
39, 39
29, 23
11, 2
11, 8
40, 36
81, 51
21, 17
29, 48
485, 449
2085, 1809
1617, 1097
194, 109
25, 20
31, 20
112, 87
326, 274
221, 151
28, 29
8, 4
18, 16
9, 11
6, 3
2, 6
4, 4
20, 6
30, 7
10, 4
6, 9
5, 4
5, 2
5, 5
4, 2
2, 3
5, 2
3, 3
6, 4
5, 5
0, 2
5, 3
4, 4
2, 2
3, 10
1, 5
7, 3
4, 4
2, 1
4, 2
2, 4
3, 2
4, 2
0, 1
2, 3
3, 3
1, 3
2, 1
2, 1
0, 4
2, 1
2, 3
0, 1
2, 0
1, 3
1, 0
4, 0
2, 2
3, 1
4, 1
4, 4
8, 2
1, 2
1, 1
1, 0
1, 1
4, 2
1, 1
1, 1
1, 0
0, 0
0, 1
1, 2
2, 1
0, 1
2, 2
1, 0
2, 1
1, 0
3, 1
2, 0
3, 0
1, 0
0, 0
0, 0
1, 2
1, 1
0, 2
1, 1
1, 1
0, 0
0, 1
0, 0
2, 1
0, 0
1, 1
1, 0
0, 0
1, 0
1, 1
1, 1
0, 0
0, 0
0, 1
0, 0
0, 0
0, 1
0, 0
0, 0
0, 1
0, 1
0, 0
0, 0
0, 1
1, 0
0, 1
0, 0
0, 0
0, 1
0, 0
0, 0
0, 0
0, 0
0, 0
0, 0
0, 0
0, 0
0, 0
0, 0
0, 0
0, 0
0, 0
0, 0
0, 0
0, 0
0, 0
0, 0
0, 0
0, 0
0, 0
0, 0
0, 0
1, 0
0, 0
0, 0
1, 0
0, 0
0, 0
0, 0
0, 0
0, 0
0, 0
0, 0
0, 0
0, 0
0, 0
0, 0
0, 0
0, 0
0, 0
0, 0
0, 0
0, 0
0, 0
0, 0
0, 0
0, 0
0, 0
0, 0
0, 0
0, 0
0, 0
0, 0
0, 0
0, 0
0, 0
0, 0
0, 0
0, 0
0, 0
0, 0
0, 0
0, 0
0, 0
0, 0
0, 0
0, 0
0, 0
0, 0
0, 0
0, 0
0, 0
0, 0
0, 0
0, 0
0, 0
0, 0
0, 0
0, 0
0, 0
0, 0
0, 0
0, 0
0, 0
0, 0
0, 0
0, 0
0, 0
0, 0
0, 0
0, 0
0, 0
0, 0
0, 0
0, 0
0, 0
0, 0
0, 0
0, 0
0, 0
0, 0
0, 0
0, 0
0, 0
0, 0
0, 0
0, 0
0, 0
0, 0
0, 0
0, 0
0, 0
0, 0
0, 0
0, 0
0, 0
0, 0
0, 0
#ENDOFDATA     end of spectrum data