File: host_upload/06-09-2024/ps_0852/dump3/ps__0852shot_2307.msa
#FORMAT      : EMSA/MAS spectral data file
#VERSION     : TC202v2.0 PIXL
#TITLE       : N/A
#DATE        :       Date in the format DD-MMM-YYYY, for example 07-JUL-2010
#TIME        :             The time of day at which the spectrum was recorded, in 24-hour format
#OWNER       : PIXL Flight Model       (PIXL will use this to indicate which instrument took the data.)
#NPOINTS     : 4096     Number of data points in the spectrum (This can be zero for configuration only files)
#NCOLUMNS    : 2     Number of data columns in the spectrum (This can be zero for configuration only files)
#XUNITS      : eV
#YUNITS      : COUNTS
#DATATYPE    : YY
#XPERCHAN    : 7.862, 7.881   eV per channel (separate by commas if more than one detector)
#OFFSET      : 18.5, -22.4         eV of first channel  (separate by commas if more than one detector
#SIGNALTYPE  : XRF
#YP_TEMP     : 2.364
#LIVETIME    : 8.56776, 8.54869   seconds (separate by commas if more than one detector)
#REALTIME    : 10, 10.0   seconds (separate by commas if more than one detector)
#SPECTRUM    : start of spectrum data
0, 0
0, 0
0, 0
0, 0
0, 0
0, 0
0, 0
1, 0
1, 1
1, 0
3, 3
30, 45
49, 58
5, 2
6, 2
102, 104
400, 459
109, 117
3, 10
0, 3
1, 1
6, 1
1, 2
12, 10
45, 46
35, 46
26, 19
9, 23
4, 10
7, 4
8, 4
3, 3
16, 4
47, 30
39, 40
19, 13
24, 11
12, 9
8, 2
3, 4
6, 2
11, 10
13, 18
13, 9
37, 2
16, 10
8, 38
7, 53
13, 25
21, 18
28, 9
18, 10
13, 13
42, 45
59, 58
22, 21
35, 33
449, 599
2124, 2430
1486, 1356
173, 134
13, 13
22, 20
92, 122
296, 362
209, 221
29, 36
7, 8
6, 18
4, 15
2, 6
11, 3
17, 10
15, 11
14, 10
10, 10
3, 3
3, 2
7, 7
4, 7
2, 3
3, 2
5, 3
4, 6
1, 2
4, 4
2, 3
4, 5
5, 1
4, 4
5, 6
7, 1
1, 2
4, 0
1, 3
7, 2
3, 6
3, 3
3, 2
4, 3
2, 4
1, 4
4, 4
0, 4
3, 1
4, 2
1, 0
3, 6
3, 0
3, 2
5, 2
3, 0
4, 3
3, 1
2, 2
4, 5
7, 3
3, 5
2, 2
1, 1
0, 1
3, 1
1, 2
1, 4
0, 4
2, 1
0, 1
0, 1
3, 2
0, 0
1, 0
0, 0
3, 0
2, 0
0, 3
0, 0
1, 0
0, 0
2, 1
0, 0
1, 2
0, 1
1, 0
1, 0
1, 0
0, 0
2, 0
0, 1
0, 1
0, 0
0, 0
0, 0
0, 0
0, 0
0, 0
0, 0
1, 0
0, 0
0, 0
0, 0
0, 0
1, 1
0, 0
0, 0
0, 0
0, 0
0, 0
0, 0
2, 0
0, 0
0, 0
0, 0
0, 0
0, 0
0, 0
1, 0
0, 0
0, 0
0, 1
0, 0
0, 0
0, 0
0, 1
0, 0
0, 0
0, 0
0, 0
1, 0
0, 0
0, 0
0, 0
0, 0
0, 0
0, 0
0, 0
0, 0
1, 0
0, 0
0, 0
1, 1
0, 0
0, 0
0, 0
0, 0
0, 0
0, 0
0, 0
0, 0
0, 0
0, 0
0, 0
0, 0
0, 0
0, 0
0, 0
0, 0
0, 0
0, 0
0, 0
0, 0
0, 0
0, 0
0, 0
0, 0
0, 0
0, 0
0, 0
0, 0
0, 0
0, 0
0, 0
0, 0
0, 0
0, 0
0, 0
0, 0
0, 0
0, 0
0, 0
0, 0
0, 0
0, 0
0, 0
0, 0
0, 0
0, 0
0, 0
0, 0
0, 0
0, 0
0, 0
0, 0
0, 0
0, 0
0, 0
0, 0
0, 0
0, 0
0, 0
0, 0
0, 0
0, 0
0, 0
0, 0
0, 0
0, 0
0, 0
0, 0
0, 0
0, 0
0, 0
0, 0
0, 0
0, 0
0, 0
0, 0
0, 0
0, 0
0, 0
0, 0
0, 0
0, 0
0, 0
0, 0
0, 0
0, 0
0, 0
0, 0
0, 0
0, 0
0, 0
0, 0
0, 0
0, 0
#ENDOFDATA     end of spectrum data