File: host_upload/06-09-2024/ps_0852/dump3/ps__0852shot_2233.msa
#FORMAT      : EMSA/MAS spectral data file
#VERSION     : TC202v2.0 PIXL
#TITLE       : N/A
#DATE        :       Date in the format DD-MMM-YYYY, for example 07-JUL-2010
#TIME        :             The time of day at which the spectrum was recorded, in 24-hour format
#OWNER       : PIXL Flight Model       (PIXL will use this to indicate which instrument took the data.)
#NPOINTS     : 4096     Number of data points in the spectrum (This can be zero for configuration only files)
#NCOLUMNS    : 2     Number of data columns in the spectrum (This can be zero for configuration only files)
#XUNITS      : eV
#YUNITS      : COUNTS
#DATATYPE    : YY
#XPERCHAN    : 7.862, 7.881   eV per channel (separate by commas if more than one detector)
#OFFSET      : 18.5, -22.4         eV of first channel  (separate by commas if more than one detector
#SIGNALTYPE  : XRF
#YP_TEMP     : 2.267
#LIVETIME    : 8.56364, 8.55861   seconds (separate by commas if more than one detector)
#REALTIME    : 10, 10.0   seconds (separate by commas if more than one detector)
#SPECTRUM    : start of spectrum data
0, 0
0, 0
0, 0
0, 0
0, 0
0, 0
0, 0
0, 0
0, 1
1, 1
3, 0
35, 54
57, 54
2, 5
5, 5
100, 101
432, 425
100, 90
5, 11
0, 1
1, 2
3, 4
3, 2
8, 7
43, 47
41, 30
20, 17
10, 7
1, 3
1, 3
3, 1
2, 1
1, 5
9, 12
13, 14
6, 7
6, 2
0, 4
7, 14
7, 4
5, 2
5, 6
11, 14
13, 8
11, 5
5, 39
5, 41
8, 13
8, 10
21, 20
14, 16
10, 10
19, 18
44, 45
56, 62
12, 24
35, 41
496, 581
2065, 2483
1528, 1434
196, 154
12, 23
20, 20
94, 116
294, 351
228, 216
30, 28
6, 21
12, 38
5, 39
4, 12
9, 10
9, 1
4, 3
1, 7
11, 4
4, 3
3, 3
3, 5
8, 5
7, 4
7, 7
3, 1
3, 6
4, 6
0, 1
3, 6
2, 4
1, 8
6, 7
4, 8
0, 7
5, 4
5, 11
1, 8
3, 4
2, 8
3, 0
0, 3
4, 1
1, 2
4, 1
4, 3
5, 1
1, 4
1, 3
2, 2
4, 0
0, 1
3, 1
3, 5
3, 0
3, 1
5, 0
4, 2
3, 2
6, 1
6, 1
1, 0
2, 1
3, 3
2, 2
6, 3
1, 1
2, 0
1, 2
0, 1
0, 2
0, 3
1, 1
0, 0
1, 0
1, 0
0, 0
0, 0
1, 0
0, 0
0, 1
0, 2
1, 0
0, 1
2, 0
0, 0
0, 0
0, 0
1, 1
0, 0
1, 0
0, 2
1, 0
0, 2
1, 0
0, 0
0, 0
0, 0
0, 1
1, 0
0, 0
0, 0
1, 0
0, 2
1, 0
0, 0
0, 0
0, 1
1, 0
0, 0
0, 0
1, 1
0, 0
0, 1
0, 1
0, 0
0, 0
1, 0
0, 0
0, 1
0, 0
0, 0
0, 0
0, 0
1, 0
0, 0
1, 0
0, 0
0, 0
0, 0
0, 0
0, 0
0, 0
0, 0
0, 0
0, 0
0, 0
0, 0
0, 0
0, 0
0, 0
0, 1
0, 0
0, 0
0, 0
0, 0
0, 0
0, 0
0, 0
0, 0
1, 0
0, 0
0, 0
0, 0
0, 0
0, 0
1, 0
0, 0
0, 1
0, 0
0, 0
0, 0
0, 0
0, 0
0, 0
0, 0
0, 0
0, 0
0, 0
0, 0
1, 0
0, 0
0, 0
0, 0
0, 0
0, 0
0, 0
0, 0
0, 0
0, 0
0, 0
0, 0
0, 0
0, 0
0, 0
0, 0
0, 0
0, 0
0, 0
0, 0
0, 0
0, 0
1, 0
0, 0
0, 0
0, 0
0, 0
0, 0
0, 0
0, 0
0, 0
0, 0
0, 0
0, 0
0, 0
0, 0
0, 0
0, 0
0, 0
0, 0
0, 0
0, 0
0, 0
0, 0
0, 0
0, 0
0, 0
0, 0
0, 0
0, 0
0, 0
0, 0
0, 0
0, 0
0, 0
0, 0
0, 0
0, 0
0, 0
0, 0
0, 0
0, 0
0, 0
0, 0
0, 0
0, 0
0, 0
#ENDOFDATA     end of spectrum data