File: host_upload/06-09-2024/ps_0852/dump3/ps__0852shot_2156.msa
#FORMAT      : EMSA/MAS spectral data file
#VERSION     : TC202v2.0 PIXL
#TITLE       : N/A
#DATE        :       Date in the format DD-MMM-YYYY, for example 07-JUL-2010
#TIME        :             The time of day at which the spectrum was recorded, in 24-hour format
#OWNER       : PIXL Flight Model       (PIXL will use this to indicate which instrument took the data.)
#NPOINTS     : 4096     Number of data points in the spectrum (This can be zero for configuration only files)
#NCOLUMNS    : 2     Number of data columns in the spectrum (This can be zero for configuration only files)
#XUNITS      : eV
#YUNITS      : COUNTS
#DATATYPE    : YY
#XPERCHAN    : 7.862, 7.881   eV per channel (separate by commas if more than one detector)
#OFFSET      : 18.5, -22.4         eV of first channel  (separate by commas if more than one detector
#SIGNALTYPE  : XRF
#YP_TEMP     : 2.46
#LIVETIME    : 8.54641, 8.59883   seconds (separate by commas if more than one detector)
#REALTIME    : 10, 10.0   seconds (separate by commas if more than one detector)
#SPECTRUM    : start of spectrum data
0, 0
0, 0
0, 0
0, 0
0, 0
0, 0
0, 0
0, 0
1, 2
1, 1
2, 0
37, 43
44, 50
3, 7
5, 2
91, 97
309, 388
83, 101
6, 5
4, 6
26, 36
158, 159
67, 64
14, 21
41, 46
41, 46
22, 29
11, 16
9, 5
1, 3
6, 9
1, 6
3, 3
17, 8
10, 12
5, 4
4, 3
2, 4
9, 6
2, 7
2, 7
7, 11
11, 15
8, 35
8, 30
6, 6
6, 7
4, 6
12, 8
27, 10
15, 17
7, 23
12, 37
41, 55
63, 64
58, 22
120, 37
539, 660
1972, 2463
1534, 1462
204, 170
14, 14
19, 28
96, 124
323, 360
236, 221
21, 35
18, 6
23, 18
33, 3
24, 3
10, 1
8, 0
4, 1
0, 8
7, 11
21, 2
19, 7
6, 4
3, 3
1, 0
4, 6
2, 3
3, 9
4, 5
2, 5
2, 3
3, 1
7, 1
0, 3
2, 3
5, 1
0, 3
3, 26
2, 23
5, 9
3, 4
3, 2
2, 0
6, 1
4, 1
2, 2
5, 2
2, 1
2, 2
2, 4
2, 2
0, 2
1, 3
0, 1
1, 3
4, 1
1, 0
4, 2
2, 3
0, 3
6, 7
0, 8
0, 2
1, 0
0, 0
0, 2
2, 2
2, 2
1, 3
0, 0
4, 0
0, 0
1, 1
1, 0
3, 3
2, 0
2, 2
1, 2
1, 0
1, 0
2, 0
1, 2
0, 0
1, 2
0, 1
1, 0
0, 0
1, 1
1, 3
0, 0
0, 1
2, 1
0, 1
0, 2
0, 0
2, 0
2, 2
1, 0
1, 2
0, 0
0, 0
0, 0
0, 0
0, 0
0, 0
0, 0
0, 0
0, 1
1, 0
1, 2
0, 0
0, 0
0, 0
0, 0
0, 0
1, 0
0, 0
1, 0
0, 0
0, 0
0, 1
0, 0
1, 0
1, 0
0, 0
0, 0
0, 0
0, 0
0, 0
0, 0
0, 0
0, 0
0, 0
0, 0
0, 0
1, 0
0, 0
0, 0
0, 0
0, 0
0, 0
0, 1
0, 0
0, 0
0, 0
0, 0
0, 0
0, 0
0, 0
0, 0
0, 0
0, 0
0, 0
0, 0
0, 0
0, 0
0, 0
0, 0
0, 0
0, 0
0, 0
0, 0
0, 0
0, 0
0, 0
0, 0
0, 0
0, 0
0, 0
0, 0
0, 0
0, 0
0, 0
0, 0
0, 0
0, 0
0, 0
0, 0
0, 0
0, 0
0, 0
0, 0
0, 0
0, 0
0, 0
0, 0
0, 0
0, 0
0, 0
0, 0
0, 0
0, 0
0, 0
0, 0
0, 0
0, 0
0, 0
0, 0
0, 0
0, 0
0, 0
0, 0
0, 0
0, 0
0, 0
0, 0
0, 0
0, 0
0, 0
0, 0
0, 0
0, 0
0, 0
0, 0
0, 0
0, 0
0, 0
0, 0
0, 0
0, 0
0, 0
0, 0
0, 0
0, 0
0, 0
0, 0
0, 0
0, 0
0, 0
0, 0
0, 0
0, 0
0, 0
0, 0
0, 0
0, 0
0, 0
0, 0
#ENDOFDATA     end of spectrum data