File: host_upload/06-09-2024/ps_0852/dump3/ps__0852shot_2460.msa
#FORMAT      : EMSA/MAS spectral data file
#VERSION     : TC202v2.0 PIXL
#TITLE       : N/A
#DATE        :       Date in the format DD-MMM-YYYY, for example 07-JUL-2010
#TIME        :             The time of day at which the spectrum was recorded, in 24-hour format
#OWNER       : PIXL Flight Model       (PIXL will use this to indicate which instrument took the data.)
#NPOINTS     : 4096     Number of data points in the spectrum (This can be zero for configuration only files)
#NCOLUMNS    : 2     Number of data columns in the spectrum (This can be zero for configuration only files)
#XUNITS      : eV
#YUNITS      : COUNTS
#DATATYPE    : YY
#XPERCHAN    : 7.862, 7.881   eV per channel (separate by commas if more than one detector)
#OFFSET      : 18.5, -22.4         eV of first channel  (separate by commas if more than one detector
#SIGNALTYPE  : XRF
#YP_TEMP     : 2.3
#LIVETIME    : 8.5432, 8.56123   seconds (separate by commas if more than one detector)
#REALTIME    : 10, 10.0   seconds (separate by commas if more than one detector)
#SPECTRUM    : start of spectrum data
0, 0
0, 0
0, 0
0, 0
0, 0
0, 0
0, 0
1, 0
0, 1
2, 0
2, 5
54, 46
78, 59
1, 8
2, 1
104, 97
427, 367
121, 106
7, 3
0, 0
6, 2
15, 17
13, 7
3, 6
23, 8
25, 25
14, 18
7, 10
10, 0
2, 1
2, 0
2, 2
4, 4
6, 7
17, 15
5, 3
6, 2
4, 2
6, 2
2, 3
5, 2
9, 8
14, 17
8, 5
5, 3
5, 5
6, 4
1, 5
6, 4
61, 11
113, 12
45, 6
14, 7
50, 41
115, 54
47, 14
34, 25
488, 514
2260, 2083
1564, 1212
189, 101
20, 11
19, 13
99, 103
315, 313
213, 156
25, 20
9, 6
10, 11
7, 5
4, 8
3, 14
7, 8
11, 10
2, 3
9, 2
4, 2
11, 5
5, 2
9, 5
12, 2
25, 6
17, 9
6, 9
4, 3
4, 3
8, 2
2, 2
2, 11
2, 3
2, 1
1, 4
3, 5
1, 3
5, 3
4, 1
1, 0
5, 2
5, 4
18, 1
10, 4
6, 1
6, 3
4, 0
3, 0
1, 2
1, 3
2, 2
0, 1
2, 1
2, 2
0, 4
3, 3
2, 1
1, 4
2, 2
7, 1
4, 3
0, 3
1, 0
5, 1
0, 0
2, 2
2, 1
4, 4
1, 3
1, 0
0, 1
0, 1
0, 0
3, 3
3, 2
0, 1
1, 0
0, 2
4, 2
0, 2
0, 1
0, 0
0, 0
2, 0
0, 2
0, 0
0, 0
1, 1
0, 0
1, 0
0, 0
1, 0
0, 0
1, 0
0, 0
0, 0
0, 0
0, 2
0, 0
0, 0
2, 3
0, 1
0, 0
0, 1
1, 0
1, 0
1, 0
2, 0
1, 0
0, 0
0, 0
0, 1
1, 0
0, 1
0, 0
0, 0
0, 0
0, 0
0, 0
0, 0
0, 0
0, 0
0, 0
0, 0
0, 0
0, 0
0, 0
0, 0
0, 0
0, 1
1, 0
0, 0
0, 0
0, 0
0, 0
1, 0
0, 0
0, 0
0, 0
0, 0
0, 1
0, 0
0, 0
0, 0
0, 0
0, 0
0, 0
0, 0
0, 0
0, 1
0, 0
0, 0
0, 0
0, 0
0, 1
0, 0
0, 0
0, 0
0, 0
0, 0
0, 0
0, 0
0, 0
0, 0
0, 0
0, 0
0, 0
0, 0
0, 0
0, 0
0, 0
0, 0
0, 0
0, 0
0, 0
0, 0
0, 0
0, 0
0, 0
0, 0
0, 0
0, 0
0, 0
0, 0
0, 0
0, 0
0, 0
0, 0
0, 0
0, 0
0, 0
0, 0
0, 0
0, 0
0, 0
0, 0
0, 0
0, 0
0, 0
0, 0
0, 0
0, 0
0, 0
0, 0
0, 0
0, 0
0, 0
0, 0
0, 0
0, 0
0, 0
0, 0
0, 0
0, 0
0, 0
0, 0
0, 0
0, 0
0, 0
0, 0
0, 0
0, 0
0, 0
0, 0
0, 0
0, 0
0, 0
0, 0
0, 0
0, 0
0, 0
0, 0
0, 0
0, 0
0, 0
0, 0
0, 0
#ENDOFDATA     end of spectrum data