File: host_upload/06-09-2024/ps_0852/dump3/ps__0852shot_2245.msa
#FORMAT      : EMSA/MAS spectral data file
#VERSION     : TC202v2.0 PIXL
#TITLE       : N/A
#DATE        :       Date in the format DD-MMM-YYYY, for example 07-JUL-2010
#TIME        :             The time of day at which the spectrum was recorded, in 24-hour format
#OWNER       : PIXL Flight Model       (PIXL will use this to indicate which instrument took the data.)
#NPOINTS     : 4096     Number of data points in the spectrum (This can be zero for configuration only files)
#NCOLUMNS    : 2     Number of data columns in the spectrum (This can be zero for configuration only files)
#XUNITS      : eV
#YUNITS      : COUNTS
#DATATYPE    : YY
#XPERCHAN    : 7.862, 7.881   eV per channel (separate by commas if more than one detector)
#OFFSET      : 18.5, -22.4         eV of first channel  (separate by commas if more than one detector
#SIGNALTYPE  : XRF
#YP_TEMP     : 2.235
#LIVETIME    : 8.58036, 8.57194   seconds (separate by commas if more than one detector)
#REALTIME    : 10, 10.0   seconds (separate by commas if more than one detector)
#SPECTRUM    : start of spectrum data
0, 0
0, 0
0, 0
0, 0
0, 0
0, 0
0, 0
1, 0
1, 0
1, 2
0, 4
31, 41
70, 51
5, 4
12, 4
89, 88
443, 395
124, 94
4, 4
2, 6
1, 2
5, 5
1, 5
11, 12
39, 41
66, 38
33, 26
17, 17
6, 2
1, 1
6, 2
3, 2
7, 12
21, 11
17, 7
7, 5
3, 2
5, 8
5, 8
4, 7
3, 6
14, 19
18, 29
8, 15
12, 9
5, 8
6, 8
8, 21
28, 6
15, 17
30, 9
23, 26
14, 53
39, 60
70, 37
21, 20
59, 43
543, 556
2378, 2300
1679, 1339
237, 129
36, 22
41, 30
114, 131
335, 366
254, 183
41, 27
8, 13
17, 12
10, 4
3, 1
2, 3
7, 4
10, 4
7, 6
10, 12
10, 8
4, 11
1, 7
3, 4
4, 5
6, 2
9, 4
8, 6
9, 5
8, 7
7, 4
5, 3
5, 4
3, 3
3, 7
3, 3
3, 5
4, 6
5, 4
2, 0
1, 1
4, 2
5, 2
2, 1
4, 3
2, 0
3, 4
1, 4
6, 6
5, 5
1, 2
1, 4
4, 3
4, 3
2, 0
1, 1
4, 1
3, 2
1, 2
4, 2
2, 4
4, 0
1, 1
1, 1
1, 0
3, 2
2, 3
1, 4
1, 1
3, 1
1, 1
0, 1
2, 1
1, 1
0, 2
1, 2
0, 0
0, 2
0, 0
1, 0
1, 2
1, 0
1, 1
3, 1
1, 0
0, 0
0, 0
0, 1
0, 0
1, 0
1, 0
2, 1
2, 0
3, 0
1, 0
0, 0
1, 0
0, 1
0, 0
0, 0
0, 0
0, 0
0, 0
2, 1
0, 0
1, 0
0, 0
0, 0
0, 0
0, 0
1, 0
0, 0
1, 0
1, 0
1, 0
2, 0
0, 0
0, 1
0, 2
0, 0
1, 0
1, 0
0, 0
0, 0
0, 0
0, 0
1, 0
0, 0
0, 0
1, 0
0, 0
0, 0
0, 0
1, 0
0, 0
0, 0
0, 0
0, 0
1, 0
0, 1
0, 0
0, 1
0, 0
1, 0
0, 0
0, 0
0, 1
0, 0
0, 0
0, 0
0, 0
0, 0
0, 0
0, 0
0, 0
0, 0
0, 0
0, 0
0, 0
0, 0
0, 0
0, 0
0, 1
0, 0
0, 0
0, 0
0, 0
0, 0
0, 1
0, 0
0, 0
0, 0
0, 0
0, 0
0, 0
0, 0
0, 0
0, 0
0, 0
0, 0
0, 0
0, 0
0, 0
0, 0
0, 0
0, 0
0, 0
0, 0
0, 0
0, 0
0, 0
0, 0
0, 0
0, 0
0, 0
0, 0
0, 0
0, 0
0, 0
0, 0
0, 0
0, 0
0, 0
0, 0
0, 0
0, 0
0, 0
0, 0
0, 0
0, 0
0, 0
0, 0
0, 0
0, 0
0, 0
0, 0
0, 0
0, 0
0, 0
0, 0
0, 0
0, 0
0, 0
0, 0
0, 0
0, 0
0, 0
0, 0
0, 0
0, 0
0, 0
0, 0
0, 0
0, 0
0, 0
0, 0
0, 0
0, 0
#ENDOFDATA     end of spectrum data