File: host_upload/06-09-2024/ps_0852/dump3/ps__0852shot_2279.msa
#FORMAT      : EMSA/MAS spectral data file
#VERSION     : TC202v2.0 PIXL
#TITLE       : N/A
#DATE        :       Date in the format DD-MMM-YYYY, for example 07-JUL-2010
#TIME        :             The time of day at which the spectrum was recorded, in 24-hour format
#OWNER       : PIXL Flight Model       (PIXL will use this to indicate which instrument took the data.)
#NPOINTS     : 4096     Number of data points in the spectrum (This can be zero for configuration only files)
#NCOLUMNS    : 2     Number of data columns in the spectrum (This can be zero for configuration only files)
#XUNITS      : eV
#YUNITS      : COUNTS
#DATATYPE    : YY
#XPERCHAN    : 7.862, 7.881   eV per channel (separate by commas if more than one detector)
#OFFSET      : 18.5, -22.4         eV of first channel  (separate by commas if more than one detector
#SIGNALTYPE  : XRF
#YP_TEMP     : 2.62
#LIVETIME    : 8.56861, 8.55996   seconds (separate by commas if more than one detector)
#REALTIME    : 10, 10.0   seconds (separate by commas if more than one detector)
#SPECTRUM    : start of spectrum data
0, 0
0, 0
0, 0
0, 0
0, 0
0, 0
0, 0
0, 1
0, 1
2, 3
3, 1
45, 52
63, 64
5, 3
1, 3
92, 82
443, 367
105, 89
7, 6
2, 2
6, 14
36, 102
17, 35
11, 5
30, 30
33, 26
16, 15
8, 12
3, 5
0, 3
2, 3
2, 4
8, 3
11, 19
16, 27
4, 33
1, 8
1, 9
4, 4
3, 2
8, 2
7, 5
18, 8
13, 11
3, 5
4, 16
3, 25
8, 11
8, 14
40, 24
80, 18
27, 8
10, 9
40, 46
84, 47
41, 20
33, 36
479, 542
2267, 2103
1622, 1289
199, 135
12, 9
22, 17
126, 103
352, 316
247, 185
28, 23
13, 6
8, 10
7, 8
4, 7
3, 9
9, 11
8, 13
7, 4
3, 5
8, 2
12, 5
11, 0
9, 6
14, 2
22, 7
15, 7
3, 7
4, 7
5, 7
13, 4
10, 2
1, 5
5, 2
4, 1
2, 1
0, 2
3, 1
1, 2
2, 2
5, 4
4, 1
2, 4
5, 2
6, 4
2, 2
4, 3
1, 3
1, 2
2, 1
2, 1
3, 2
3, 1
1, 5
2, 1
1, 4
3, 0
3, 1
2, 3
1, 5
4, 2
0, 1
4, 1
4, 2
3, 2
1, 3
5, 0
2, 4
4, 2
0, 0
1, 0
0, 1
2, 1
1, 2
0, 2
0, 0
0, 1
1, 1
2, 0
0, 1
0, 0
0, 1
0, 1
0, 1
1, 1
1, 1
0, 1
1, 0
0, 0
0, 2
0, 2
0, 0
0, 1
1, 0
1, 1
1, 2
1, 0
0, 1
1, 1
0, 0
0, 0
3, 0
0, 0
1, 1
0, 0
0, 0
0, 0
0, 0
0, 0
1, 0
0, 0
0, 0
0, 1
0, 1
0, 0
0, 1
0, 0
2, 0
0, 0
0, 0
0, 0
0, 1
0, 0
1, 0
0, 0
0, 0
0, 0
0, 1
0, 0
0, 0
0, 0
0, 0
0, 0
0, 0
0, 0
0, 0
0, 0
0, 0
0, 0
0, 0
0, 0
0, 0
0, 0
0, 0
0, 0
0, 0
0, 0
0, 0
0, 0
0, 0
0, 0
0, 0
0, 0
0, 0
0, 0
0, 0
0, 0
0, 0
0, 0
0, 0
0, 0
0, 0
0, 0
0, 0
0, 0
0, 0
0, 0
0, 0
0, 0
0, 0
0, 0
0, 0
0, 0
0, 0
0, 0
0, 0
0, 0
0, 0
0, 0
0, 0
0, 0
0, 0
0, 0
0, 0
0, 0
0, 0
0, 0
0, 0
0, 0
0, 0
0, 0
0, 0
0, 0
0, 0
0, 0
0, 0
0, 0
0, 0
0, 0
0, 0
0, 0
0, 0
0, 0
0, 0
0, 0
0, 0
0, 0
0, 0
0, 0
0, 0
0, 0
0, 0
0, 0
0, 0
0, 0
0, 0
0, 0
0, 0
0, 0
0, 0
0, 0
0, 0
0, 0
0, 0
0, 0
0, 0
0, 0
0, 0
0, 0
0, 0
0, 0
0, 0
0, 0
0, 0
0, 0
0, 0
0, 0
0, 0
#ENDOFDATA     end of spectrum data