File: host_upload/06-09-2024/ps_0852/dump3/ps__0852shot_2090.msa
#FORMAT      : EMSA/MAS spectral data file
#VERSION     : TC202v2.0 PIXL
#TITLE       : N/A
#DATE        :       Date in the format DD-MMM-YYYY, for example 07-JUL-2010
#TIME        :             The time of day at which the spectrum was recorded, in 24-hour format
#OWNER       : PIXL Flight Model       (PIXL will use this to indicate which instrument took the data.)
#NPOINTS     : 4096     Number of data points in the spectrum (This can be zero for configuration only files)
#NCOLUMNS    : 2     Number of data columns in the spectrum (This can be zero for configuration only files)
#XUNITS      : eV
#YUNITS      : COUNTS
#DATATYPE    : YY
#XPERCHAN    : 7.862, 7.881   eV per channel (separate by commas if more than one detector)
#OFFSET      : 18.5, -22.4         eV of first channel  (separate by commas if more than one detector
#SIGNALTYPE  : XRF
#YP_TEMP     : 2.235
#LIVETIME    : 8.59962, 8.58154   seconds (separate by commas if more than one detector)
#REALTIME    : 10, 10.0   seconds (separate by commas if more than one detector)
#SPECTRUM    : start of spectrum data
0, 0
0, 0
0, 0
0, 0
0, 0
0, 0
0, 0
0, 1
1, 0
1, 0
0, 2
31, 33
54, 52
11, 3
4, 2
85, 116
439, 411
89, 115
10, 1
2, 1
1, 4
1, 4
3, 6
7, 2
21, 40
35, 31
29, 19
19, 12
1, 7
5, 3
3, 3
1, 2
1, 3
18, 29
40, 37
8, 4
7, 8
6, 9
5, 3
5, 8
5, 4
4, 7
9, 16
18, 23
12, 55
12, 33
16, 6
6, 3
17, 6
39, 9
33, 11
8, 12
9, 16
36, 45
65, 57
28, 15
53, 40
510, 590
2177, 2184
1582, 1295
212, 144
22, 15
35, 20
114, 114
346, 352
222, 183
25, 11
9, 11
7, 14
9, 10
8, 8
6, 10
3, 10
2, 12
8, 10
5, 6
2, 5
8, 6
7, 1
2, 5
7, 0
3, 3
2, 4
5, 4
5, 7
4, 3
4, 1
5, 5
1, 0
4, 3
8, 3
2, 1
7, 4
3, 5
2, 9
3, 5
2, 4
2, 1
8, 1
4, 0
3, 3
1, 1
1, 2
1, 2
3, 2
7, 0
2, 2
1, 0
4, 2
0, 5
1, 0
0, 4
3, 3
3, 1
0, 4
2, 6
4, 4
7, 5
2, 0
1, 2
1, 2
0, 2
4, 4
3, 0
1, 1
2, 1
1, 1
1, 3
0, 0
0, 0
1, 2
1, 3
0, 0
1, 1
0, 2
1, 1
0, 0
2, 0
0, 0
0, 0
1, 0
1, 0
0, 1
1, 0
0, 1
1, 0
1, 1
0, 0
2, 0
0, 1
0, 0
0, 1
0, 1
1, 0
1, 0
0, 0
0, 1
0, 1
0, 0
0, 0
0, 0
1, 1
0, 2
0, 0
0, 2
0, 1
0, 0
0, 0
0, 0
0, 0
0, 0
0, 0
0, 0
0, 0
1, 0
0, 0
1, 0
0, 0
0, 0
0, 0
1, 0
0, 1
0, 0
0, 0
2, 0
1, 0
0, 0
0, 0
0, 0
0, 0
0, 0
0, 0
0, 0
0, 0
0, 0
1, 0
0, 1
0, 0
0, 0
0, 0
0, 0
0, 0
0, 0
0, 0
0, 0
0, 0
0, 0
0, 0
0, 0
0, 0
0, 0
0, 0
0, 0
0, 0
0, 0
0, 0
0, 0
0, 0
0, 0
0, 0
0, 0
0, 0
0, 0
0, 0
0, 0
0, 0
0, 0
0, 0
0, 0
0, 0
0, 0
0, 0
0, 0
0, 0
0, 0
0, 0
0, 0
0, 0
0, 0
0, 0
0, 0
0, 0
0, 0
0, 0
0, 0
0, 0
0, 0
0, 0
0, 0
0, 0
0, 0
0, 0
0, 0
0, 0
0, 0
0, 0
0, 0
0, 0
0, 0
0, 0
0, 0
0, 0
0, 0
0, 0
0, 0
0, 0
0, 0
0, 0
0, 0
0, 0
0, 0
0, 0
0, 0
0, 0
0, 0
0, 0
0, 0
0, 0
0, 0
0, 0
0, 0
0, 0
0, 0
0, 0
0, 0
0, 0
0, 0
0, 0
0, 0
0, 0
0, 0
0, 0
0, 0
0, 0
#ENDOFDATA     end of spectrum data