File: host_upload/06-09-2024/ps_0852/dump3/ps__0852shot_2215.msa
#FORMAT      : EMSA/MAS spectral data file
#VERSION     : TC202v2.0 PIXL
#TITLE       : N/A
#DATE        :       Date in the format DD-MMM-YYYY, for example 07-JUL-2010
#TIME        :             The time of day at which the spectrum was recorded, in 24-hour format
#OWNER       : PIXL Flight Model       (PIXL will use this to indicate which instrument took the data.)
#NPOINTS     : 4096     Number of data points in the spectrum (This can be zero for configuration only files)
#NCOLUMNS    : 2     Number of data columns in the spectrum (This can be zero for configuration only files)
#XUNITS      : eV
#YUNITS      : COUNTS
#DATATYPE    : YY
#XPERCHAN    : 7.862, 7.881   eV per channel (separate by commas if more than one detector)
#OFFSET      : 18.5, -22.4         eV of first channel  (separate by commas if more than one detector
#SIGNALTYPE  : XRF
#YP_TEMP     : 2.203
#LIVETIME    : 8.56318, 8.5658   seconds (separate by commas if more than one detector)
#REALTIME    : 10, 10.0   seconds (separate by commas if more than one detector)
#SPECTRUM    : start of spectrum data
0, 0
0, 0
0, 0
0, 0
0, 0
0, 0
0, 0
0, 0
1, 1
1, 0
2, 2
44, 46
64, 68
6, 2
7, 7
104, 124
437, 481
111, 116
9, 5
3, 1
2, 3
4, 4
3, 3
11, 14
30, 29
42, 31
11, 16
14, 10
2, 2
3, 2
0, 3
2, 1
4, 4
5, 17
10, 13
5, 6
4, 5
3, 7
3, 3
4, 6
4, 4
8, 8
20, 9
6, 7
3, 11
5, 52
3, 67
5, 9
8, 4
19, 8
10, 11
5, 7
9, 6
38, 43
64, 61
17, 20
28, 36
454, 645
2234, 2375
1620, 1381
199, 149
18, 24
19, 18
106, 121
346, 367
256, 184
35, 29
8, 20
15, 72
7, 53
3, 18
10, 2
10, 7
9, 5
5, 4
0, 3
6, 4
4, 3
4, 3
4, 4
4, 5
8, 1
2, 0
1, 11
5, 7
0, 1
2, 2
3, 4
0, 2
5, 3
5, 4
2, 7
2, 4
3, 3
4, 1
3, 4
3, 3
4, 1
2, 3
3, 1
2, 4
2, 3
4, 3
0, 3
1, 4
2, 4
1, 3
2, 2
0, 2
0, 4
2, 2
2, 1
3, 0
4, 3
5, 3
2, 5
4, 5
3, 1
2, 0
2, 1
5, 1
1, 0
6, 2
2, 2
0, 1
0, 0
2, 1
0, 4
2, 1
1, 1
0, 0
1, 1
1, 1
2, 3
1, 0
0, 2
0, 1
0, 1
2, 1
0, 0
1, 2
1, 3
0, 0
0, 1
0, 1
1, 1
0, 0
0, 1
1, 0
1, 0
0, 0
0, 0
1, 1
0, 0
0, 0
0, 1
2, 0
0, 0
2, 0
0, 0
1, 0
0, 0
0, 0
0, 0
1, 1
0, 1
0, 0
0, 1
0, 0
0, 0
0, 1
0, 1
0, 0
0, 0
0, 0
2, 1
0, 0
0, 0
0, 0
0, 0
1, 1
0, 0
0, 0
0, 0
0, 0
0, 0
0, 0
0, 0
0, 0
0, 0
0, 0
0, 0
1, 0
0, 0
0, 0
0, 0
0, 0
0, 0
0, 0
0, 0
0, 0
0, 0
0, 0
0, 0
0, 0
0, 0
0, 0
0, 0
0, 0
0, 0
0, 0
0, 0
0, 0
0, 0
0, 0
0, 0
0, 0
0, 0
0, 0
0, 0
0, 0
0, 0
0, 0
0, 0
0, 0
0, 0
0, 0
0, 0
0, 0
0, 0
0, 0
0, 0
0, 0
0, 0
0, 0
0, 0
0, 0
0, 0
0, 0
0, 0
0, 0
1, 0
0, 0
0, 0
0, 0
0, 0
0, 0
0, 0
0, 0
0, 0
0, 0
0, 0
0, 0
0, 0
0, 0
0, 0
0, 0
0, 0
0, 0
0, 0
0, 0
0, 0
0, 0
0, 0
0, 0
0, 0
0, 0
0, 0
0, 0
0, 0
0, 0
0, 0
0, 0
0, 0
0, 0
0, 0
0, 0
0, 0
0, 0
0, 0
0, 0
0, 0
0, 0
0, 0
0, 0
0, 0
0, 0
0, 0
0, 0
0, 0
0, 0
0, 0
0, 0
0, 0
#ENDOFDATA     end of spectrum data