File: host_upload/06-09-2024/ps_0852/dump3/ps__0852shot_2401.msa
#FORMAT      : EMSA/MAS spectral data file
#VERSION     : TC202v2.0 PIXL
#TITLE       : N/A
#DATE        :       Date in the format DD-MMM-YYYY, for example 07-JUL-2010
#TIME        :             The time of day at which the spectrum was recorded, in 24-hour format
#OWNER       : PIXL Flight Model       (PIXL will use this to indicate which instrument took the data.)
#NPOINTS     : 4096     Number of data points in the spectrum (This can be zero for configuration only files)
#NCOLUMNS    : 2     Number of data columns in the spectrum (This can be zero for configuration only files)
#XUNITS      : eV
#YUNITS      : COUNTS
#DATATYPE    : YY
#XPERCHAN    : 7.862, 7.881   eV per channel (separate by commas if more than one detector)
#OFFSET      : 18.5, -22.4         eV of first channel  (separate by commas if more than one detector
#SIGNALTYPE  : XRF
#YP_TEMP     : 2.492
#LIVETIME    : 8.57796, 8.56326   seconds (separate by commas if more than one detector)
#REALTIME    : 10, 10.0   seconds (separate by commas if more than one detector)
#SPECTRUM    : start of spectrum data
0, 0
0, 0
0, 0
0, 0
0, 0
0, 0
0, 0
0, 0
1, 1
1, 4
1, 1
51, 50
73, 66
3, 5
4, 8
98, 101
437, 387
102, 90
8, 5
1, 0
1, 2
1, 4
1, 0
4, 4
26, 41
33, 60
20, 15
10, 11
9, 4
0, 3
1, 2
2, 1
6, 2
20, 17
21, 15
6, 6
6, 4
17, 6
18, 5
24, 11
9, 8
11, 9
9, 14
8, 12
4, 7
5, 7
2, 17
8, 6
6, 7
12, 13
15, 10
28, 8
36, 48
33, 91
61, 59
20, 23
36, 32
496, 608
2254, 2237
1656, 1341
225, 116
13, 22
12, 22
109, 116
357, 329
232, 207
30, 35
11, 27
17, 18
7, 13
9, 2
4, 1
5, 3
3, 11
6, 20
10, 41
9, 20
8, 5
6, 2
1, 3
7, 2
5, 5
4, 10
1, 8
4, 9
5, 2
6, 3
15, 4
7, 4
0, 6
2, 0
3, 6
2, 3
0, 3
2, 1
4, 3
9, 2
8, 1
5, 2
4, 3
4, 4
1, 1
6, 1
2, 6
1, 2
2, 8
0, 0
2, 1
3, 2
1, 0
2, 1
1, 0
3, 0
3, 2
0, 0
2, 2
6, 3
4, 1
3, 0
5, 3
1, 2
2, 1
3, 4
2, 3
1, 3
3, 0
0, 1
4, 4
0, 4
0, 1
3, 1
1, 2
1, 3
1, 1
1, 0
0, 0
1, 0
0, 0
0, 0
0, 0
0, 0
0, 1
0, 3
0, 1
0, 0
1, 0
0, 1
0, 0
1, 0
1, 0
0, 0
0, 1
0, 2
0, 0
2, 0
0, 1
0, 1
0, 1
1, 0
0, 0
0, 0
0, 0
0, 0
1, 0
1, 0
0, 0
0, 2
0, 0
0, 0
1, 0
1, 0
1, 1
1, 2
1, 0
1, 0
0, 1
2, 0
0, 0
0, 0
0, 0
0, 0
0, 0
0, 0
0, 0
0, 0
0, 0
0, 0
0, 0
0, 0
0, 0
0, 0
0, 0
0, 0
0, 0
0, 0
0, 0
0, 1
0, 0
0, 0
0, 0
0, 0
0, 0
1, 0
0, 0
0, 0
0, 0
0, 0
0, 0
0, 0
0, 0
0, 0
0, 0
0, 0
0, 0
0, 0
0, 0
0, 0
0, 0
0, 0
0, 0
0, 0
0, 0
0, 0
0, 0
0, 0
0, 0
0, 0
0, 0
0, 0
0, 0
0, 0
0, 0
0, 0
0, 0
0, 0
0, 0
0, 0
0, 0
0, 0
0, 0
0, 0
0, 0
0, 0
0, 0
0, 0
0, 0
0, 0
0, 0
0, 0
0, 0
0, 0
0, 0
0, 0
0, 0
0, 0
0, 0
0, 0
0, 0
0, 0
0, 0
0, 0
0, 0
0, 0
0, 0
0, 0
0, 0
0, 0
0, 0
0, 0
0, 0
0, 0
0, 0
0, 0
0, 0
0, 0
0, 0
0, 0
0, 0
0, 0
0, 0
0, 0
0, 0
0, 0
0, 0
0, 0
0, 0
0, 0
0, 0
0, 0
0, 0
0, 0
0, 0
0, 0
0, 0
#ENDOFDATA     end of spectrum data