File: host_upload/06-09-2024/ps_0852/dump3/ps__0852shot_2522.msa
#FORMAT      : EMSA/MAS spectral data file
#VERSION     : TC202v2.0 PIXL
#TITLE       : N/A
#DATE        :       Date in the format DD-MMM-YYYY, for example 07-JUL-2010
#TIME        :             The time of day at which the spectrum was recorded, in 24-hour format
#OWNER       : PIXL Flight Model       (PIXL will use this to indicate which instrument took the data.)
#NPOINTS     : 4096     Number of data points in the spectrum (This can be zero for configuration only files)
#NCOLUMNS    : 2     Number of data columns in the spectrum (This can be zero for configuration only files)
#XUNITS      : eV
#YUNITS      : COUNTS
#DATATYPE    : YY
#XPERCHAN    : 7.862, 7.881   eV per channel (separate by commas if more than one detector)
#OFFSET      : 18.5, -22.4         eV of first channel  (separate by commas if more than one detector
#SIGNALTYPE  : XRF
#YP_TEMP     : 2.524
#LIVETIME    : 8.56005, 8.56301   seconds (separate by commas if more than one detector)
#REALTIME    : 10, 10.0   seconds (separate by commas if more than one detector)
#SPECTRUM    : start of spectrum data
0, 0
0, 0
0, 0
0, 0
0, 0
0, 0
0, 0
0, 0
2, 1
3, 0
3, 5
54, 49
59, 44
10, 3
3, 3
100, 86
483, 427
102, 93
6, 5
1, 1
7, 11
52, 70
17, 11
15, 9
36, 29
33, 20
13, 20
13, 9
4, 3
3, 3
3, 2
5, 4
2, 2
14, 13
26, 21
2, 4
5, 9
2, 3
1, 4
4, 0
4, 2
8, 11
10, 18
13, 6
9, 6
6, 2
3, 12
5, 4
10, 7
42, 19
114, 13
44, 3
17, 11
51, 40
114, 43
50, 16
33, 30
505, 580
2153, 2320
1598, 1350
187, 135
17, 10
21, 20
117, 126
329, 352
255, 177
25, 26
12, 7
12, 11
10, 9
3, 3
5, 8
7, 8
16, 5
4, 4
6, 4
4, 5
8, 4
6, 3
2, 4
14, 6
27, 10
17, 8
3, 6
5, 2
1, 3
5, 2
0, 5
2, 4
3, 2
9, 3
5, 2
2, 2
2, 3
0, 2
7, 2
3, 3
2, 1
3, 1
7, 1
6, 0
0, 5
0, 2
1, 4
2, 2
0, 8
2, 2
1, 1
1, 3
0, 2
1, 1
2, 3
4, 3
3, 1
5, 0
1, 2
2, 3
5, 2
0, 1
1, 1
1, 0
2, 2
3, 4
0, 2
0, 2
2, 1
2, 0
3, 1
0, 0
2, 2
0, 2
0, 2
2, 0
0, 0
0, 1
0, 1
0, 3
1, 1
0, 1
0, 0
0, 0
0, 1
1, 1
1, 1
1, 0
1, 0
1, 0
0, 0
1, 1
2, 0
0, 1
0, 0
0, 0
0, 0
0, 0
1, 0
1, 0
1, 0
1, 1
1, 0
0, 0
0, 0
1, 2
1, 0
0, 0
0, 0
0, 0
0, 0
0, 0
0, 0
0, 0
0, 0
0, 0
0, 0
0, 0
0, 0
0, 0
1, 0
0, 0
0, 0
0, 0
2, 0
0, 0
1, 0
0, 0
0, 0
0, 0
0, 0
0, 0
0, 1
0, 0
0, 0
1, 0
0, 0
0, 0
0, 0
0, 0
0, 0
0, 0
0, 0
0, 0
0, 0
0, 1
0, 0
0, 0
0, 0
0, 0
0, 1
0, 0
0, 0
0, 0
0, 0
0, 0
0, 0
0, 0
0, 0
0, 0
0, 0
0, 0
0, 0
0, 0
0, 0
0, 0
0, 0
0, 0
0, 0
0, 0
0, 0
0, 0
0, 0
0, 0
0, 0
0, 0
0, 0
0, 0
0, 0
0, 0
0, 0
0, 0
0, 0
0, 0
0, 0
0, 0
0, 0
0, 0
0, 0
0, 0
0, 0
0, 0
0, 0
0, 0
0, 0
0, 0
0, 0
0, 0
0, 0
0, 0
0, 0
0, 0
0, 0
0, 0
0, 0
0, 0
0, 0
0, 0
0, 0
0, 0
0, 0
0, 0
0, 0
0, 0
0, 0
0, 0
0, 0
0, 0
0, 0
0, 0
0, 0
0, 0
0, 0
0, 0
0, 0
0, 0
0, 0
0, 0
0, 0
0, 0
0, 0
0, 0
0, 0
0, 0
0, 0
0, 0
0, 0
#ENDOFDATA     end of spectrum data