File: host_upload/06-09-2024/ps_0852/dump3/ps__0852shot_2312.msa
#FORMAT      : EMSA/MAS spectral data file
#VERSION     : TC202v2.0 PIXL
#TITLE       : N/A
#DATE        :       Date in the format DD-MMM-YYYY, for example 07-JUL-2010
#TIME        :             The time of day at which the spectrum was recorded, in 24-hour format
#OWNER       : PIXL Flight Model       (PIXL will use this to indicate which instrument took the data.)
#NPOINTS     : 4096     Number of data points in the spectrum (This can be zero for configuration only files)
#NCOLUMNS    : 2     Number of data columns in the spectrum (This can be zero for configuration only files)
#XUNITS      : eV
#YUNITS      : COUNTS
#DATATYPE    : YY
#XPERCHAN    : 7.862, 7.881   eV per channel (separate by commas if more than one detector)
#OFFSET      : 18.5, -22.4         eV of first channel  (separate by commas if more than one detector
#SIGNALTYPE  : XRF
#YP_TEMP     : 2.332
#LIVETIME    : 8.5303, 8.55627   seconds (separate by commas if more than one detector)
#REALTIME    : 10, 10.0   seconds (separate by commas if more than one detector)
#SPECTRUM    : start of spectrum data
0, 0
0, 0
0, 0
0, 0
0, 0
0, 0
0, 0
0, 0
3, 0
0, 0
1, 6
57, 43
64, 55
10, 2
1, 4
93, 85
444, 391
108, 93
3, 5
1, 0
2, 3
8, 2
3, 2
15, 9
94, 33
137, 46
131, 23
159, 8
22, 7
4, 4
2, 2
2, 3
1, 14
9, 37
23, 16
13, 5
5, 7
12, 7
2, 9
2, 4
4, 7
30, 12
85, 16
57, 13
11, 11
8, 8
5, 4
8, 9
7, 13
17, 18
17, 5
13, 14
24, 3
77, 64
86, 73
25, 76
32, 81
472, 567
2271, 2241
1691, 1333
207, 130
21, 11
20, 29
107, 113
347, 307
231, 176
34, 19
8, 12
22, 12
9, 8
5, 2
2, 2
4, 4
7, 4
7, 7
6, 6
4, 9
4, 1
3, 5
4, 9
5, 3
4, 1
4, 5
9, 5
27, 3
7, 8
5, 4
9, 10
1, 12
2, 4
5, 1
4, 4
1, 1
2, 4
1, 1
4, 3
2, 3
3, 2
7, 0
4, 3
1, 2
5, 1
2, 2
3, 2
1, 3
1, 2
3, 2
2, 3
0, 4
5, 3
1, 0
1, 5
1, 2
3, 2
1, 0
2, 5
3, 4
4, 3
2, 1
2, 3
2, 2
1, 2
2, 1
1, 3
1, 1
1, 1
1, 1
1, 0
1, 1
1, 0
2, 1
2, 1
1, 0
1, 0
0, 2
1, 2
2, 0
1, 0
1, 0
0, 0
0, 2
1, 1
0, 0
1, 0
1, 2
1, 0
3, 0
1, 1
1, 0
0, 1
0, 0
0, 0
1, 0
1, 0
1, 0
1, 2
0, 0
0, 0
0, 0
0, 0
0, 1
0, 0
0, 0
0, 1
0, 0
0, 0
1, 0
0, 1
1, 0
0, 0
1, 0
2, 0
0, 0
0, 0
0, 0
0, 0
0, 0
0, 0
0, 0
0, 1
0, 0
0, 0
0, 0
0, 0
0, 0
1, 0
1, 0
0, 0
1, 0
0, 0
0, 0
0, 0
0, 0
0, 0
0, 0
0, 0
0, 0
0, 0
0, 0
0, 0
0, 0
0, 0
0, 0
0, 0
0, 0
0, 0
0, 0
0, 0
0, 0
0, 0
0, 0
1, 0
0, 0
0, 0
0, 0
0, 0
0, 0
0, 0
0, 0
0, 0
0, 0
0, 0
0, 0
0, 0
0, 0
0, 0
0, 0
0, 0
0, 0
0, 0
0, 0
0, 0
0, 0
0, 0
0, 0
0, 0
0, 0
0, 0
0, 0
0, 0
0, 0
0, 0
0, 0
0, 0
0, 0
0, 0
0, 0
0, 0
0, 0
0, 0
0, 0
0, 0
0, 0
0, 0
0, 0
0, 0
0, 0
0, 0
0, 0
0, 0
0, 0
0, 0
0, 0
0, 0
0, 0
0, 0
0, 0
0, 0
0, 0
0, 0
0, 0
0, 0
0, 0
0, 0
0, 0
0, 0
0, 0
0, 0
0, 0
0, 0
0, 0
0, 0
0, 0
0, 0
0, 0
0, 0
0, 0
0, 0
0, 0
0, 0
0, 0
0, 0
0, 0
0, 0
#ENDOFDATA     end of spectrum data