File: host_upload/06-09-2024/ps_0852/dump3/ps__0852shot_2127.msa
#FORMAT      : EMSA/MAS spectral data file
#VERSION     : TC202v2.0 PIXL
#TITLE       : N/A
#DATE        :       Date in the format DD-MMM-YYYY, for example 07-JUL-2010
#TIME        :             The time of day at which the spectrum was recorded, in 24-hour format
#OWNER       : PIXL Flight Model       (PIXL will use this to indicate which instrument took the data.)
#NPOINTS     : 4096     Number of data points in the spectrum (This can be zero for configuration only files)
#NCOLUMNS    : 2     Number of data columns in the spectrum (This can be zero for configuration only files)
#XUNITS      : eV
#YUNITS      : COUNTS
#DATATYPE    : YY
#XPERCHAN    : 7.862, 7.881   eV per channel (separate by commas if more than one detector)
#OFFSET      : 18.5, -22.4         eV of first channel  (separate by commas if more than one detector
#SIGNALTYPE  : XRF
#YP_TEMP     : 2.332
#LIVETIME    : 8.56657, 8.57286   seconds (separate by commas if more than one detector)
#REALTIME    : 10, 10.0   seconds (separate by commas if more than one detector)
#SPECTRUM    : start of spectrum data
0, 0
0, 0
0, 0
0, 0
0, 0
0, 0
0, 0
0, 0
0, 0
1, 4
6, 0
50, 44
76, 60
5, 6
4, 2
111, 84
465, 397
115, 93
3, 4
1, 1
1, 2
3, 4
2, 6
7, 4
38, 58
38, 81
29, 27
18, 14
4, 5
0, 3
2, 4
1, 1
6, 9
21, 43
41, 39
8, 7
6, 4
2, 7
6, 4
5, 5
5, 7
18, 15
24, 19
18, 11
11, 6
37, 7
33, 8
10, 8
4, 9
11, 13
9, 20
10, 9
14, 18
38, 42
66, 70
29, 19
27, 29
461, 563
2187, 2166
1623, 1333
213, 120
25, 19
26, 27
105, 137
314, 311
242, 191
32, 26
12, 6
32, 9
13, 9
7, 8
1, 5
6, 7
7, 5
6, 9
10, 6
5, 6
12, 0
10, 5
3, 1
2, 9
4, 3
5, 5
4, 4
1, 3
4, 5
5, 4
1, 4
4, 5
3, 2
11, 1
7, 2
10, 7
7, 4
2, 5
3, 1
3, 1
4, 2
5, 5
0, 3
4, 2
4, 1
2, 0
4, 4
2, 3
2, 1
1, 3
3, 2
5, 3
0, 2
1, 3
1, 4
1, 4
2, 0
4, 1
4, 3
9, 4
3, 2
1, 1
3, 1
4, 4
2, 0
2, 4
4, 2
2, 3
1, 0
0, 1
0, 1
1, 1
0, 2
0, 2
1, 0
1, 1
0, 3
0, 1
0, 0
1, 2
3, 1
1, 2
0, 1
1, 0
1, 1
0, 0
1, 0
0, 1
0, 1
0, 1
1, 1
0, 0
1, 3
0, 1
0, 1
2, 2
0, 0
0, 0
2, 2
0, 1
0, 1
0, 2
2, 0
0, 0
0, 0
0, 0
0, 1
0, 1
0, 0
0, 1
0, 0
0, 0
1, 1
0, 2
0, 0
1, 0
0, 0
0, 0
0, 0
0, 0
0, 0
0, 0
0, 0
0, 0
0, 1
0, 0
0, 0
0, 1
0, 1
0, 1
0, 0
0, 0
0, 0
0, 0
0, 0
1, 0
0, 0
0, 0
0, 0
0, 0
0, 0
0, 0
0, 0
0, 0
0, 0
0, 0
0, 0
0, 0
0, 0
0, 0
0, 0
0, 0
0, 0
0, 0
0, 0
0, 0
0, 0
0, 0
0, 0
0, 0
0, 0
0, 0
0, 0
0, 0
0, 0
1, 0
0, 0
0, 0
0, 0
0, 0
0, 0
0, 0
0, 0
0, 0
0, 0
0, 0
0, 0
0, 0
0, 0
0, 0
0, 0
0, 0
0, 0
0, 0
0, 0
0, 0
0, 0
0, 0
0, 0
0, 0
0, 0
0, 0
0, 0
0, 0
0, 0
0, 0
0, 0
0, 0
0, 0
0, 0
0, 0
0, 0
0, 0
0, 0
0, 0
0, 0
0, 0
0, 0
0, 0
0, 0
0, 0
0, 0
0, 0
0, 0
0, 0
0, 0
0, 0
0, 0
0, 0
0, 0
0, 0
0, 0
0, 0
0, 0
0, 0
0, 0
0, 0
0, 0
0, 0
0, 0
0, 0
0, 0
0, 0
0, 0
0, 0
0, 0
0, 0
#ENDOFDATA     end of spectrum data