File: host_upload/06-09-2024/ps_0852/dump3/ps__0852shot_2422.msa
#FORMAT      : EMSA/MAS spectral data file
#VERSION     : TC202v2.0 PIXL
#TITLE       : N/A
#DATE        :       Date in the format DD-MMM-YYYY, for example 07-JUL-2010
#TIME        :             The time of day at which the spectrum was recorded, in 24-hour format
#OWNER       : PIXL Flight Model       (PIXL will use this to indicate which instrument took the data.)
#NPOINTS     : 4096     Number of data points in the spectrum (This can be zero for configuration only files)
#NCOLUMNS    : 2     Number of data columns in the spectrum (This can be zero for configuration only files)
#XUNITS      : eV
#YUNITS      : COUNTS
#DATATYPE    : YY
#XPERCHAN    : 7.862, 7.881   eV per channel (separate by commas if more than one detector)
#OFFSET      : 18.5, -22.4         eV of first channel  (separate by commas if more than one detector
#SIGNALTYPE  : XRF
#YP_TEMP     : 2.107
#LIVETIME    : 8.54882, 8.56871   seconds (separate by commas if more than one detector)
#REALTIME    : 10, 10.0   seconds (separate by commas if more than one detector)
#SPECTRUM    : start of spectrum data
0, 0
0, 0
0, 0
0, 0
0, 0
0, 0
0, 0
2, 0
0, 0
2, 1
2, 1
39, 39
59, 60
1, 3
2, 9
93, 109
465, 482
131, 105
8, 16
3, 7
2, 2
11, 11
4, 11
22, 33
78, 82
48, 50
27, 32
13, 12
3, 4
2, 0
2, 0
1, 3
5, 3
16, 10
20, 21
14, 6
6, 6
4, 9
4, 1
3, 2
3, 6
9, 12
26, 13
46, 13
66, 7
19, 16
4, 12
5, 3
8, 5
13, 18
12, 19
4, 14
13, 13
26, 31
53, 47
23, 23
44, 39
468, 603
2050, 2441
1571, 1403
192, 130
24, 25
15, 26
103, 118
322, 399
219, 168
27, 22
7, 7
12, 17
9, 8
5, 1
3, 2
6, 2
3, 9
13, 4
9, 15
3, 14
2, 3
6, 3
3, 1
5, 6
2, 6
13, 7
13, 2
7, 3
2, 3
5, 5
10, 2
7, 4
17, 5
3, 3
4, 8
6, 3
2, 1
4, 2
1, 7
0, 4
0, 3
4, 2
4, 6
2, 2
5, 1
2, 1
4, 0
3, 1
2, 2
1, 1
1, 1
3, 2
3, 2
1, 0
3, 2
1, 0
3, 3
2, 3
2, 4
3, 4
2, 3
4, 6
2, 3
1, 3
0, 0
0, 5
0, 2
0, 1
0, 1
2, 1
0, 1
0, 0
0, 1
2, 0
2, 2
0, 0
2, 0
0, 0
1, 0
1, 1
2, 0
0, 0
0, 2
0, 0
0, 0
1, 1
0, 0
2, 0
0, 1
1, 1
0, 0
0, 2
1, 2
0, 0
0, 0
0, 0
0, 0
0, 0
0, 0
0, 0
0, 0
0, 0
0, 1
0, 0
0, 0
0, 0
0, 1
0, 0
0, 0
0, 0
0, 0
2, 0
0, 0
0, 1
0, 0
0, 0
0, 0
0, 1
0, 1
0, 0
0, 0
1, 0
0, 0
0, 0
0, 0
0, 1
0, 0
0, 0
0, 0
0, 0
0, 0
0, 0
0, 1
0, 0
0, 0
1, 0
0, 0
0, 0
0, 0
0, 0
0, 0
0, 0
0, 1
0, 0
0, 0
0, 0
0, 0
0, 0
0, 0
0, 0
0, 0
0, 0
0, 0
0, 0
0, 0
0, 0
0, 0
0, 0
0, 0
0, 0
0, 0
0, 0
0, 0
0, 0
0, 0
0, 0
0, 0
0, 0
0, 0
0, 0
0, 0
0, 0
0, 0
0, 0
0, 0
0, 0
0, 0
0, 0
0, 0
0, 0
0, 0
0, 0
0, 0
0, 0
0, 0
0, 0
0, 0
0, 0
0, 0
0, 0
0, 0
0, 0
0, 0
0, 0
0, 0
0, 0
0, 0
0, 0
0, 0
0, 0
0, 0
0, 0
0, 0
0, 0
0, 0
0, 0
0, 0
0, 0
0, 0
0, 0
0, 0
0, 0
0, 0
0, 0
0, 0
0, 0
0, 0
0, 0
0, 0
0, 0
0, 0
0, 0
0, 0
0, 0
0, 0
0, 0
0, 0
0, 0
0, 0
0, 0
0, 0
0, 0
0, 0
0, 0
0, 0
0, 0
0, 0
#ENDOFDATA     end of spectrum data