File: host_upload/06-09-2024/ps_0852/dump3/ps__0852shot_2136.msa
#FORMAT      : EMSA/MAS spectral data file
#VERSION     : TC202v2.0 PIXL
#TITLE       : N/A
#DATE        :       Date in the format DD-MMM-YYYY, for example 07-JUL-2010
#TIME        :             The time of day at which the spectrum was recorded, in 24-hour format
#OWNER       : PIXL Flight Model       (PIXL will use this to indicate which instrument took the data.)
#NPOINTS     : 4096     Number of data points in the spectrum (This can be zero for configuration only files)
#NCOLUMNS    : 2     Number of data columns in the spectrum (This can be zero for configuration only files)
#XUNITS      : eV
#YUNITS      : COUNTS
#DATATYPE    : YY
#XPERCHAN    : 7.862, 7.881   eV per channel (separate by commas if more than one detector)
#OFFSET      : 18.5, -22.4         eV of first channel  (separate by commas if more than one detector
#SIGNALTYPE  : XRF
#YP_TEMP     : 2.267
#LIVETIME    : 8.60153, 8.54392   seconds (separate by commas if more than one detector)
#REALTIME    : 10, 10.0   seconds (separate by commas if more than one detector)
#SPECTRUM    : start of spectrum data
0, 0
0, 0
0, 0
0, 0
0, 0
0, 0
0, 0
0, 0
1, 1
1, 1
4, 3
49, 43
76, 44
5, 7
3, 7
104, 81
411, 386
105, 108
6, 4
2, 0
0, 2
5, 6
2, 3
11, 6
59, 33
80, 27
73, 9
109, 6
14, 6
2, 4
3, 2
2, 4
2, 9
12, 17
21, 18
7, 5
9, 6
6, 11
9, 7
9, 9
10, 7
25, 8
54, 11
27, 17
14, 18
5, 5
6, 7
1, 7
10, 10
20, 15
14, 11
6, 5
21, 9
91, 69
89, 75
33, 62
34, 52
491, 640
2180, 2214
1650, 1336
189, 136
29, 16
24, 37
100, 129
315, 356
218, 181
36, 34
10, 8
13, 13
11, 6
3, 8
3, 4
4, 5
5, 2
6, 4
6, 7
5, 2
0, 3
4, 3
6, 8
3, 4
1, 2
6, 6
9, 3
8, 7
9, 7
6, 6
5, 6
3, 2
4, 5
4, 5
8, 5
1, 1
2, 1
7, 2
3, 3
2, 2
6, 6
5, 3
5, 3
2, 0
0, 1
5, 4
0, 3
2, 4
5, 2
0, 1
4, 4
1, 2
0, 2
2, 2
5, 3
1, 2
0, 0
2, 1
6, 2
6, 3
2, 3
2, 1
2, 0
5, 3
3, 0
2, 1
2, 3
1, 2
0, 2
2, 3
0, 2
0, 3
0, 0
0, 0
0, 1
0, 2
0, 0
0, 1
1, 0
1, 0
0, 0
1, 1
1, 0
0, 1
0, 1
0, 0
1, 0
0, 1
0, 1
0, 1
1, 0
1, 3
2, 0
1, 2
0, 0
0, 0
1, 0
0, 0
0, 1
0, 2
0, 2
0, 0
0, 0
0, 0
2, 0
0, 1
0, 0
0, 0
1, 0
0, 0
0, 0
2, 0
0, 0
0, 0
0, 0
0, 0
1, 0
0, 0
0, 0
0, 0
0, 1
0, 0
0, 0
0, 0
1, 0
0, 0
0, 0
0, 1
0, 0
0, 0
0, 0
0, 0
0, 0
0, 0
1, 0
0, 1
2, 0
0, 0
0, 0
0, 0
0, 0
0, 0
0, 0
0, 0
0, 0
0, 0
1, 0
0, 0
1, 0
0, 0
0, 0
0, 0
0, 0
0, 0
0, 0
0, 0
0, 0
0, 0
0, 0
0, 0
0, 0
0, 0
0, 0
0, 0
0, 0
0, 0
0, 0
0, 0
0, 0
0, 1
0, 0
0, 0
0, 0
0, 0
0, 0
0, 0
0, 0
0, 0
0, 0
0, 0
0, 0
0, 0
0, 0
0, 0
0, 0
0, 0
0, 0
0, 0
0, 0
0, 0
0, 0
0, 0
0, 0
0, 0
0, 0
0, 0
0, 0
0, 0
0, 0
0, 0
0, 0
0, 0
0, 0
0, 0
0, 0
0, 0
0, 0
0, 0
0, 0
0, 0
0, 0
0, 0
0, 0
0, 0
0, 0
0, 0
0, 0
0, 0
0, 0
0, 0
0, 0
0, 0
0, 0
0, 0
0, 0
0, 0
0, 0
0, 0
0, 0
0, 0
0, 0
0, 0
0, 0
0, 0
0, 0
0, 0
0, 0
#ENDOFDATA     end of spectrum data