File: host_upload/06-09-2024/ps_0852/dump3/ps__0852shot_2115.msa
#FORMAT      : EMSA/MAS spectral data file
#VERSION     : TC202v2.0 PIXL
#TITLE       : N/A
#DATE        :       Date in the format DD-MMM-YYYY, for example 07-JUL-2010
#TIME        :             The time of day at which the spectrum was recorded, in 24-hour format
#OWNER       : PIXL Flight Model       (PIXL will use this to indicate which instrument took the data.)
#NPOINTS     : 4096     Number of data points in the spectrum (This can be zero for configuration only files)
#NCOLUMNS    : 2     Number of data columns in the spectrum (This can be zero for configuration only files)
#XUNITS      : eV
#YUNITS      : COUNTS
#DATATYPE    : YY
#XPERCHAN    : 7.862, 7.881   eV per channel (separate by commas if more than one detector)
#OFFSET      : 18.5, -22.4         eV of first channel  (separate by commas if more than one detector
#SIGNALTYPE  : XRF
#YP_TEMP     : 2.364
#LIVETIME    : 8.55707, 8.55665   seconds (separate by commas if more than one detector)
#REALTIME    : 10, 10.0   seconds (separate by commas if more than one detector)
#SPECTRUM    : start of spectrum data
0, 0
0, 0
0, 0
0, 0
0, 0
0, 0
0, 0
0, 0
1, 3
3, 3
4, 3
29, 40
34, 44
3, 7
4, 6
57, 68
249, 246
70, 68
6, 4
5, 3
65, 86
408, 490
174, 186
38, 46
89, 128
87, 92
25, 33
20, 18
5, 5
7, 5
6, 13
5, 4
5, 4
40, 35
60, 54
10, 4
10, 8
15, 10
6, 6
5, 6
7, 8
12, 17
20, 23
11, 12
8, 5
8, 7
5, 7
9, 7
24, 12
31, 15
18, 23
1, 42
13, 62
35, 66
59, 74
25, 17
50, 34
481, 644
2100, 2320
1448, 1475
167, 151
14, 23
29, 21
116, 131
320, 336
197, 240
45, 26
4, 5
21, 8
17, 10
10, 4
4, 8
4, 5
7, 3
7, 10
9, 4
14, 5
17, 5
7, 1
3, 10
5, 5
3, 9
1, 7
2, 5
8, 5
5, 3
1, 3
4, 6
4, 5
0, 5
0, 2
3, 5
4, 11
1, 15
0, 16
3, 7
4, 5
3, 2
4, 1
3, 2
4, 4
0, 3
1, 7
2, 1
2, 2
3, 2
1, 4
2, 3
1, 3
3, 3
1, 0
2, 0
4, 1
1, 1
2, 2
2, 1
1, 6
3, 2
3, 2
1, 3
0, 0
3, 2
4, 3
2, 0
2, 4
1, 2
1, 2
1, 0
3, 0
3, 0
0, 0
0, 1
1, 0
0, 2
0, 3
0, 1
1, 0
1, 1
0, 1
0, 0
0, 0
0, 1
0, 0
1, 0
0, 0
1, 1
0, 1
0, 1
2, 0
0, 1
0, 0
1, 0
0, 0
0, 0
1, 1
0, 0
0, 1
0, 0
0, 0
0, 0
0, 0
0, 0
0, 1
0, 1
0, 1
1, 0
0, 1
0, 0
0, 0
0, 0
1, 0
0, 0
0, 2
0, 0
0, 0
0, 0
0, 0
0, 0
0, 0
0, 0
1, 0
1, 0
0, 0
0, 0
2, 0
1, 0
0, 0
0, 0
0, 0
0, 0
1, 0
0, 0
0, 1
0, 0
0, 0
0, 0
0, 1
0, 0
0, 0
0, 0
0, 0
0, 0
0, 0
0, 0
0, 0
0, 0
0, 0
0, 0
0, 0
0, 0
0, 0
0, 0
0, 0
0, 1
0, 0
0, 0
0, 0
0, 0
0, 0
0, 0
0, 0
0, 0
0, 0
0, 0
0, 0
0, 0
0, 0
0, 0
0, 0
0, 0
0, 0
0, 0
0, 0
0, 0
0, 0
0, 0
0, 0
0, 0
0, 0
0, 0
0, 0
0, 0
0, 0
0, 0
0, 0
0, 0
0, 0
0, 0
0, 0
0, 0
0, 0
0, 0
0, 0
0, 0
0, 0
0, 0
0, 0
0, 0
0, 0
0, 0
0, 0
0, 0
0, 0
0, 0
0, 0
0, 0
0, 0
0, 0
0, 0
0, 0
0, 0
0, 0
0, 0
0, 0
0, 0
0, 0
0, 0
0, 0
0, 0
0, 0
0, 0
0, 0
0, 0
0, 0
0, 0
0, 0
0, 0
0, 0
0, 0
0, 0
0, 0
0, 0
0, 0
0, 0
#ENDOFDATA     end of spectrum data