File: host_upload/06-09-2024/ps_0852/dump3/ps__0852shot_2026.msa
#FORMAT      : EMSA/MAS spectral data file
#VERSION     : TC202v2.0 PIXL
#TITLE       : N/A
#DATE        :       Date in the format DD-MMM-YYYY, for example 07-JUL-2010
#TIME        :             The time of day at which the spectrum was recorded, in 24-hour format
#OWNER       : PIXL Flight Model       (PIXL will use this to indicate which instrument took the data.)
#NPOINTS     : 4096     Number of data points in the spectrum (This can be zero for configuration only files)
#NCOLUMNS    : 2     Number of data columns in the spectrum (This can be zero for configuration only files)
#XUNITS      : eV
#YUNITS      : COUNTS
#DATATYPE    : YY
#XPERCHAN    : 7.862, 7.881   eV per channel (separate by commas if more than one detector)
#OFFSET      : 18.5, -22.4         eV of first channel  (separate by commas if more than one detector
#SIGNALTYPE  : XRF
#YP_TEMP     : 2.364
#LIVETIME    : 8.55488, 8.35739   seconds (separate by commas if more than one detector)
#REALTIME    : 10, 10.0   seconds (separate by commas if more than one detector)
#SPECTRUM    : start of spectrum data
0, 0
0, 0
0, 0
0, 0
0, 0
0, 0
0, 0
0, 0
0, 1
1, 3
1, 4
41, 34
56, 46
13, 4
8, 6
94, 117
430, 429
116, 109
8, 3
4, 1
1, 3
5, 8
5, 5
7, 10
43, 96
41, 97
44, 35
28, 9
4, 4
0, 0
1, 2
2, 3
3, 5
11, 35
14, 16
8, 7
29, 5
15, 6
5, 2
6, 4
11, 4
10, 4
11, 8
13, 18
8, 6
7, 4
7, 9
6, 9
8, 3
10, 18
17, 17
30, 13
55, 12
59, 46
62, 46
28, 19
49, 37
479, 571
2180, 2261
1672, 1447
195, 169
23, 15
21, 17
122, 138
320, 359
268, 180
34, 23
7, 5
18, 14
8, 6
5, 1
4, 3
3, 5
5, 23
11, 30
5, 18
3, 3
4, 2
4, 3
8, 5
3, 4
3, 3
16, 3
29, 4
31, 3
7, 4
1, 2
10, 3
12, 3
9, 2
3, 2
3, 0
2, 3
3, 2
1, 1
2, 4
2, 4
2, 4
3, 1
0, 0
3, 1
1, 3
2, 2
5, 2
16, 1
2, 2
1, 2
2, 7
5, 6
3, 3
1, 3
6, 2
0, 0
0, 0
2, 0
4, 4
1, 3
5, 1
2, 0
1, 1
1, 1
2, 3
2, 0
3, 1
0, 2
0, 1
1, 1
1, 1
0, 1
0, 2
0, 2
1, 1
1, 1
0, 2
1, 0
0, 1
0, 0
2, 1
1, 1
1, 0
0, 0
0, 1
0, 1
0, 1
0, 0
0, 0
0, 1
0, 0
2, 0
1, 0
0, 1
0, 1
0, 1
0, 0
0, 2
0, 0
0, 0
0, 0
1, 0
0, 0
0, 0
0, 0
0, 0
1, 1
0, 1
1, 0
0, 0
0, 1
0, 1
1, 0
1, 0
0, 0
0, 0
0, 0
0, 0
0, 0
0, 0
0, 1
0, 0
0, 0
1, 1
0, 0
0, 0
0, 0
0, 0
0, 0
0, 0
1, 0
0, 0
1, 0
0, 0
0, 0
0, 0
0, 0
0, 0
0, 1
0, 0
0, 0
0, 0
0, 0
0, 0
0, 0
0, 0
0, 0
0, 0
0, 0
1, 0
0, 0
0, 0
0, 0
0, 0
0, 0
0, 0
0, 0
0, 0
0, 0
0, 0
0, 0
0, 0
0, 0
0, 0
0, 0
0, 0
0, 0
0, 0
0, 0
0, 0
0, 0
0, 0
0, 0
0, 0
0, 0
0, 0
0, 0
0, 0
0, 0
0, 0
0, 0
0, 0
0, 0
0, 0
0, 0
0, 0
0, 0
0, 0
0, 0
0, 0
0, 0
0, 0
0, 0
0, 0
0, 0
0, 0
0, 0
0, 0
0, 0
0, 0
0, 0
0, 0
0, 0
0, 0
0, 0
0, 0
0, 0
0, 0
0, 0
0, 0
0, 0
0, 0
0, 0
0, 0
0, 0
0, 0
0, 0
0, 0
0, 0
0, 0
0, 0
0, 0
0, 0
0, 0
0, 0
0, 0
0, 0
0, 0
0, 0
0, 0
0, 0
0, 0
0, 0
0, 0
0, 0
0, 0
0, 0
#ENDOFDATA     end of spectrum data