File: host_upload/06-09-2024/ps_0852/dump3/ps__0852shot_2153.msa
#FORMAT      : EMSA/MAS spectral data file
#VERSION     : TC202v2.0 PIXL
#TITLE       : N/A
#DATE        :       Date in the format DD-MMM-YYYY, for example 07-JUL-2010
#TIME        :             The time of day at which the spectrum was recorded, in 24-hour format
#OWNER       : PIXL Flight Model       (PIXL will use this to indicate which instrument took the data.)
#NPOINTS     : 4096     Number of data points in the spectrum (This can be zero for configuration only files)
#NCOLUMNS    : 2     Number of data columns in the spectrum (This can be zero for configuration only files)
#XUNITS      : eV
#YUNITS      : COUNTS
#DATATYPE    : YY
#XPERCHAN    : 7.862, 7.881   eV per channel (separate by commas if more than one detector)
#OFFSET      : 18.5, -22.4         eV of first channel  (separate by commas if more than one detector
#SIGNALTYPE  : XRF
#YP_TEMP     : 2.364
#LIVETIME    : 8.54236, 8.54223   seconds (separate by commas if more than one detector)
#REALTIME    : 10, 10.0   seconds (separate by commas if more than one detector)
#SPECTRUM    : start of spectrum data
0, 0
0, 0
0, 0
0, 0
0, 0
0, 0
0, 0
0, 0
1, 0
1, 2
2, 5
40, 41
59, 68
9, 8
5, 2
105, 99
414, 417
117, 86
8, 6
1, 0
5, 5
15, 22
6, 18
9, 16
36, 29
47, 33
30, 36
14, 15
0, 5
2, 1
1, 2
0, 2
5, 6
17, 13
24, 15
12, 9
6, 3
8, 7
5, 5
12, 6
5, 11
17, 9
18, 21
20, 22
8, 11
13, 6
9, 7
9, 12
14, 8
61, 14
49, 20
23, 11
22, 15
38, 37
49, 39
23, 14
36, 43
479, 614
2194, 2214
1668, 1347
209, 145
45, 20
40, 27
116, 122
342, 363
250, 234
39, 18
8, 13
12, 10
10, 9
5, 5
4, 4
1, 6
7, 4
4, 4
6, 10
6, 2
6, 12
5, 4
5, 11
4, 5
0, 4
4, 3
4, 6
6, 12
5, 9
6, 7
3, 3
6, 7
13, 0
3, 6
6, 3
4, 6
2, 5
5, 4
1, 2
6, 0
4, 1
6, 1
2, 1
5, 2
4, 6
4, 4
3, 3
3, 3
1, 4
1, 3
0, 4
1, 2
2, 2
7, 0
2, 2
3, 3
1, 0
4, 0
1, 3
5, 4
2, 2
2, 1
4, 1
2, 0
1, 0
5, 2
3, 1
1, 0
2, 3
0, 0
1, 0
1, 1
3, 0
1, 1
1, 0
1, 0
1, 2
1, 0
0, 1
0, 0
2, 0
0, 0
0, 1
0, 0
1, 1
0, 1
0, 0
0, 0
0, 1
1, 1
0, 0
2, 0
0, 2
1, 2
0, 1
0, 0
0, 0
1, 0
0, 0
1, 0
0, 0
0, 0
0, 0
0, 1
0, 1
1, 0
0, 0
0, 0
0, 0
0, 0
0, 0
0, 0
1, 1
0, 0
0, 0
0, 0
0, 1
1, 0
0, 0
0, 0
0, 0
0, 0
0, 2
0, 0
1, 0
1, 1
0, 0
0, 0
0, 0
0, 0
0, 0
1, 0
0, 0
0, 0
0, 0
0, 0
0, 0
0, 0
1, 0
0, 0
0, 0
0, 0
0, 0
0, 0
0, 0
0, 0
0, 0
0, 0
0, 0
0, 0
0, 0
0, 0
0, 0
0, 0
0, 0
1, 0
0, 0
0, 0
0, 0
0, 0
0, 0
0, 0
0, 0
0, 0
0, 0
0, 0
0, 0
0, 0
0, 0
0, 0
0, 0
0, 0
0, 0
0, 0
0, 0
0, 0
0, 0
0, 0
0, 0
0, 0
0, 0
0, 0
0, 0
0, 0
0, 0
0, 0
0, 0
0, 0
0, 0
0, 0
0, 0
0, 0
0, 0
0, 0
0, 0
0, 0
0, 0
0, 0
0, 0
0, 0
0, 0
0, 0
0, 0
0, 0
0, 0
0, 0
0, 0
0, 0
0, 0
0, 0
0, 0
0, 0
0, 0
0, 0
0, 0
0, 0
0, 0
0, 0
0, 0
0, 0
0, 0
0, 0
0, 0
0, 0
0, 0
0, 0
0, 0
0, 0
0, 0
0, 0
0, 0
0, 0
0, 0
0, 0
0, 0
0, 0
0, 0
#ENDOFDATA     end of spectrum data