File: host_upload/06-09-2024/ps_0852/dump3/ps__0852shot_2435.msa
#FORMAT      : EMSA/MAS spectral data file
#VERSION     : TC202v2.0 PIXL
#TITLE       : N/A
#DATE        :       Date in the format DD-MMM-YYYY, for example 07-JUL-2010
#TIME        :             The time of day at which the spectrum was recorded, in 24-hour format
#OWNER       : PIXL Flight Model       (PIXL will use this to indicate which instrument took the data.)
#NPOINTS     : 4096     Number of data points in the spectrum (This can be zero for configuration only files)
#NCOLUMNS    : 2     Number of data columns in the spectrum (This can be zero for configuration only files)
#XUNITS      : eV
#YUNITS      : COUNTS
#DATATYPE    : YY
#XPERCHAN    : 7.862, 7.881   eV per channel (separate by commas if more than one detector)
#OFFSET      : 18.5, -22.4         eV of first channel  (separate by commas if more than one detector
#SIGNALTYPE  : XRF
#YP_TEMP     : 2.203
#LIVETIME    : 8.5606, 8.53793   seconds (separate by commas if more than one detector)
#REALTIME    : 10, 10.0   seconds (separate by commas if more than one detector)
#SPECTRUM    : start of spectrum data
0, 0
0, 0
0, 0
0, 0
0, 0
0, 0
0, 0
0, 0
1, 1
0, 2
3, 3
39, 40
57, 54
6, 3
5, 6
101, 119
482, 448
115, 104
10, 5
4, 3
3, 8
22, 20
7, 12
11, 10
26, 38
26, 28
24, 14
12, 9
2, 3
1, 4
2, 3
3, 2
6, 9
103, 99
170, 155
22, 13
20, 21
22, 26
11, 3
6, 3
6, 3
11, 17
21, 32
28, 29
40, 14
11, 9
9, 3
4, 4
5, 5
26, 18
15, 18
8, 10
9, 16
47, 55
75, 64
18, 20
34, 29
421, 511
1976, 2188
1446, 1295
173, 131
76, 18
66, 20
96, 101
305, 330
221, 212
31, 12
13, 12
22, 16
14, 9
4, 4
3, 10
1, 7
4, 6
4, 3
10, 8
10, 5
8, 4
7, 7
3, 6
7, 3
1, 9
3, 3
1, 9
1, 17
5, 27
7, 9
6, 4
6, 1
10, 2
10, 3
6, 4
5, 1
1, 4
0, 2
3, 2
1, 1
2, 2
2, 3
2, 7
1, 4
2, 1
2, 3
4, 2
7, 1
3, 5
2, 1
2, 1
3, 4
1, 4
2, 3
2, 2
0, 2
0, 2
4, 5
4, 0
4, 2
3, 4
1, 0
3, 2
0, 0
3, 2
3, 1
4, 0
1, 0
0, 1
1, 0
0, 0
2, 1
1, 0
1, 1
0, 1
1, 0
1, 1
1, 0
0, 2
1, 2
1, 2
0, 1
1, 1
0, 0
2, 1
2, 1
1, 0
0, 1
0, 0
0, 0
1, 1
0, 0
0, 1
1, 0
0, 0
1, 2
1, 0
1, 1
0, 0
0, 0
2, 0
0, 0
0, 1
0, 0
0, 0
1, 0
0, 1
0, 0
1, 0
2, 0
0, 0
0, 0
0, 0
0, 0
0, 0
0, 1
0, 0
0, 0
0, 0
0, 1
0, 0
0, 0
0, 0
0, 0
1, 1
0, 0
1, 0
0, 1
1, 0
0, 0
0, 0
0, 0
0, 1
0, 2
0, 0
0, 0
0, 0
0, 0
0, 0
0, 0
1, 0
0, 0
0, 0
0, 0
0, 0
0, 0
0, 0
0, 0
0, 0
0, 0
0, 1
0, 0
0, 0
0, 0
0, 0
0, 0
0, 0
0, 0
0, 0
0, 0
0, 1
0, 0
0, 0
0, 0
0, 0
0, 0
0, 0
0, 0
0, 0
0, 0
0, 0
0, 0
0, 0
0, 0
0, 0
0, 0
0, 0
0, 0
0, 0
0, 0
0, 0
0, 0
0, 0
0, 0
0, 0
0, 0
0, 0
0, 0
0, 0
0, 0
0, 0
0, 0
0, 0
0, 0
0, 0
0, 0
0, 0
0, 0
0, 0
0, 0
0, 0
0, 0
0, 0
0, 0
0, 0
0, 0
0, 0
0, 0
0, 0
0, 0
0, 0
0, 0
0, 0
0, 0
0, 0
0, 0
0, 0
0, 0
0, 0
0, 0
0, 0
0, 0
0, 0
0, 0
0, 0
0, 0
0, 0
0, 0
0, 0
0, 0
0, 0
0, 0
0, 0
0, 0
0, 0
0, 0
0, 0
#ENDOFDATA     end of spectrum data