File: host_upload/06-09-2024/ps_0852/dump3/ps__0852shot_2021.msa
#FORMAT      : EMSA/MAS spectral data file
#VERSION     : TC202v2.0 PIXL
#TITLE       : N/A
#DATE        :       Date in the format DD-MMM-YYYY, for example 07-JUL-2010
#TIME        :             The time of day at which the spectrum was recorded, in 24-hour format
#OWNER       : PIXL Flight Model       (PIXL will use this to indicate which instrument took the data.)
#NPOINTS     : 4096     Number of data points in the spectrum (This can be zero for configuration only files)
#NCOLUMNS    : 2     Number of data columns in the spectrum (This can be zero for configuration only files)
#XUNITS      : eV
#YUNITS      : COUNTS
#DATATYPE    : YY
#XPERCHAN    : 7.862, 7.881   eV per channel (separate by commas if more than one detector)
#OFFSET      : 18.5, -22.4         eV of first channel  (separate by commas if more than one detector
#SIGNALTYPE  : XRF
#YP_TEMP     : 2.428
#LIVETIME    : 8.56274, 8.5591   seconds (separate by commas if more than one detector)
#REALTIME    : 10, 10.0   seconds (separate by commas if more than one detector)
#SPECTRUM    : start of spectrum data
0, 0
0, 0
0, 0
0, 0
0, 0
0, 0
0, 0
2, 0
0, 0
3, 1
3, 4
47, 51
54, 66
9, 11
4, 9
78, 103
402, 426
104, 92
4, 7
1, 1
4, 7
21, 18
19, 14
15, 11
109, 53
152, 52
42, 32
15, 10
4, 5
1, 3
4, 3
3, 1
2, 13
12, 50
24, 51
5, 8
7, 10
10, 13
19, 9
16, 15
15, 17
17, 10
14, 17
13, 17
9, 8
8, 12
4, 17
10, 7
12, 16
43, 39
32, 27
18, 7
35, 12
54, 41
53, 62
28, 39
38, 54
452, 593
2110, 2224
1574, 1411
186, 154
30, 33
26, 33
125, 114
337, 352
220, 198
48, 34
10, 14
14, 22
9, 9
11, 4
10, 6
5, 7
3, 6
11, 10
11, 4
10, 9
6, 11
5, 4
4, 6
8, 3
4, 5
3, 1
3, 3
6, 7
1, 6
2, 9
3, 8
3, 3
4, 3
0, 2
4, 5
5, 4
3, 1
3, 2
4, 5
2, 0
1, 2
1, 3
1, 4
5, 1
3, 4
2, 0
2, 2
2, 7
1, 1
2, 2
7, 1
3, 4
5, 1
0, 2
0, 1
1, 2
3, 0
1, 2
0, 5
5, 5
3, 1
1, 2
0, 2
1, 2
2, 3
2, 6
0, 4
0, 4
1, 3
3, 1
4, 3
2, 2
0, 0
2, 0
1, 0
0, 0
1, 0
0, 1
1, 0
0, 1
0, 0
0, 1
2, 1
0, 1
1, 1
0, 0
2, 0
0, 0
1, 1
0, 0
1, 0
1, 1
0, 0
0, 0
1, 0
0, 0
0, 0
1, 1
2, 0
0, 1
0, 1
0, 0
0, 0
0, 0
0, 1
1, 1
0, 0
1, 0
0, 1
0, 0
0, 0
0, 1
0, 2
0, 1
1, 0
1, 0
0, 0
0, 0
0, 0
0, 0
0, 1
0, 0
0, 1
0, 0
0, 0
0, 1
0, 0
0, 0
0, 0
0, 0
0, 0
0, 0
0, 0
0, 0
0, 0
0, 0
0, 0
0, 0
0, 0
0, 0
0, 0
0, 0
0, 0
0, 0
0, 0
0, 0
0, 0
0, 0
0, 1
0, 0
0, 0
0, 0
0, 0
0, 0
0, 0
0, 0
0, 0
0, 0
0, 0
0, 0
0, 0
0, 0
0, 0
0, 0
0, 0
0, 0
0, 0
0, 0
0, 0
0, 0
0, 0
0, 0
0, 0
0, 0
0, 0
0, 0
0, 0
0, 0
0, 0
0, 0
0, 0
0, 0
0, 0
0, 0
0, 0
0, 0
0, 0
0, 0
0, 0
0, 0
0, 0
0, 0
0, 0
0, 0
0, 0
0, 0
0, 0
0, 0
0, 0
0, 0
0, 0
0, 0
0, 0
0, 0
0, 0
0, 0
0, 0
0, 0
0, 0
0, 0
0, 0
0, 0
0, 0
0, 0
0, 0
0, 0
0, 0
0, 0
0, 0
0, 0
0, 0
0, 0
0, 0
0, 0
0, 0
0, 0
0, 0
0, 0
0, 0
0, 0
0, 0
0, 0
0, 0
0, 0
0, 0
0, 0
0, 0
#ENDOFDATA     end of spectrum data