File: host_upload/06-09-2024/ps_0852/dump3/ps__0852shot_2380.msa
#FORMAT      : EMSA/MAS spectral data file
#VERSION     : TC202v2.0 PIXL
#TITLE       : N/A
#DATE        :       Date in the format DD-MMM-YYYY, for example 07-JUL-2010
#TIME        :             The time of day at which the spectrum was recorded, in 24-hour format
#OWNER       : PIXL Flight Model       (PIXL will use this to indicate which instrument took the data.)
#NPOINTS     : 4096     Number of data points in the spectrum (This can be zero for configuration only files)
#NCOLUMNS    : 2     Number of data columns in the spectrum (This can be zero for configuration only files)
#XUNITS      : eV
#YUNITS      : COUNTS
#DATATYPE    : YY
#XPERCHAN    : 7.862, 7.881   eV per channel (separate by commas if more than one detector)
#OFFSET      : 18.5, -22.4         eV of first channel  (separate by commas if more than one detector
#SIGNALTYPE  : XRF
#YP_TEMP     : 2.332
#LIVETIME    : 8.55934, 8.56366   seconds (separate by commas if more than one detector)
#REALTIME    : 10, 10.0   seconds (separate by commas if more than one detector)
#SPECTRUM    : start of spectrum data
0, 0
0, 0
0, 0
0, 0
0, 0
0, 0
0, 0
0, 0
0, 0
0, 2
2, 4
46, 39
62, 71
4, 5
3, 3
104, 123
417, 479
101, 94
8, 4
3, 1
0, 1
4, 4
4, 4
4, 8
29, 70
40, 108
28, 30
16, 15
6, 4
1, 4
4, 1
0, 2
0, 2
6, 7
8, 9
4, 3
2, 5
3, 6
4, 6
5, 6
11, 7
70, 15
99, 23
17, 6
6, 7
3, 3
6, 5
7, 9
19, 20
17, 21
10, 16
11, 38
37, 71
52, 63
63, 56
21, 25
41, 31
462, 624
2114, 2304
1562, 1468
197, 146
22, 43
28, 31
99, 135
328, 379
221, 229
42, 34
27, 30
26, 20
8, 9
3, 3
2, 3
8, 5
14, 6
5, 6
6, 7
6, 2
4, 10
6, 9
4, 7
4, 1
6, 1
8, 5
5, 5
11, 6
10, 13
4, 3
2, 4
5, 4
4, 4
3, 3
3, 4
4, 6
8, 8
2, 2
5, 3
3, 7
1, 4
3, 1
7, 2
3, 1
2, 2
1, 2
2, 0
2, 5
3, 2
3, 2
6, 0
5, 1
1, 6
1, 0
4, 3
1, 0
1, 0
2, 0
3, 4
4, 4
4, 6
1, 3
0, 2
2, 2
2, 0
2, 0
3, 1
2, 2
0, 2
0, 0
0, 0
0, 0
1, 1
2, 0
0, 2
0, 0
1, 0
0, 0
0, 1
1, 1
0, 1
0, 0
0, 2
0, 0
0, 1
1, 0
0, 0
0, 0
0, 0
2, 1
1, 0
0, 0
0, 0
0, 0
0, 1
0, 1
0, 0
0, 0
1, 0
0, 0
0, 0
0, 0
0, 0
0, 0
1, 2
1, 0
0, 0
0, 0
1, 0
0, 0
0, 0
0, 1
0, 0
1, 0
1, 0
0, 0
0, 2
0, 0
1, 1
0, 0
0, 0
1, 0
0, 0
0, 0
0, 0
0, 0
1, 0
1, 1
0, 0
0, 0
0, 1
0, 2
0, 0
0, 0
0, 0
0, 0
0, 0
0, 0
0, 0
0, 0
0, 0
0, 0
0, 0
0, 1
0, 0
0, 0
0, 0
0, 0
0, 1
0, 0
0, 0
0, 0
0, 0
0, 0
0, 0
1, 1
0, 0
0, 0
0, 0
0, 0
0, 0
0, 0
0, 0
0, 0
0, 0
0, 0
0, 0
0, 0
0, 0
0, 0
0, 0
0, 0
0, 0
0, 0
0, 0
0, 0
0, 0
0, 0
0, 0
0, 0
0, 0
0, 0
0, 0
0, 0
0, 0
0, 0
0, 0
0, 0
0, 0
0, 0
0, 0
0, 0
0, 0
0, 0
0, 0
0, 0
0, 0
0, 0
0, 0
0, 0
0, 0
0, 0
0, 0
0, 0
0, 0
0, 0
0, 0
0, 0
0, 0
0, 0
0, 0
0, 0
0, 0
0, 0
0, 0
0, 0
0, 0
0, 0
0, 0
0, 0
0, 0
0, 0
0, 0
0, 0
0, 0
0, 0
0, 0
0, 0
0, 0
0, 0
0, 0
0, 0
0, 0
0, 0
0, 0
0, 0
0, 0
#ENDOFDATA     end of spectrum data