File: host_upload/06-09-2024/ps_0852/dump3/ps__0852shot_2271.msa
#FORMAT      : EMSA/MAS spectral data file
#VERSION     : TC202v2.0 PIXL
#TITLE       : N/A
#DATE        :       Date in the format DD-MMM-YYYY, for example 07-JUL-2010
#TIME        :             The time of day at which the spectrum was recorded, in 24-hour format
#OWNER       : PIXL Flight Model       (PIXL will use this to indicate which instrument took the data.)
#NPOINTS     : 4096     Number of data points in the spectrum (This can be zero for configuration only files)
#NCOLUMNS    : 2     Number of data columns in the spectrum (This can be zero for configuration only files)
#XUNITS      : eV
#YUNITS      : COUNTS
#DATATYPE    : YY
#XPERCHAN    : 7.862, 7.881   eV per channel (separate by commas if more than one detector)
#OFFSET      : 18.5, -22.4         eV of first channel  (separate by commas if more than one detector
#SIGNALTYPE  : XRF
#YP_TEMP     : 2.428
#LIVETIME    : 8.56567, 8.56473   seconds (separate by commas if more than one detector)
#REALTIME    : 10, 10.0   seconds (separate by commas if more than one detector)
#SPECTRUM    : start of spectrum data
0, 0
0, 0
0, 0
0, 0
0, 0
0, 0
0, 0
0, 0
1, 0
0, 1
1, 1
49, 40
67, 32
4, 3
1, 6
116, 76
457, 326
118, 65
4, 5
2, 2
3, 3
8, 12
3, 3
7, 8
24, 29
44, 28
26, 17
13, 14
6, 4
1, 4
1, 2
0, 0
2, 2
15, 8
20, 8
4, 2
8, 1
11, 10
4, 6
8, 6
2, 5
10, 11
13, 8
13, 22
14, 34
14, 15
8, 7
6, 0
11, 5
24, 17
9, 7
5, 7
17, 11
38, 36
75, 39
31, 35
64, 79
522, 524
2361, 2044
1800, 1259
205, 111
19, 14
22, 18
102, 107
329, 309
207, 187
49, 11
19, 6
17, 14
7, 3
5, 8
5, 3
6, 6
3, 7
8, 14
9, 4
8, 8
13, 3
10, 8
4, 5
2, 1
2, 2
5, 3
5, 6
3, 3
5, 3
0, 3
6, 7
5, 7
2, 1
1, 2
3, 8
1, 3
2, 4
5, 2
6, 5
2, 3
2, 3
5, 3
6, 2
2, 1
4, 3
2, 0
0, 2
1, 1
2, 2
1, 2
1, 1
3, 3
3, 4
2, 5
1, 2
3, 2
1, 1
1, 2
3, 2
2, 2
6, 7
5, 0
2, 1
2, 0
1, 1
3, 0
2, 2
1, 1
1, 0
0, 0
2, 2
0, 0
0, 1
1, 4
1, 0
2, 1
1, 1
2, 0
2, 0
1, 0
0, 0
2, 1
0, 1
0, 0
1, 0
1, 1
1, 0
1, 0
0, 1
3, 0
2, 2
0, 0
0, 1
1, 0
0, 1
0, 0
0, 0
1, 0
0, 1
2, 1
0, 0
0, 0
0, 0
0, 0
0, 0
0, 0
0, 1
0, 0
0, 0
0, 0
2, 0
1, 0
0, 0
0, 0
0, 1
0, 0
0, 1
0, 1
0, 0
0, 0
0, 0
0, 0
0, 0
0, 0
0, 0
0, 0
0, 0
0, 0
0, 0
0, 0
0, 0
0, 0
0, 0
0, 0
0, 0
0, 0
1, 0
0, 0
0, 0
0, 0
0, 0
0, 0
0, 0
0, 0
0, 0
0, 0
0, 0
0, 0
0, 1
0, 0
0, 0
0, 0
0, 0
0, 0
0, 0
0, 0
0, 0
0, 0
0, 0
0, 0
0, 0
0, 0
0, 0
0, 0
0, 0
0, 0
0, 0
0, 0
0, 0
0, 0
0, 0
0, 0
0, 0
0, 0
0, 0
0, 0
0, 0
0, 0
0, 0
0, 0
0, 0
0, 0
0, 0
0, 0
0, 0
0, 0
0, 0
0, 0
0, 0
0, 0
0, 0
0, 0
0, 0
0, 0
0, 0
0, 0
0, 0
0, 0
0, 0
0, 0
0, 0
0, 0
0, 0
0, 0
0, 0
0, 0
0, 0
0, 0
0, 0
0, 0
0, 0
0, 0
0, 0
0, 0
0, 0
0, 0
0, 0
0, 0
0, 0
0, 0
0, 0
0, 0
0, 0
0, 0
0, 0
0, 0
0, 0
0, 0
0, 0
0, 0
0, 0
0, 0
0, 0
0, 0
0, 0
0, 0
0, 0
#ENDOFDATA     end of spectrum data