File: host_upload/06-09-2024/ps_0852/dump3/ps__0852shot_2280.msa
#FORMAT      : EMSA/MAS spectral data file
#VERSION     : TC202v2.0 PIXL
#TITLE       : N/A
#DATE        :       Date in the format DD-MMM-YYYY, for example 07-JUL-2010
#TIME        :             The time of day at which the spectrum was recorded, in 24-hour format
#OWNER       : PIXL Flight Model       (PIXL will use this to indicate which instrument took the data.)
#NPOINTS     : 4096     Number of data points in the spectrum (This can be zero for configuration only files)
#NCOLUMNS    : 2     Number of data columns in the spectrum (This can be zero for configuration only files)
#XUNITS      : eV
#YUNITS      : COUNTS
#DATATYPE    : YY
#XPERCHAN    : 7.862, 7.881   eV per channel (separate by commas if more than one detector)
#OFFSET      : 18.5, -22.4         eV of first channel  (separate by commas if more than one detector
#SIGNALTYPE  : XRF
#YP_TEMP     : 2.332
#LIVETIME    : 8.54823, 8.54672   seconds (separate by commas if more than one detector)
#REALTIME    : 10, 10.0   seconds (separate by commas if more than one detector)
#SPECTRUM    : start of spectrum data
0, 0
0, 0
0, 0
0, 0
0, 0
0, 0
0, 0
0, 0
1, 1
0, 0
3, 3
44, 52
68, 69
6, 10
0, 4
96, 115
386, 469
95, 128
5, 11
1, 2
0, 1
4, 5
2, 3
6, 5
14, 22
24, 27
12, 14
8, 5
4, 1
3, 2
2, 2
3, 5
1, 1
4, 11
20, 17
5, 1
1, 5
6, 5
4, 3
1, 1
3, 6
7, 4
12, 15
12, 9
3, 3
6, 1
3, 6
4, 7
7, 5
56, 13
100, 4
36, 7
14, 9
58, 40
96, 46
49, 15
31, 52
433, 630
2006, 2476
1520, 1472
184, 113
15, 11
14, 16
101, 121
322, 388
243, 196
34, 15
7, 8
17, 14
11, 9
0, 5
7, 9
8, 7
9, 3
1, 7
3, 5
9, 4
3, 2
3, 4
5, 6
13, 2
24, 6
17, 10
4, 10
3, 3
3, 1
6, 3
1, 5
2, 5
2, 3
2, 2
2, 3
2, 3
3, 6
4, 2
2, 3
2, 2
2, 3
1, 2
6, 4
5, 3
5, 3
1, 2
2, 3
0, 2
1, 2
3, 3
2, 3
2, 4
2, 2
2, 4
4, 6
1, 4
2, 3
3, 3
5, 2
3, 6
4, 2
2, 1
1, 4
4, 5
2, 0
0, 1
3, 3
0, 2
0, 0
0, 1
1, 0
1, 2
0, 0
0, 1
0, 2
1, 1
0, 0
0, 1
0, 3
0, 2
0, 0
0, 1
1, 1
1, 1
0, 0
0, 0
0, 0
2, 0
0, 0
0, 0
1, 0
0, 0
0, 0
0, 1
0, 0
0, 0
0, 0
0, 1
0, 1
0, 0
0, 0
0, 0
0, 2
2, 2
0, 0
0, 1
1, 0
0, 1
0, 0
0, 0
1, 0
0, 0
0, 0
0, 0
0, 1
0, 0
1, 0
0, 0
0, 0
0, 0
1, 0
0, 1
0, 0
0, 0
0, 0
0, 0
0, 0
1, 0
0, 1
0, 0
0, 0
1, 0
0, 0
0, 0
0, 0
0, 1
0, 0
0, 0
0, 0
0, 0
0, 0
0, 0
0, 0
0, 0
0, 0
0, 0
0, 0
0, 0
0, 0
0, 0
0, 0
0, 0
0, 0
0, 0
0, 0
0, 0
0, 0
0, 0
0, 0
0, 0
0, 0
0, 0
0, 0
0, 0
0, 0
0, 0
0, 0
0, 0
0, 0
0, 0
0, 0
0, 0
0, 0
0, 0
0, 0
0, 0
0, 0
0, 0
0, 0
0, 0
0, 0
0, 0
0, 0
0, 0
0, 0
0, 0
0, 0
0, 0
0, 0
0, 0
0, 0
0, 0
0, 0
0, 0
0, 0
0, 0
0, 0
0, 0
0, 0
0, 0
0, 0
0, 0
0, 0
0, 0
0, 0
0, 0
0, 0
0, 0
0, 0
0, 0
0, 0
0, 0
0, 0
0, 0
0, 0
0, 0
0, 0
0, 0
0, 0
0, 0
0, 0
0, 0
0, 0
0, 0
0, 0
0, 0
0, 0
0, 0
0, 0
0, 0
0, 0
0, 0
0, 0
0, 0
0, 0
0, 0
0, 0
#ENDOFDATA     end of spectrum data