File: host_upload/06-09-2024/ps_0852/dump3/ps__0852shot_2521.msa
#FORMAT      : EMSA/MAS spectral data file
#VERSION     : TC202v2.0 PIXL
#TITLE       : N/A
#DATE        :       Date in the format DD-MMM-YYYY, for example 07-JUL-2010
#TIME        :             The time of day at which the spectrum was recorded, in 24-hour format
#OWNER       : PIXL Flight Model       (PIXL will use this to indicate which instrument took the data.)
#NPOINTS     : 4096     Number of data points in the spectrum (This can be zero for configuration only files)
#NCOLUMNS    : 2     Number of data columns in the spectrum (This can be zero for configuration only files)
#XUNITS      : eV
#YUNITS      : COUNTS
#DATATYPE    : YY
#XPERCHAN    : 7.862, 7.881   eV per channel (separate by commas if more than one detector)
#OFFSET      : 18.5, -22.4         eV of first channel  (separate by commas if more than one detector
#SIGNALTYPE  : XRF
#YP_TEMP     : 2.524
#LIVETIME    : 8.56316, 8.55926   seconds (separate by commas if more than one detector)
#REALTIME    : 10, 10.0   seconds (separate by commas if more than one detector)
#SPECTRUM    : start of spectrum data
0, 0
0, 0
0, 0
0, 0
0, 0
0, 0
0, 0
0, 0
2, 0
0, 3
1, 4
34, 45
74, 57
2, 2
7, 6
71, 78
366, 401
82, 73
4, 10
8, 0
63, 62
297, 283
126, 113
32, 30
135, 55
126, 46
32, 23
15, 18
7, 2
2, 4
12, 9
4, 4
2, 5
60, 64
85, 108
10, 16
14, 14
20, 12
9, 9
5, 4
4, 7
16, 15
22, 19
20, 4
8, 7
8, 6
7, 4
3, 13
8, 13
27, 32
27, 14
18, 6
20, 16
63, 25
80, 49
24, 19
40, 43
405, 542
2013, 1986
1479, 1211
190, 114
26, 16
16, 22
113, 99
324, 323
239, 143
47, 20
2, 11
13, 13
6, 7
6, 2
0, 5
4, 3
2, 5
9, 2
9, 9
8, 0
3, 5
6, 3
8, 5
4, 5
2, 7
1, 4
5, 5
7, 6
4, 4
3, 4
4, 2
7, 2
10, 3
15, 3
9, 3
5, 2
5, 0
3, 1
3, 4
1, 3
2, 7
4, 1
0, 1
0, 1
3, 0
3, 1
2, 6
0, 7
5, 6
4, 13
5, 3
4, 1
2, 3
4, 3
3, 1
2, 1
2, 0
3, 0
2, 2
4, 4
6, 1
2, 1
1, 2
3, 2
2, 2
3, 2
1, 2
2, 2
0, 0
0, 0
1, 0
0, 0
1, 2
1, 1
1, 0
1, 0
0, 1
0, 1
0, 1
0, 1
0, 1
1, 1
1, 0
1, 0
0, 1
0, 1
0, 1
1, 0
0, 0
0, 1
3, 0
1, 0
0, 1
0, 0
1, 0
0, 1
0, 0
1, 0
0, 0
1, 1
2, 1
1, 2
0, 1
0, 1
0, 0
0, 0
0, 0
0, 0
1, 0
0, 0
0, 0
0, 0
1, 0
2, 0
0, 1
0, 0
0, 0
0, 0
1, 0
0, 0
0, 0
0, 0
0, 0
0, 0
0, 0
0, 0
1, 0
0, 0
0, 0
0, 0
0, 0
0, 0
0, 0
0, 0
0, 0
0, 0
0, 0
0, 0
0, 0
0, 0
0, 0
0, 0
0, 0
0, 0
0, 0
0, 0
0, 0
0, 0
0, 0
0, 0
0, 0
0, 0
0, 0
0, 0
0, 0
1, 0
0, 0
0, 0
0, 0
0, 0
0, 0
0, 0
0, 1
0, 0
0, 0
0, 0
0, 0
0, 0
0, 0
0, 0
0, 0
0, 0
0, 0
0, 0
0, 0
0, 0
0, 0
0, 0
0, 0
0, 0
0, 0
0, 0
0, 0
0, 0
0, 0
0, 0
0, 0
0, 0
0, 0
0, 0
0, 0
0, 0
0, 0
0, 0
0, 0
0, 0
0, 0
0, 0
0, 0
0, 0
0, 0
0, 0
0, 0
0, 0
0, 0
0, 0
0, 0
0, 0
0, 0
0, 0
0, 0
0, 0
0, 0
0, 0
0, 0
0, 0
0, 0
0, 0
0, 0
0, 0
0, 0
0, 0
0, 0
0, 0
0, 0
0, 0
0, 0
0, 0
0, 0
0, 0
0, 0
0, 0
0, 0
0, 0
0, 0
0, 0
0, 0
#ENDOFDATA     end of spectrum data