File: host_upload/06-09-2024/ps_0852/dump3/ps__0852shot_2330.msa
#FORMAT      : EMSA/MAS spectral data file
#VERSION     : TC202v2.0 PIXL
#TITLE       : N/A
#DATE        :       Date in the format DD-MMM-YYYY, for example 07-JUL-2010
#TIME        :             The time of day at which the spectrum was recorded, in 24-hour format
#OWNER       : PIXL Flight Model       (PIXL will use this to indicate which instrument took the data.)
#NPOINTS     : 4096     Number of data points in the spectrum (This can be zero for configuration only files)
#NCOLUMNS    : 2     Number of data columns in the spectrum (This can be zero for configuration only files)
#XUNITS      : eV
#YUNITS      : COUNTS
#DATATYPE    : YY
#XPERCHAN    : 7.862, 7.881   eV per channel (separate by commas if more than one detector)
#OFFSET      : 18.5, -22.4         eV of first channel  (separate by commas if more than one detector
#SIGNALTYPE  : XRF
#YP_TEMP     : 2.267
#LIVETIME    : 8.54285, 8.54825   seconds (separate by commas if more than one detector)
#REALTIME    : 10, 10.0   seconds (separate by commas if more than one detector)
#SPECTRUM    : start of spectrum data
0, 0
0, 0
0, 0
0, 0
0, 0
0, 0
0, 0
0, 0
1, 1
1, 0
5, 1
39, 37
66, 51
8, 4
9, 2
85, 109
440, 429
104, 91
6, 12
2, 1
9, 14
49, 59
26, 18
11, 15
43, 42
77, 46
81, 16
16, 20
6, 4
1, 3
1, 1
3, 4
5, 3
15, 20
22, 19
5, 3
6, 10
4, 10
3, 4
4, 4
5, 3
6, 10
22, 23
20, 19
12, 8
6, 5
10, 4
10, 6
11, 13
33, 15
54, 17
63, 6
29, 7
28, 44
49, 76
25, 62
32, 60
464, 620
2237, 2325
1544, 1369
208, 144
17, 22
25, 26
90, 141
328, 350
227, 191
37, 42
13, 14
6, 17
10, 5
6, 0
6, 6
5, 4
5, 2
7, 5
5, 10
8, 19
10, 11
10, 4
4, 3
3, 4
5, 6
4, 1
2, 3
5, 7
5, 5
2, 3
1, 2
1, 5
2, 4
3, 3
4, 2
6, 1
4, 2
1, 2
2, 3
4, 1
2, 4
2, 4
4, 4
2, 2
6, 4
3, 2
2, 3
0, 3
0, 1
5, 3
1, 3
2, 0
3, 0
0, 2
1, 2
1, 2
1, 1
2, 2
1, 6
4, 2
4, 4
1, 5
2, 2
1, 3
1, 2
0, 1
1, 4
1, 1
1, 0
1, 0
1, 0
0, 1
1, 0
1, 1
0, 1
0, 0
0, 1
0, 0
2, 1
1, 1
0, 1
0, 0
0, 0
0, 0
1, 0
0, 3
1, 0
1, 0
0, 0
0, 0
2, 1
0, 0
1, 1
0, 0
0, 0
0, 0
1, 0
0, 0
0, 0
0, 0
0, 0
0, 1
0, 0
0, 1
0, 1
0, 1
0, 0
0, 0
1, 0
0, 0
0, 0
1, 0
0, 1
0, 0
0, 0
0, 0
0, 0
1, 1
0, 0
0, 0
0, 0
0, 0
0, 0
0, 0
0, 0
0, 0
1, 0
1, 0
0, 0
0, 0
0, 0
0, 0
0, 0
0, 0
0, 0
0, 0
0, 0
0, 0
0, 0
0, 0
0, 0
0, 0
0, 0
0, 0
0, 0
0, 1
0, 0
0, 0
0, 0
0, 0
0, 0
0, 0
0, 0
0, 0
0, 0
0, 0
0, 0
0, 0
0, 0
0, 0
0, 0
0, 0
0, 0
0, 0
0, 0
0, 0
0, 0
0, 0
0, 0
0, 0
0, 0
0, 0
0, 0
0, 0
0, 0
0, 0
0, 0
0, 0
0, 0
0, 0
0, 0
0, 0
0, 0
0, 0
0, 0
0, 0
0, 0
0, 0
0, 0
0, 0
0, 0
0, 0
0, 0
0, 0
0, 0
0, 0
0, 0
0, 0
0, 0
0, 0
0, 0
0, 0
0, 0
0, 0
0, 0
0, 0
0, 0
0, 0
0, 0
0, 0
0, 0
0, 0
0, 0
0, 0
0, 0
0, 0
0, 0
0, 0
0, 0
0, 0
0, 0
0, 0
0, 0
0, 0
0, 0
0, 0
0, 0
0, 0
0, 0
0, 0
0, 0
0, 0
0, 0
0, 0
0, 0
0, 0
0, 0
#ENDOFDATA     end of spectrum data