File: host_upload/06-09-2024/ps_0852/dump3/ps__0852shot_2531.msa
#FORMAT      : EMSA/MAS spectral data file
#VERSION     : TC202v2.0 PIXL
#TITLE       : N/A
#DATE        :       Date in the format DD-MMM-YYYY, for example 07-JUL-2010
#TIME        :             The time of day at which the spectrum was recorded, in 24-hour format
#OWNER       : PIXL Flight Model       (PIXL will use this to indicate which instrument took the data.)
#NPOINTS     : 4096     Number of data points in the spectrum (This can be zero for configuration only files)
#NCOLUMNS    : 2     Number of data columns in the spectrum (This can be zero for configuration only files)
#XUNITS      : eV
#YUNITS      : COUNTS
#DATATYPE    : YY
#XPERCHAN    : 7.862, 7.881   eV per channel (separate by commas if more than one detector)
#OFFSET      : 18.5, -22.4         eV of first channel  (separate by commas if more than one detector
#SIGNALTYPE  : XRF
#YP_TEMP     : 2.171
#LIVETIME    : 8.53328, 8.33858   seconds (separate by commas if more than one detector)
#REALTIME    : 10, 10.0   seconds (separate by commas if more than one detector)
#SPECTRUM    : start of spectrum data
0, 0
0, 0
0, 0
0, 0
0, 0
0, 0
0, 0
1, 0
0, 2
1, 1
1, 2
49, 40
66, 71
12, 7
5, 4
77, 98
396, 441
83, 83
2, 5
2, 0
13, 8
57, 66
29, 13
16, 16
34, 54
38, 47
27, 18
15, 12
4, 5
2, 0
1, 4
1, 1
6, 2
6, 9
9, 11
7, 20
8, 13
13, 10
25, 8
5, 4
3, 1
11, 8
22, 25
24, 14
10, 5
9, 15
9, 10
4, 9
5, 7
11, 12
10, 12
7, 8
3, 11
44, 47
50, 71
23, 21
28, 41
422, 664
2073, 2593
1489, 1428
155, 170
13, 68
26, 72
89, 147
319, 374
233, 210
30, 14
16, 6
18, 12
6, 9
9, 5
3, 7
5, 2
6, 4
4, 9
6, 6
7, 3
2, 8
5, 6
2, 4
2, 1
2, 3
5, 8
2, 11
6, 7
17, 9
13, 5
1, 2
3, 8
3, 17
3, 22
2, 14
6, 6
3, 2
7, 1
4, 2
5, 5
4, 7
2, 4
2, 1
1, 3
2, 2
3, 5
3, 2
4, 1
3, 2
2, 4
4, 3
4, 2
2, 2
0, 0
1, 1
2, 4
1, 2
1, 3
2, 4
7, 3
1, 2
1, 2
4, 2
1, 2
0, 4
0, 2
2, 2
0, 0
1, 0
2, 1
0, 0
2, 2
2, 2
1, 1
2, 2
0, 2
1, 1
2, 1
0, 1
0, 1
0, 0
1, 1
0, 2
1, 2
2, 0
0, 0
0, 0
1, 2
0, 1
0, 0
0, 0
2, 1
0, 1
0, 0
1, 1
0, 0
0, 0
0, 1
0, 0
0, 0
1, 0
0, 0
0, 0
0, 0
0, 0
1, 1
0, 0
1, 0
0, 0
0, 0
0, 1
1, 0
0, 0
0, 1
1, 1
0, 1
0, 0
0, 0
0, 0
0, 1
1, 0
0, 1
0, 0
0, 0
0, 0
0, 0
0, 0
1, 0
0, 0
0, 0
0, 0
0, 0
0, 0
0, 0
0, 0
0, 0
0, 0
0, 0
0, 0
0, 0
0, 0
0, 0
0, 0
0, 0
0, 0
0, 0
0, 0
0, 0
0, 0
0, 0
0, 0
0, 0
0, 0
0, 0
0, 0
0, 0
0, 0
0, 0
0, 0
0, 0
0, 0
0, 0
0, 0
0, 0
0, 0
0, 0
0, 0
0, 0
0, 0
0, 0
0, 0
0, 0
0, 0
0, 0
0, 0
0, 0
0, 0
0, 0
0, 0
0, 0
0, 0
0, 0
0, 0
0, 0
0, 0
0, 0
0, 0
0, 0
0, 0
0, 0
0, 0
0, 0
0, 0
0, 0
0, 0
0, 0
0, 0
0, 0
0, 0
0, 0
0, 0
0, 0
0, 0
0, 0
0, 0
0, 0
0, 0
0, 0
0, 0
0, 0
0, 0
0, 0
0, 0
0, 0
0, 0
0, 0
0, 0
0, 0
0, 0
0, 0
0, 0
0, 0
0, 0
0, 0
0, 0
0, 0
0, 0
0, 0
0, 0
0, 0
0, 0
0, 0
0, 0
0, 0
0, 0
0, 0
0, 0
#ENDOFDATA     end of spectrum data