File: host_upload/06-09-2024/ps_0852/dump3/ps__0852shot_2234.msa
#FORMAT      : EMSA/MAS spectral data file
#VERSION     : TC202v2.0 PIXL
#TITLE       : N/A
#DATE        :       Date in the format DD-MMM-YYYY, for example 07-JUL-2010
#TIME        :             The time of day at which the spectrum was recorded, in 24-hour format
#OWNER       : PIXL Flight Model       (PIXL will use this to indicate which instrument took the data.)
#NPOINTS     : 4096     Number of data points in the spectrum (This can be zero for configuration only files)
#NCOLUMNS    : 2     Number of data columns in the spectrum (This can be zero for configuration only files)
#XUNITS      : eV
#YUNITS      : COUNTS
#DATATYPE    : YY
#XPERCHAN    : 7.862, 7.881   eV per channel (separate by commas if more than one detector)
#OFFSET      : 18.5, -22.4         eV of first channel  (separate by commas if more than one detector
#SIGNALTYPE  : XRF
#YP_TEMP     : 2.332
#LIVETIME    : 8.53912, 8.54308   seconds (separate by commas if more than one detector)
#REALTIME    : 10, 10.0   seconds (separate by commas if more than one detector)
#SPECTRUM    : start of spectrum data
0, 0
0, 0
0, 0
0, 0
0, 0
0, 0
0, 0
0, 0
0, 1
1, 0
1, 4
42, 49
64, 59
4, 7
10, 7
89, 101
483, 472
120, 86
5, 6
3, 0
1, 1
4, 5
0, 0
9, 6
31, 41
32, 30
25, 22
15, 10
3, 7
5, 2
2, 1
2, 3
0, 3
12, 10
12, 17
6, 3
5, 5
5, 5
2, 2
5, 2
7, 5
7, 8
18, 19
14, 17
1, 21
3, 50
3, 87
4, 12
8, 15
10, 11
16, 16
6, 8
11, 11
44, 34
41, 70
22, 17
21, 36
459, 661
2095, 2491
1539, 1442
187, 148
18, 18
17, 19
91, 103
321, 344
229, 176
31, 26
3, 25
11, 47
7, 79
5, 20
7, 3
6, 3
2, 6
4, 7
6, 5
1, 6
4, 2
2, 5
2, 4
5, 1
9, 7
1, 2
2, 9
3, 5
4, 6
3, 8
4, 4
6, 3
0, 2
2, 4
5, 3
1, 6
3, 5
3, 3
0, 4
0, 1
3, 3
4, 3
2, 2
1, 4
4, 3
1, 1
2, 0
2, 3
1, 1
3, 1
2, 2
1, 3
0, 1
1, 0
1, 3
2, 1
5, 1
0, 1
3, 2
4, 9
2, 1
3, 3
2, 1
4, 1
4, 2
2, 3
2, 0
1, 1
0, 1
0, 0
1, 0
3, 1
0, 2
1, 0
0, 1
0, 0
0, 1
0, 1
2, 1
0, 1
2, 0
3, 0
0, 0
0, 0
1, 1
0, 0
1, 0
1, 1
1, 0
0, 0
0, 0
2, 0
0, 0
0, 1
0, 0
0, 0
0, 1
0, 0
0, 0
0, 2
0, 0
0, 1
1, 0
0, 1
1, 0
0, 0
0, 0
0, 0
0, 0
0, 1
0, 0
0, 0
0, 0
0, 1
0, 0
0, 0
0, 1
0, 0
0, 1
0, 0
0, 1
0, 0
0, 0
0, 0
1, 1
0, 0
1, 0
1, 0
1, 1
0, 0
0, 0
0, 0
0, 0
0, 0
0, 0
0, 1
0, 0
0, 0
0, 0
1, 0
0, 0
0, 0
0, 0
0, 0
0, 0
0, 0
0, 0
0, 0
0, 0
0, 0
0, 0
0, 0
0, 0
0, 0
0, 0
0, 0
0, 0
0, 0
0, 0
0, 0
0, 0
0, 0
0, 0
0, 0
0, 0
0, 0
0, 0
0, 0
0, 0
0, 0
0, 0
0, 0
0, 0
0, 0
0, 0
0, 0
0, 0
0, 0
0, 0
0, 0
0, 0
0, 0
0, 0
0, 0
0, 0
0, 0
0, 0
0, 0
0, 0
0, 0
0, 0
0, 0
0, 0
0, 0
0, 0
0, 0
0, 0
0, 0
0, 0
0, 0
0, 0
0, 0
0, 0
0, 0
0, 0
0, 0
0, 0
0, 0
0, 0
0, 0
0, 0
0, 0
0, 0
0, 0
0, 0
0, 0
0, 0
0, 0
0, 0
0, 0
0, 0
0, 0
0, 0
0, 0
0, 0
0, 0
0, 0
0, 0
0, 0
0, 0
0, 0
0, 0
0, 0
0, 0
0, 0
0, 0
0, 0
#ENDOFDATA     end of spectrum data