File: host_upload/06-09-2024/ps_0852/dump3/ps__0852shot_2311.msa
#FORMAT      : EMSA/MAS spectral data file
#VERSION     : TC202v2.0 PIXL
#TITLE       : N/A
#DATE        :       Date in the format DD-MMM-YYYY, for example 07-JUL-2010
#TIME        :             The time of day at which the spectrum was recorded, in 24-hour format
#OWNER       : PIXL Flight Model       (PIXL will use this to indicate which instrument took the data.)
#NPOINTS     : 4096     Number of data points in the spectrum (This can be zero for configuration only files)
#NCOLUMNS    : 2     Number of data columns in the spectrum (This can be zero for configuration only files)
#XUNITS      : eV
#YUNITS      : COUNTS
#DATATYPE    : YY
#XPERCHAN    : 7.862, 7.881   eV per channel (separate by commas if more than one detector)
#OFFSET      : 18.5, -22.4         eV of first channel  (separate by commas if more than one detector
#SIGNALTYPE  : XRF
#YP_TEMP     : 2.396
#LIVETIME    : 8.56258, 8.56101   seconds (separate by commas if more than one detector)
#REALTIME    : 10, 10.0   seconds (separate by commas if more than one detector)
#SPECTRUM    : start of spectrum data
0, 0
0, 0
0, 0
0, 0
0, 0
0, 0
0, 0
0, 0
3, 2
12, 0
8, 1
45, 54
56, 40
13, 6
3, 4
80, 95
451, 400
121, 97
5, 2
5, 1
2, 5
20, 19
11, 6
40, 6
584, 40
888, 54
162, 16
40, 9
10, 3
2, 2
7, 3
3, 5
3, 7
9, 13
14, 22
8, 6
19, 26
9, 21
4, 7
5, 2
8, 1
9, 6
20, 11
15, 15
6, 4
13, 6
2, 6
7, 8
10, 13
7, 13
11, 14
14, 6
16, 21
53, 49
65, 62
18, 23
27, 43
515, 555
2171, 2327
1611, 1357
205, 144
29, 18
23, 16
117, 121
352, 360
233, 218
32, 19
5, 4
8, 14
10, 7
3, 2
4, 6
2, 2
6, 8
5, 16
9, 5
7, 1
3, 5
5, 6
2, 4
3, 8
5, 3
3, 5
3, 3
2, 6
4, 3
2, 4
9, 1
3, 1
3, 0
4, 1
6, 3
5, 3
4, 4
4, 0
0, 5
3, 1
2, 7
4, 6
7, 1
2, 3
2, 0
0, 2
3, 1
1, 2
2, 1
0, 2
4, 2
1, 3
3, 2
4, 4
2, 4
0, 1
1, 2
1, 0
4, 0
0, 4
6, 5
3, 2
0, 1
1, 0
2, 1
2, 2
2, 0
1, 2
2, 0
0, 1
1, 0
1, 0
2, 0
0, 2
1, 1
0, 2
0, 1
0, 1
0, 0
0, 1
1, 0
0, 1
1, 0
0, 0
0, 2
0, 0
0, 0
1, 0
0, 2
1, 0
0, 0
2, 1
0, 0
0, 0
0, 0
1, 1
0, 0
0, 0
0, 0
0, 0
1, 1
0, 0
0, 0
0, 1
1, 0
0, 0
0, 0
1, 0
0, 0
0, 0
0, 0
0, 0
0, 1
0, 0
0, 0
0, 0
0, 0
0, 0
0, 0
0, 0
0, 1
0, 0
0, 0
0, 0
0, 0
0, 0
1, 0
0, 0
0, 0
0, 0
0, 0
0, 0
0, 0
0, 0
0, 0
0, 0
0, 0
0, 1
0, 0
0, 0
0, 0
0, 0
0, 0
0, 0
0, 0
0, 0
0, 0
0, 0
0, 0
0, 0
0, 0
0, 0
0, 0
0, 0
0, 0
0, 0
0, 0
0, 0
0, 0
0, 0
0, 0
0, 0
0, 0
0, 0
0, 0
0, 0
0, 0
0, 0
0, 0
0, 0
0, 0
0, 0
0, 0
0, 0
0, 0
0, 0
0, 0
1, 0
0, 0
0, 0
0, 0
0, 0
0, 0
0, 0
0, 0
0, 0
0, 0
0, 0
0, 0
0, 0
0, 0
0, 0
0, 0
0, 0
0, 0
0, 0
0, 0
0, 0
0, 0
0, 0
0, 0
0, 0
0, 0
0, 0
0, 0
0, 0
0, 0
0, 0
0, 0
0, 0
0, 0
0, 0
0, 0
0, 0
0, 0
0, 0
0, 0
0, 0
0, 0
0, 0
0, 0
0, 0
0, 0
0, 0
0, 0
0, 0
0, 0
0, 0
0, 0
0, 0
0, 0
0, 0
0, 0
0, 0
0, 0
0, 0
0, 0
#ENDOFDATA     end of spectrum data