File: host_upload/06-09-2024/ps_0852/dump3/ps__0852shot_2265.msa
#FORMAT      : EMSA/MAS spectral data file
#VERSION     : TC202v2.0 PIXL
#TITLE       : N/A
#DATE        :       Date in the format DD-MMM-YYYY, for example 07-JUL-2010
#TIME        :             The time of day at which the spectrum was recorded, in 24-hour format
#OWNER       : PIXL Flight Model       (PIXL will use this to indicate which instrument took the data.)
#NPOINTS     : 4096     Number of data points in the spectrum (This can be zero for configuration only files)
#NCOLUMNS    : 2     Number of data columns in the spectrum (This can be zero for configuration only files)
#XUNITS      : eV
#YUNITS      : COUNTS
#DATATYPE    : YY
#XPERCHAN    : 7.862, 7.881   eV per channel (separate by commas if more than one detector)
#OFFSET      : 18.5, -22.4         eV of first channel  (separate by commas if more than one detector
#SIGNALTYPE  : XRF
#YP_TEMP     : 2.171
#LIVETIME    : 8.56789, 8.57612   seconds (separate by commas if more than one detector)
#REALTIME    : 10, 10.0   seconds (separate by commas if more than one detector)
#SPECTRUM    : start of spectrum data
0, 0
0, 0
0, 0
0, 0
0, 0
0, 0
0, 0
0, 0
1, 11
1, 12
0, 9
44, 47
55, 51
7, 8
4, 7
97, 103
464, 455
93, 110
2, 7
2, 3
1, 4
3, 4
3, 4
11, 33
68, 839
88, 1197
37, 150
16, 15
2, 2
5, 2
0, 1
2, 1
4, 4
9, 8
8, 10
7, 6
10, 33
16, 45
6, 8
4, 2
8, 3
9, 7
16, 13
10, 8
6, 10
6, 9
3, 8
7, 9
5, 12
11, 13
5, 14
6, 6
5, 5
39, 37
73, 55
19, 31
29, 38
477, 608
2107, 2372
1602, 1412
194, 152
32, 54
26, 42
110, 128
359, 364
190, 202
42, 25
2, 7
16, 14
4, 9
4, 2
3, 3
12, 5
26, 12
29, 8
9, 12
10, 6
2, 6
1, 2
8, 2
1, 6
6, 2
0, 3
7, 5
3, 4
8, 5
6, 4
5, 1
1, 4
3, 2
4, 1
0, 2
2, 1
2, 3
2, 5
5, 2
4, 5
2, 4
4, 9
2, 5
2, 3
6, 2
4, 3
3, 3
1, 1
2, 0
5, 2
2, 3
1, 2
2, 5
0, 2
1, 6
2, 1
1, 1
1, 2
1, 4
1, 7
4, 3
2, 2
4, 5
0, 4
1, 6
2, 3
5, 2
2, 0
2, 1
1, 1
1, 0
0, 2
1, 2
0, 0
1, 1
1, 1
3, 1
3, 1
1, 2
1, 0
0, 0
2, 1
0, 0
0, 0
1, 1
1, 0
0, 3
1, 0
0, 0
0, 0
2, 1
1, 0
0, 1
1, 0
0, 1
0, 0
1, 0
0, 0
0, 1
0, 0
0, 0
0, 0
0, 0
0, 0
0, 1
0, 0
1, 1
0, 0
0, 0
0, 0
0, 0
0, 0
0, 0
1, 0
1, 1
0, 1
1, 0
0, 0
1, 0
0, 1
0, 0
0, 1
0, 0
0, 1
0, 0
0, 0
0, 1
0, 1
0, 0
0, 1
0, 0
0, 0
0, 0
0, 1
0, 0
0, 0
0, 0
0, 0
0, 0
0, 0
0, 0
1, 0
0, 0
0, 0
0, 0
0, 0
0, 0
0, 0
0, 0
0, 0
0, 0
0, 0
0, 0
0, 0
0, 0
0, 0
0, 0
0, 0
0, 1
0, 0
0, 0
0, 0
0, 0
0, 0
0, 0
0, 0
0, 0
0, 0
0, 0
0, 0
0, 0
0, 0
0, 0
0, 0
0, 0
0, 0
0, 0
0, 0
0, 0
0, 0
0, 0
0, 0
0, 0
0, 0
0, 0
0, 0
0, 0
0, 0
0, 0
0, 0
0, 0
0, 0
0, 0
0, 0
0, 0
0, 0
0, 0
0, 0
0, 0
0, 0
0, 0
0, 0
0, 0
0, 0
0, 0
0, 0
0, 0
0, 0
0, 0
0, 0
0, 0
0, 0
0, 0
0, 0
0, 0
0, 0
0, 0
0, 0
0, 0
0, 0
0, 0
0, 0
0, 0
0, 0
0, 0
0, 0
0, 0
0, 0
0, 0
0, 0
0, 0
0, 0
0, 0
0, 0
0, 0
0, 0
0, 0
#ENDOFDATA     end of spectrum data