File: host_upload/06-09-2024/ps_0852/dump3/ps__0852shot_2201.msa
#FORMAT      : EMSA/MAS spectral data file
#VERSION     : TC202v2.0 PIXL
#TITLE       : N/A
#DATE        :       Date in the format DD-MMM-YYYY, for example 07-JUL-2010
#TIME        :             The time of day at which the spectrum was recorded, in 24-hour format
#OWNER       : PIXL Flight Model       (PIXL will use this to indicate which instrument took the data.)
#NPOINTS     : 4096     Number of data points in the spectrum (This can be zero for configuration only files)
#NCOLUMNS    : 2     Number of data columns in the spectrum (This can be zero for configuration only files)
#XUNITS      : eV
#YUNITS      : COUNTS
#DATATYPE    : YY
#XPERCHAN    : 7.862, 7.881   eV per channel (separate by commas if more than one detector)
#OFFSET      : 18.5, -22.4         eV of first channel  (separate by commas if more than one detector
#SIGNALTYPE  : XRF
#YP_TEMP     : 2.364
#LIVETIME    : 8.5673, 8.53324   seconds (separate by commas if more than one detector)
#REALTIME    : 10, 10.0   seconds (separate by commas if more than one detector)
#SPECTRUM    : start of spectrum data
0, 0
0, 0
0, 0
0, 0
0, 0
0, 0
0, 0
0, 0
0, 1
3, 2
3, 3
51, 57
47, 58
7, 5
5, 8
101, 112
406, 382
92, 83
6, 3
0, 1
0, 1
5, 5
2, 4
6, 7
42, 30
35, 52
21, 19
17, 8
7, 5
2, 2
2, 3
2, 2
2, 0
10, 11
11, 10
6, 7
11, 13
10, 5
6, 4
2, 4
5, 7
36, 9
39, 14
17, 7
2, 3
6, 6
5, 10
7, 10
13, 21
8, 11
10, 8
6, 8
11, 7
39, 47
68, 62
25, 21
25, 40
477, 599
2241, 2402
1499, 1425
215, 154
19, 7
22, 20
85, 109
371, 378
244, 201
32, 21
7, 8
16, 17
9, 11
16, 3
4, 1
4, 6
2, 6
2, 6
8, 11
6, 2
4, 1
6, 4
10, 3
9, 10
4, 2
0, 4
1, 7
3, 1
1, 5
3, 4
4, 3
7, 6
7, 2
4, 2
3, 4
1, 0
2, 4
1, 0
1, 4
4, 4
4, 1
5, 1
1, 1
10, 3
1, 4
1, 6
2, 7
0, 3
5, 1
0, 0
3, 2
3, 3
3, 2
2, 2
2, 3
2, 2
1, 2
1, 2
4, 3
1, 1
5, 2
4, 2
2, 2
2, 0
3, 1
1, 2
2, 1
1, 0
1, 0
0, 0
0, 0
0, 0
0, 1
0, 3
0, 0
0, 1
3, 1
0, 0
1, 2
2, 0
3, 0
0, 0
0, 1
0, 1
0, 1
0, 3
0, 1
0, 0
0, 1
2, 0
1, 0
0, 0
0, 1
1, 0
0, 1
0, 1
0, 0
1, 1
0, 0
1, 1
1, 1
1, 0
3, 0
0, 0
0, 0
0, 0
0, 0
1, 0
0, 0
1, 0
0, 0
0, 0
0, 1
1, 0
0, 0
0, 0
0, 0
0, 0
1, 0
0, 0
0, 0
0, 0
0, 0
0, 0
0, 0
0, 0
1, 0
0, 0
0, 0
0, 0
0, 1
0, 0
0, 0
1, 0
1, 0
0, 0
0, 0
0, 0
0, 0
0, 0
0, 0
0, 0
1, 0
0, 0
0, 0
0, 0
0, 0
0, 0
1, 0
0, 0
0, 0
0, 0
0, 0
1, 0
0, 0
0, 0
0, 0
0, 0
0, 0
0, 0
0, 0
0, 0
0, 0
0, 0
0, 0
0, 0
0, 0
0, 0
0, 0
0, 0
0, 0
0, 0
0, 0
0, 0
0, 0
0, 0
0, 0
0, 0
0, 0
0, 0
0, 0
0, 0
0, 0
0, 0
0, 0
0, 0
0, 0
0, 0
0, 0
0, 0
0, 0
0, 0
0, 0
0, 0
0, 0
0, 0
0, 0
0, 0
0, 0
0, 0
0, 0
0, 0
0, 0
0, 0
0, 0
0, 0
0, 0
0, 0
0, 0
0, 0
0, 0
0, 0
0, 0
0, 0
0, 0
0, 0
0, 0
0, 0
0, 0
0, 0
0, 0
0, 0
0, 0
0, 0
0, 0
0, 0
0, 0
0, 0
0, 0
0, 0
0, 0
0, 0
0, 0
0, 0
0, 0
0, 0
0, 0
#ENDOFDATA     end of spectrum data