File: host_upload/06-09-2024/ps_0852/dump3/ps__0852shot_2434.msa
#FORMAT      : EMSA/MAS spectral data file
#VERSION     : TC202v2.0 PIXL
#TITLE       : N/A
#DATE        :       Date in the format DD-MMM-YYYY, for example 07-JUL-2010
#TIME        :             The time of day at which the spectrum was recorded, in 24-hour format
#OWNER       : PIXL Flight Model       (PIXL will use this to indicate which instrument took the data.)
#NPOINTS     : 4096     Number of data points in the spectrum (This can be zero for configuration only files)
#NCOLUMNS    : 2     Number of data columns in the spectrum (This can be zero for configuration only files)
#XUNITS      : eV
#YUNITS      : COUNTS
#DATATYPE    : YY
#XPERCHAN    : 7.862, 7.881   eV per channel (separate by commas if more than one detector)
#OFFSET      : 18.5, -22.4         eV of first channel  (separate by commas if more than one detector
#SIGNALTYPE  : XRF
#YP_TEMP     : 2.364
#LIVETIME    : 8.56158, 8.55658   seconds (separate by commas if more than one detector)
#REALTIME    : 10, 10.0   seconds (separate by commas if more than one detector)
#SPECTRUM    : start of spectrum data
0, 0
0, 0
0, 0
0, 0
0, 0
0, 0
0, 0
0, 0
1, 0
1, 0
1, 1
52, 59
73, 45
4, 5
4, 3
100, 95
455, 406
104, 101
7, 4
0, 1
1, 2
9, 5
1, 3
3, 5
17, 23
25, 32
15, 10
10, 10
6, 2
0, 3
0, 2
2, 1
3, 2
39, 25
31, 34
7, 10
7, 7
6, 9
8, 21
5, 7
3, 1
6, 11
30, 31
55, 42
60, 8
19, 7
7, 5
9, 3
11, 7
13, 10
18, 10
12, 1
15, 10
39, 48
70, 68
26, 23
26, 47
433, 551
2169, 2243
1658, 1429
204, 151
102, 15
93, 22
103, 145
323, 336
230, 184
25, 30
7, 12
8, 15
4, 6
4, 5
0, 3
1, 5
4, 4
9, 5
5, 6
7, 7
4, 3
6, 5
1, 3
3, 7
1, 3
3, 6
2, 6
5, 13
2, 22
5, 9
7, 6
6, 1
17, 6
19, 2
9, 2
4, 1
4, 1
2, 8
2, 4
3, 4
2, 6
1, 4
3, 3
1, 1
4, 1
2, 4
3, 0
1, 1
2, 0
1, 1
1, 2
1, 1
3, 4
2, 2
1, 4
1, 2
0, 1
2, 0
4, 1
9, 3
3, 5
3, 0
0, 0
4, 0
4, 1
1, 2
1, 1
1, 0
1, 2
1, 0
2, 0
1, 1
0, 2
1, 0
0, 0
1, 1
0, 0
2, 3
0, 0
0, 0
0, 1
0, 0
0, 3
0, 1
1, 1
0, 1
0, 1
0, 0
0, 0
0, 1
1, 1
1, 0
0, 0
0, 1
0, 0
0, 0
0, 0
0, 0
0, 0
0, 1
1, 0
0, 0
0, 1
2, 1
2, 0
0, 0
0, 1
0, 0
1, 0
0, 0
0, 0
1, 1
0, 0
1, 0
0, 0
1, 0
0, 1
0, 0
0, 0
1, 0
0, 0
0, 1
0, 0
0, 0
0, 0
0, 0
0, 0
0, 0
0, 0
0, 0
0, 0
0, 0
0, 0
0, 0
0, 0
0, 0
0, 0
0, 0
0, 0
0, 0
0, 0
0, 0
0, 0
0, 0
0, 0
0, 0
0, 0
0, 0
0, 0
0, 0
0, 0
0, 0
0, 0
0, 0
0, 0
0, 0
0, 0
0, 0
0, 0
0, 0
0, 0
0, 0
0, 0
0, 0
0, 0
0, 0
0, 0
0, 0
0, 0
0, 0
0, 0
0, 0
0, 0
0, 0
0, 0
0, 0
0, 0
0, 0
0, 0
0, 0
0, 0
0, 0
0, 0
0, 0
0, 0
0, 0
0, 0
0, 0
0, 0
0, 0
0, 0
0, 0
0, 0
0, 0
0, 0
0, 0
0, 0
0, 0
0, 0
0, 0
0, 0
0, 0
0, 0
0, 0
0, 0
0, 0
0, 0
0, 0
0, 0
0, 0
0, 0
0, 0
0, 0
0, 0
0, 0
0, 0
0, 0
0, 0
0, 0
0, 0
0, 0
0, 0
0, 0
0, 0
0, 0
0, 0
0, 0
0, 0
0, 0
0, 0
0, 0
0, 0
0, 0
0, 0
0, 0
0, 0
0, 0
#ENDOFDATA     end of spectrum data