File: host_upload/06-09-2024/ps_0852/dump3/ps__0852shot_2117.msa
#FORMAT      : EMSA/MAS spectral data file
#VERSION     : TC202v2.0 PIXL
#TITLE       : N/A
#DATE        :       Date in the format DD-MMM-YYYY, for example 07-JUL-2010
#TIME        :             The time of day at which the spectrum was recorded, in 24-hour format
#OWNER       : PIXL Flight Model       (PIXL will use this to indicate which instrument took the data.)
#NPOINTS     : 4096     Number of data points in the spectrum (This can be zero for configuration only files)
#NCOLUMNS    : 2     Number of data columns in the spectrum (This can be zero for configuration only files)
#XUNITS      : eV
#YUNITS      : COUNTS
#DATATYPE    : YY
#XPERCHAN    : 7.862, 7.881   eV per channel (separate by commas if more than one detector)
#OFFSET      : 18.5, -22.4         eV of first channel  (separate by commas if more than one detector
#SIGNALTYPE  : XRF
#YP_TEMP     : 2.267
#LIVETIME    : 8.54916, 8.58969   seconds (separate by commas if more than one detector)
#REALTIME    : 10, 10.0   seconds (separate by commas if more than one detector)
#SPECTRUM    : start of spectrum data
0, 0
0, 0
0, 0
0, 0
0, 0
0, 0
0, 0
0, 0
0, 0
1, 3
4, 2
44, 62
61, 59
5, 2
4, 13
102, 97
416, 397
102, 111
8, 3
2, 1
3, 11
45, 60
15, 14
19, 12
39, 31
33, 28
19, 30
8, 14
5, 2
4, 1
5, 2
8, 4
47, 3
75, 12
18, 15
4, 3
2, 7
6, 7
3, 15
1, 7
3, 3
5, 10
16, 21
16, 12
13, 5
12, 9
10, 10
49, 7
100, 5
114, 8
43, 13
16, 16
9, 16
44, 46
65, 51
16, 14
23, 42
455, 586
2113, 2296
1479, 1361
189, 135
18, 19
27, 27
114, 121
331, 370
230, 241
45, 54
16, 12
9, 15
11, 10
3, 8
4, 1
6, 3
9, 8
7, 9
3, 5
9, 4
4, 4
6, 4
2, 10
7, 2
9, 8
10, 6
5, 4
0, 10
4, 8
1, 8
6, 3
2, 6
4, 0
7, 4
2, 5
3, 2
5, 2
3, 2
8, 2
1, 2
3, 1
5, 3
0, 4
3, 4
0, 0
4, 1
3, 2
2, 5
0, 1
3, 3
2, 3
3, 3
2, 1
1, 0
3, 2
1, 1
2, 3
2, 2
2, 5
5, 3
2, 3
1, 2
2, 1
0, 1
1, 2
2, 1
4, 2
1, 3
1, 2
1, 1
1, 1
1, 1
1, 0
1, 0
2, 0
0, 3
1, 1
2, 0
0, 1
0, 1
0, 0
0, 0
1, 2
0, 1
0, 0
1, 3
0, 0
1, 0
1, 0
0, 1
0, 0
0, 0
1, 0
1, 1
0, 0
0, 0
1, 0
0, 0
0, 0
0, 1
0, 0
0, 0
1, 1
1, 0
1, 0
1, 0
0, 0
0, 0
0, 0
1, 1
0, 0
0, 0
0, 1
0, 0
0, 0
1, 0
0, 1
1, 1
0, 0
0, 0
0, 0
1, 0
0, 0
0, 0
0, 0
0, 0
0, 0
0, 0
0, 0
0, 0
0, 0
0, 0
0, 0
1, 0
0, 1
0, 0
0, 0
0, 0
0, 0
0, 0
0, 0
0, 0
0, 0
0, 0
0, 0
0, 0
0, 1
0, 0
0, 0
0, 0
0, 0
0, 0
0, 0
0, 0
0, 0
0, 0
0, 0
0, 0
0, 0
0, 0
0, 0
0, 0
0, 0
0, 0
0, 0
0, 0
0, 0
0, 0
0, 0
0, 0
0, 0
0, 0
0, 0
0, 0
0, 0
0, 0
0, 0
0, 1
0, 1
0, 0
0, 0
0, 0
0, 0
0, 0
0, 0
0, 0
0, 0
0, 0
0, 0
0, 0
0, 0
0, 0
0, 0
0, 0
0, 0
0, 0
0, 0
0, 0
0, 0
0, 0
0, 0
0, 0
0, 0
0, 0
0, 0
0, 0
0, 0
0, 0
0, 0
0, 0
0, 0
0, 0
0, 0
0, 0
0, 0
0, 0
0, 0
0, 0
0, 0
0, 0
0, 0
0, 0
0, 0
0, 0
0, 0
0, 0
0, 0
0, 0
0, 0
0, 0
0, 0
0, 0
0, 0
0, 0
0, 0
0, 0
0, 0
#ENDOFDATA     end of spectrum data