File: host_upload/06-09-2024/ps_0852/dump3/ps__0852shot_2064.msa
#FORMAT      : EMSA/MAS spectral data file
#VERSION     : TC202v2.0 PIXL
#TITLE       : N/A
#DATE        :       Date in the format DD-MMM-YYYY, for example 07-JUL-2010
#TIME        :             The time of day at which the spectrum was recorded, in 24-hour format
#OWNER       : PIXL Flight Model       (PIXL will use this to indicate which instrument took the data.)
#NPOINTS     : 4096     Number of data points in the spectrum (This can be zero for configuration only files)
#NCOLUMNS    : 2     Number of data columns in the spectrum (This can be zero for configuration only files)
#XUNITS      : eV
#YUNITS      : COUNTS
#DATATYPE    : YY
#XPERCHAN    : 7.862, 7.881   eV per channel (separate by commas if more than one detector)
#OFFSET      : 18.5, -22.4         eV of first channel  (separate by commas if more than one detector
#SIGNALTYPE  : XRF
#YP_TEMP     : 2.46
#LIVETIME    : 8.54602, 8.54655   seconds (separate by commas if more than one detector)
#REALTIME    : 10, 10.0   seconds (separate by commas if more than one detector)
#SPECTRUM    : start of spectrum data
0, 0
0, 0
0, 0
0, 0
0, 0
0, 0
0, 0
0, 1
0, 0
0, 1
3, 1
49, 32
42, 59
8, 8
6, 2
105, 107
423, 409
132, 93
5, 2
2, 1
5, 2
14, 13
6, 7
20, 5
23, 26
25, 27
13, 25
11, 7
6, 4
3, 4
1, 7
1, 3
3, 1
16, 12
25, 38
9, 8
5, 3
27, 3
76, 5
50, 2
4, 7
9, 10
13, 11
7, 9
12, 5
24, 8
34, 2
9, 2
7, 13
9, 37
15, 22
7, 31
6, 82
35, 84
51, 57
17, 16
33, 47
498, 584
2124, 2363
1693, 1484
201, 166
14, 15
19, 32
100, 112
331, 350
230, 216
34, 24
15, 11
29, 18
24, 15
5, 11
5, 3
1, 4
6, 3
5, 9
11, 8
8, 6
9, 4
3, 4
6, 3
4, 8
3, 4
10, 7
6, 6
5, 4
1, 2
4, 3
1, 4
5, 1
3, 6
9, 4
5, 2
7, 3
2, 4
2, 3
5, 4
5, 5
5, 3
0, 2
2, 3
1, 1
2, 3
2, 5
1, 2
2, 7
0, 8
0, 1
0, 1
3, 2
0, 3
3, 2
2, 3
4, 4
4, 2
4, 3
0, 1
4, 4
2, 3
0, 2
0, 1
4, 1
2, 0
3, 3
0, 2
1, 1
1, 0
1, 2
4, 0
1, 1
3, 2
0, 1
1, 1
1, 0
5, 0
0, 1
1, 0
1, 0
1, 4
0, 1
0, 0
0, 0
1, 1
0, 2
0, 0
0, 1
0, 0
1, 0
0, 0
0, 0
1, 0
0, 0
1, 0
1, 1
0, 0
2, 0
0, 1
1, 1
0, 0
0, 0
0, 0
2, 0
1, 0
0, 0
0, 0
0, 0
1, 0
0, 1
1, 0
0, 0
0, 0
1, 0
0, 1
0, 0
1, 0
0, 0
0, 0
1, 0
1, 0
0, 0
0, 0
0, 0
1, 0
0, 1
1, 0
0, 0
0, 1
0, 0
1, 1
0, 0
0, 0
0, 0
1, 0
0, 0
0, 0
0, 0
0, 0
0, 1
0, 0
0, 0
0, 1
0, 0
0, 0
0, 0
0, 0
0, 0
0, 0
0, 0
0, 0
0, 0
0, 0
0, 0
0, 0
0, 0
0, 0
0, 0
0, 0
0, 0
0, 0
0, 0
0, 0
0, 0
0, 0
0, 0
1, 0
0, 0
0, 0
0, 0
0, 0
0, 0
0, 0
0, 0
0, 0
0, 0
0, 0
0, 0
0, 0
0, 0
0, 0
0, 0
0, 0
0, 0
0, 0
0, 0
0, 0
0, 0
0, 0
0, 0
0, 0
0, 0
0, 0
0, 0
0, 0
0, 0
0, 0
0, 0
0, 0
0, 0
0, 0
0, 0
0, 0
0, 0
0, 0
0, 0
0, 0
0, 0
0, 0
0, 0
0, 0
0, 0
0, 0
0, 0
0, 0
0, 0
0, 0
0, 0
0, 0
0, 0
0, 0
0, 0
0, 0
0, 0
0, 0
0, 0
0, 0
0, 0
0, 0
0, 0
0, 0
0, 0
0, 0
0, 0
0, 0
0, 0
0, 0
#ENDOFDATA     end of spectrum data