File: host_upload/06-09-2024/ps_0852/dump3/ps__0852shot_2085.msa
#FORMAT      : EMSA/MAS spectral data file
#VERSION     : TC202v2.0 PIXL
#TITLE       : N/A
#DATE        :       Date in the format DD-MMM-YYYY, for example 07-JUL-2010
#TIME        :             The time of day at which the spectrum was recorded, in 24-hour format
#OWNER       : PIXL Flight Model       (PIXL will use this to indicate which instrument took the data.)
#NPOINTS     : 4096     Number of data points in the spectrum (This can be zero for configuration only files)
#NCOLUMNS    : 2     Number of data columns in the spectrum (This can be zero for configuration only files)
#XUNITS      : eV
#YUNITS      : COUNTS
#DATATYPE    : YY
#XPERCHAN    : 7.862, 7.881   eV per channel (separate by commas if more than one detector)
#OFFSET      : 18.5, -22.4         eV of first channel  (separate by commas if more than one detector
#SIGNALTYPE  : XRF
#YP_TEMP     : 2.46
#LIVETIME    : 8.55711, 8.57754   seconds (separate by commas if more than one detector)
#REALTIME    : 10, 10.0   seconds (separate by commas if more than one detector)
#SPECTRUM    : start of spectrum data
0, 0
0, 0
0, 0
0, 0
0, 0
0, 0
0, 0
0, 0
0, 1
0, 2
3, 4
45, 51
57, 70
11, 7
7, 5
95, 117
413, 435
128, 121
8, 5
1, 1
0, 0
1, 1
3, 4
6, 3
21, 16
21, 27
21, 10
12, 10
4, 4
3, 2
1, 1
3, 1
1, 0
12, 9
9, 19
4, 6
3, 0
25, 3
36, 5
18, 4
18, 0
11, 7
3, 13
12, 67
4, 52
2, 10
3, 11
4, 10
4, 4
11, 10
26, 15
60, 5
50, 6
37, 39
47, 78
19, 21
28, 46
460, 621
2079, 2411
1500, 1475
190, 178
18, 22
34, 26
107, 127
323, 372
214, 216
25, 24
8, 8
8, 15
9, 9
2, 3
5, 5
1, 3
3, 7
14, 5
38, 4
29, 5
10, 14
7, 16
8, 8
3, 6
2, 8
3, 5
0, 1
4, 3
2, 1
3, 3
3, 1
5, 4
5, 7
6, 5
3, 5
5, 8
4, 10
2, 11
1, 4
0, 2
1, 2
2, 4
3, 6
4, 2
4, 2
7, 2
7, 2
3, 4
0, 0
0, 0
6, 1
0, 2
2, 2
3, 3
3, 2
2, 4
2, 3
2, 4
3, 0
3, 0
4, 3
2, 1
2, 0
0, 2
4, 1
2, 2
3, 2
1, 0
0, 1
1, 0
1, 1
2, 2
3, 1
1, 4
1, 0
1, 0
0, 2
1, 1
0, 1
0, 2
1, 0
0, 0
0, 0
0, 0
0, 0
0, 1
0, 1
0, 0
1, 1
1, 0
0, 1
0, 0
0, 0
0, 1
0, 0
2, 1
0, 1
0, 0
1, 1
0, 1
0, 0
1, 1
0, 0
1, 0
0, 1
0, 0
0, 1
0, 0
0, 0
0, 0
0, 1
1, 0
0, 1
0, 1
1, 0
0, 0
0, 0
0, 0
0, 0
0, 0
0, 0
0, 0
0, 0
0, 0
0, 0
0, 0
0, 1
0, 0
0, 0
0, 0
0, 0
1, 0
0, 0
0, 1
0, 1
0, 0
0, 0
0, 0
0, 0
0, 0
0, 0
0, 0
0, 0
0, 0
0, 0
0, 0
0, 0
0, 0
0, 0
0, 0
0, 0
0, 0
0, 0
0, 0
0, 0
0, 0
0, 0
0, 0
0, 0
0, 0
0, 0
0, 0
0, 0
0, 0
0, 0
0, 0
0, 0
0, 0
0, 0
0, 0
0, 0
0, 0
0, 0
0, 0
0, 0
0, 0
0, 0
0, 0
0, 0
0, 0
0, 0
0, 0
0, 0
0, 0
0, 0
0, 0
0, 0
0, 0
0, 0
0, 0
0, 0
0, 0
0, 0
0, 0
0, 0
0, 0
0, 0
0, 0
0, 0
0, 0
0, 0
0, 0
0, 0
0, 0
0, 0
0, 0
0, 0
0, 0
0, 0
0, 0
0, 0
0, 0
0, 0
0, 0
0, 0
0, 0
0, 0
0, 0
0, 0
0, 0
0, 0
0, 0
0, 0
0, 0
0, 0
0, 0
0, 0
0, 0
0, 0
0, 0
0, 0
0, 0
0, 0
0, 0
0, 0
0, 0
0, 0
#ENDOFDATA     end of spectrum data