File: host_upload/06-09-2024/ps_0852/dump3/ps__0852shot_2495.msa
#FORMAT      : EMSA/MAS spectral data file
#VERSION     : TC202v2.0 PIXL
#TITLE       : N/A
#DATE        :       Date in the format DD-MMM-YYYY, for example 07-JUL-2010
#TIME        :             The time of day at which the spectrum was recorded, in 24-hour format
#OWNER       : PIXL Flight Model       (PIXL will use this to indicate which instrument took the data.)
#NPOINTS     : 4096     Number of data points in the spectrum (This can be zero for configuration only files)
#NCOLUMNS    : 2     Number of data columns in the spectrum (This can be zero for configuration only files)
#XUNITS      : eV
#YUNITS      : COUNTS
#DATATYPE    : YY
#XPERCHAN    : 7.862, 7.881   eV per channel (separate by commas if more than one detector)
#OFFSET      : 18.5, -22.4         eV of first channel  (separate by commas if more than one detector
#SIGNALTYPE  : XRF
#YP_TEMP     : 2.428
#LIVETIME    : 8.55195, 8.5394   seconds (separate by commas if more than one detector)
#REALTIME    : 10, 10.0   seconds (separate by commas if more than one detector)
#SPECTRUM    : start of spectrum data
0, 0
0, 0
0, 0
0, 0
0, 0
0, 0
0, 0
0, 0
0, 0
1, 2
0, 1
32, 58
42, 51
3, 5
4, 3
100, 123
438, 504
105, 107
4, 7
1, 0
10, 7
28, 36
12, 13
17, 12
42, 51
42, 38
19, 16
9, 13
2, 7
1, 5
2, 2
2, 3
6, 6
98, 122
140, 192
19, 58
16, 43
12, 26
8, 7
5, 2
3, 12
8, 18
15, 20
18, 12
15, 3
7, 10
6, 6
5, 7
9, 12
19, 27
10, 18
8, 4
15, 7
45, 45
62, 68
20, 22
35, 32
423, 552
1909, 2342
1382, 1394
170, 138
20, 13
12, 24
93, 102
275, 380
188, 190
28, 25
11, 4
9, 10
11, 6
3, 12
3, 13
2, 1
4, 3
5, 3
13, 10
6, 3
5, 5
4, 5
8, 10
5, 6
7, 1
4, 6
1, 4
2, 2
4, 4
2, 1
6, 3
3, 2
3, 2
13, 3
21, 4
20, 7
4, 3
4, 9
3, 2
2, 6
0, 6
0, 5
1, 4
1, 7
2, 2
1, 2
4, 3
4, 0
4, 5
3, 3
2, 2
1, 1
2, 3
0, 1
0, 3
6, 1
3, 0
0, 3
2, 2
4, 4
4, 5
2, 1
2, 0
0, 3
2, 3
0, 2
2, 2
1, 4
0, 1
2, 1
0, 1
2, 2
0, 1
0, 0
0, 3
2, 1
1, 3
1, 0
1, 0
2, 2
2, 1
0, 1
2, 1
2, 1
0, 2
1, 1
1, 0
0, 1
0, 2
0, 1
0, 1
4, 0
0, 0
1, 0
0, 0
0, 0
1, 1
1, 0
1, 0
0, 2
0, 0
1, 0
0, 0
0, 0
1, 1
0, 0
0, 0
0, 0
0, 1
0, 0
0, 0
0, 1
0, 1
1, 0
0, 0
2, 0
0, 0
0, 0
0, 1
0, 0
0, 0
0, 0
0, 0
0, 1
0, 0
0, 1
0, 1
0, 1
0, 0
0, 0
0, 0
0, 0
0, 0
0, 0
0, 0
0, 1
0, 0
0, 0
0, 0
0, 0
0, 0
0, 0
0, 0
0, 0
0, 0
0, 0
0, 0
0, 0
0, 0
0, 0
0, 0
0, 0
0, 0
0, 0
0, 0
0, 0
0, 0
0, 0
0, 0
0, 0
0, 0
0, 0
0, 0
0, 0
0, 0
0, 0
0, 0
0, 0
0, 0
0, 0
0, 0
0, 0
0, 0
0, 0
0, 0
0, 0
0, 0
0, 0
0, 0
0, 0
0, 0
0, 0
0, 0
0, 0
0, 0
0, 0
0, 0
0, 0
0, 0
0, 0
0, 0
0, 0
0, 0
0, 0
0, 0
0, 0
0, 0
0, 0
0, 0
0, 0
0, 0
0, 0
0, 0
0, 0
0, 0
0, 0
0, 0
0, 0
0, 0
0, 0
0, 0
0, 0
0, 0
0, 0
0, 0
0, 0
0, 0
0, 0
0, 0
0, 0
0, 0
0, 0
0, 0
0, 0
0, 0
0, 0
0, 0
0, 0
0, 0
0, 0
0, 0
0, 0
0, 0
0, 0
0, 0
0, 0
0, 0
#ENDOFDATA     end of spectrum data