File: host_upload/06-09-2024/ps_0852/dump3/ps__0852shot_2041.msa
#FORMAT      : EMSA/MAS spectral data file
#VERSION     : TC202v2.0 PIXL
#TITLE       : N/A
#DATE        :       Date in the format DD-MMM-YYYY, for example 07-JUL-2010
#TIME        :             The time of day at which the spectrum was recorded, in 24-hour format
#OWNER       : PIXL Flight Model       (PIXL will use this to indicate which instrument took the data.)
#NPOINTS     : 4096     Number of data points in the spectrum (This can be zero for configuration only files)
#NCOLUMNS    : 2     Number of data columns in the spectrum (This can be zero for configuration only files)
#XUNITS      : eV
#YUNITS      : COUNTS
#DATATYPE    : YY
#XPERCHAN    : 7.862, 7.881   eV per channel (separate by commas if more than one detector)
#OFFSET      : 18.5, -22.4         eV of first channel  (separate by commas if more than one detector
#SIGNALTYPE  : XRF
#YP_TEMP     : 2.46
#LIVETIME    : 8.56967, 8.54693   seconds (separate by commas if more than one detector)
#REALTIME    : 10, 10.0   seconds (separate by commas if more than one detector)
#SPECTRUM    : start of spectrum data
0, 0
0, 0
0, 0
0, 0
0, 0
0, 0
0, 0
0, 0
0, 0
3, 1
4, 0
44, 39
56, 64
10, 13
7, 3
88, 111
434, 398
117, 86
4, 7
0, 2
3, 1
11, 5
4, 2
8, 14
35, 45
34, 36
25, 15
11, 11
10, 6
3, 3
3, 3
2, 8
6, 3
10, 16
24, 20
31, 4
20, 7
5, 6
3, 11
8, 7
10, 4
6, 13
31, 17
37, 18
15, 7
7, 7
9, 1
11, 8
14, 11
18, 17
20, 15
10, 16
11, 15
37, 43
58, 60
23, 16
46, 43
472, 587
2118, 2204
1706, 1375
221, 141
22, 13
27, 22
124, 118
330, 372
262, 186
37, 24
7, 7
12, 17
11, 6
5, 2
8, 5
8, 2
11, 5
7, 8
9, 5
9, 6
2, 12
3, 3
4, 6
2, 7
10, 5
10, 3
7, 1
4, 2
7, 4
6, 4
5, 4
3, 3
3, 4
3, 9
1, 5
3, 4
4, 5
4, 2
5, 3
4, 3
3, 0
3, 1
2, 1
1, 1
4, 1
2, 2
3, 2
4, 1
4, 2
2, 3
2, 1
4, 1
4, 2
0, 2
4, 3
0, 2
3, 3
4, 1
3, 3
5, 9
2, 3
4, 2
0, 4
1, 1
1, 2
3, 5
1, 2
0, 2
2, 1
3, 1
2, 2
2, 0
1, 0
1, 1
1, 0
2, 0
0, 3
0, 1
0, 0
0, 1
1, 2
1, 0
2, 1
0, 1
0, 1
0, 0
0, 1
0, 1
0, 0
2, 1
0, 0
1, 0
0, 1
0, 0
0, 1
0, 0
0, 1
1, 1
0, 2
0, 1
0, 0
0, 1
0, 0
0, 1
0, 2
1, 0
0, 0
0, 0
0, 0
0, 0
0, 0
0, 0
0, 0
1, 0
0, 0
1, 0
0, 1
0, 0
0, 0
0, 1
0, 0
0, 0
0, 0
0, 0
0, 0
0, 0
0, 0
0, 0
0, 0
0, 0
0, 1
0, 0
0, 0
0, 0
0, 0
0, 0
0, 0
0, 0
0, 0
0, 0
0, 0
0, 0
0, 0
0, 0
1, 0
0, 0
0, 1
0, 0
0, 0
0, 0
0, 0
0, 0
0, 0
0, 0
0, 0
0, 0
0, 0
0, 0
0, 0
0, 0
0, 0
0, 0
0, 0
0, 0
0, 0
0, 0
0, 0
0, 0
0, 0
0, 0
0, 0
0, 0
0, 0
0, 0
0, 0
0, 0
0, 0
0, 0
0, 0
0, 0
0, 0
0, 0
0, 0
0, 0
0, 0
0, 0
0, 0
0, 0
0, 0
0, 0
0, 0
0, 0
0, 0
0, 0
0, 0
0, 0
0, 0
0, 0
0, 0
0, 0
0, 0
0, 0
0, 0
0, 0
0, 0
0, 0
0, 0
0, 0
0, 0
0, 0
0, 0
0, 0
0, 0
0, 0
0, 0
0, 0
0, 0
0, 0
0, 0
0, 0
0, 0
0, 0
0, 0
0, 0
0, 0
0, 0
0, 0
0, 0
0, 0
0, 0
0, 0
0, 0
0, 0
0, 0
0, 0
0, 0
0, 0
#ENDOFDATA     end of spectrum data