File: host_upload/06-09-2024/ps_0852/dump3/ps__0852shot_2191.msa
#FORMAT      : EMSA/MAS spectral data file
#VERSION     : TC202v2.0 PIXL
#TITLE       : N/A
#DATE        :       Date in the format DD-MMM-YYYY, for example 07-JUL-2010
#TIME        :             The time of day at which the spectrum was recorded, in 24-hour format
#OWNER       : PIXL Flight Model       (PIXL will use this to indicate which instrument took the data.)
#NPOINTS     : 4096     Number of data points in the spectrum (This can be zero for configuration only files)
#NCOLUMNS    : 2     Number of data columns in the spectrum (This can be zero for configuration only files)
#XUNITS      : eV
#YUNITS      : COUNTS
#DATATYPE    : YY
#XPERCHAN    : 7.862, 7.881   eV per channel (separate by commas if more than one detector)
#OFFSET      : 18.5, -22.4         eV of first channel  (separate by commas if more than one detector
#SIGNALTYPE  : XRF
#YP_TEMP     : 2.588
#LIVETIME    : 8.53945, 8.52156   seconds (separate by commas if more than one detector)
#REALTIME    : 10, 10.0   seconds (separate by commas if more than one detector)
#SPECTRUM    : start of spectrum data
0, 0
0, 0
0, 0
0, 0
0, 0
0, 0
0, 0
0, 0
5, 0
13, 1
5, 5
43, 53
52, 67
5, 4
7, 0
73, 114
368, 441
86, 115
2, 2
3, 2
2, 1
3, 6
4, 5
43, 5
656, 27
1103, 33
144, 18
12, 10
4, 4
1, 4
0, 1
1, 2
2, 3
9, 13
17, 15
5, 4
7, 4
30, 4
53, 4
18, 4
5, 3
10, 15
15, 23
13, 101
3, 142
8, 29
4, 5
7, 4
8, 8
13, 16
35, 16
33, 12
16, 8
33, 49
55, 75
24, 57
27, 93
435, 654
1976, 2486
1383, 1540
199, 180
31, 18
95, 17
154, 125
298, 370
203, 208
31, 21
10, 10
12, 20
13, 10
10, 2
5, 9
5, 10
6, 4
25, 5
64, 5
48, 3
18, 3
1, 4
2, 3
1, 1
2, 4
4, 3
5, 7
3, 7
4, 5
1, 6
0, 9
2, 5
4, 1
5, 3
4, 6
5, 3
2, 1
3, 4
1, 6
2, 6
1, 1
5, 4
2, 7
9, 5
6, 3
5, 2
4, 5
3, 3
4, 2
2, 3
1, 1
1, 2
1, 1
1, 3
3, 3
3, 3
4, 0
1, 3
2, 4
6, 5
5, 2
1, 3
1, 3
1, 0
0, 1
1, 1
2, 0
1, 0
0, 1
1, 3
0, 1
0, 3
3, 0
1, 0
0, 1
0, 1
1, 1
1, 2
0, 0
1, 0
0, 0
1, 0
0, 0
0, 2
2, 1
0, 1
2, 1
0, 1
0, 0
1, 0
1, 0
0, 1
0, 2
1, 1
0, 0
1, 0
0, 0
0, 0
0, 0
0, 0
2, 0
0, 1
0, 0
2, 0
0, 0
0, 1
0, 0
0, 0
0, 0
0, 0
0, 0
0, 0
2, 0
0, 0
0, 0
1, 1
0, 0
0, 0
0, 0
0, 0
0, 0
0, 0
0, 0
0, 0
0, 0
0, 0
0, 0
0, 0
0, 0
0, 0
1, 0
0, 0
0, 0
0, 0
0, 0
0, 0
0, 1
0, 0
0, 0
0, 0
0, 0
0, 0
0, 0
0, 0
0, 0
0, 0
0, 0
0, 0
0, 0
0, 0
0, 0
0, 0
0, 0
0, 0
0, 0
0, 0
0, 0
0, 0
0, 0
0, 0
0, 0
0, 0
0, 0
0, 0
0, 0
0, 0
0, 0
0, 0
0, 0
0, 0
0, 0
0, 0
0, 0
0, 0
0, 0
0, 0
0, 0
0, 0
0, 0
0, 0
0, 0
0, 0
0, 0
0, 0
0, 0
0, 0
0, 0
0, 0
0, 0
0, 0
0, 0
0, 0
0, 0
0, 0
0, 0
0, 0
0, 0
0, 0
0, 0
0, 0
0, 0
0, 0
0, 0
0, 0
0, 0
0, 0
0, 0
0, 0
0, 0
0, 0
0, 0
0, 0
0, 0
0, 0
0, 0
0, 0
0, 0
0, 0
0, 0
0, 0
0, 0
0, 0
0, 0
0, 0
0, 0
0, 0
0, 0
0, 0
0, 0
0, 0
0, 0
0, 0
0, 0
0, 0
0, 0
0, 0
0, 0
#ENDOFDATA     end of spectrum data