File: host_upload/06-09-2024/ps_0852/dump3/ps__0852shot_2006.msa
#FORMAT      : EMSA/MAS spectral data file
#VERSION     : TC202v2.0 PIXL
#TITLE       : N/A
#DATE        :       Date in the format DD-MMM-YYYY, for example 07-JUL-2010
#TIME        :             The time of day at which the spectrum was recorded, in 24-hour format
#OWNER       : PIXL Flight Model       (PIXL will use this to indicate which instrument took the data.)
#NPOINTS     : 4096     Number of data points in the spectrum (This can be zero for configuration only files)
#NCOLUMNS    : 2     Number of data columns in the spectrum (This can be zero for configuration only files)
#XUNITS      : eV
#YUNITS      : COUNTS
#DATATYPE    : YY
#XPERCHAN    : 7.862, 7.881   eV per channel (separate by commas if more than one detector)
#OFFSET      : 18.5, -22.4         eV of first channel  (separate by commas if more than one detector
#SIGNALTYPE  : XRF
#YP_TEMP     : 2.332
#LIVETIME    : 8.54545, 8.53255   seconds (separate by commas if more than one detector)
#REALTIME    : 10, 10.0   seconds (separate by commas if more than one detector)
#SPECTRUM    : start of spectrum data
0, 0
0, 0
0, 0
0, 0
0, 0
0, 0
0, 0
0, 1
0, 1
4, 2
4, 1
39, 47
67, 46
10, 6
2, 5
78, 89
388, 437
109, 103
14, 11
7, 3
3, 1
11, 8
7, 8
18, 12
108, 59
169, 68
46, 44
17, 20
3, 6
3, 4
2, 2
1, 5
5, 3
17, 26
15, 30
15, 8
7, 4
11, 9
13, 2
8, 4
9, 9
9, 15
22, 26
11, 16
10, 6
12, 13
13, 7
5, 11
13, 17
18, 21
16, 29
14, 23
13, 15
34, 34
67, 81
12, 31
34, 54
450, 612
2064, 2305
1539, 1508
218, 170
40, 22
22, 28
94, 128
331, 379
234, 179
35, 27
8, 14
18, 13
11, 13
2, 3
6, 3
7, 6
8, 5
9, 5
2, 3
2, 7
7, 5
3, 4
5, 2
2, 3
7, 5
3, 4
5, 2
5, 5
5, 5
2, 4
5, 3
3, 8
10, 6
2, 3
3, 0
11, 5
4, 1
7, 4
4, 2
2, 6
3, 5
1, 6
2, 10
3, 2
3, 2
3, 2
4, 1
0, 3
1, 2
3, 2
3, 1
1, 4
2, 1
3, 1
0, 3
1, 3
2, 3
1, 2
3, 2
2, 4
3, 3
1, 1
1, 4
2, 1
2, 4
1, 0
1, 6
3, 2
1, 0
0, 0
0, 1
0, 1
3, 1
0, 1
0, 0
1, 3
0, 0
1, 1
1, 0
2, 0
1, 2
0, 1
0, 2
0, 2
0, 0
0, 1
0, 2
0, 1
1, 2
1, 0
0, 1
0, 0
0, 0
1, 1
0, 0
1, 1
1, 0
0, 1
1, 1
0, 0
1, 1
0, 1
0, 0
1, 0
0, 0
1, 0
0, 0
0, 0
0, 0
2, 0
0, 1
1, 1
0, 0
1, 1
0, 1
0, 0
1, 1
0, 0
0, 0
0, 1
0, 0
0, 0
0, 0
1, 1
0, 0
0, 1
1, 0
1, 0
0, 0
0, 0
0, 0
1, 0
0, 0
1, 0
0, 0
0, 0
0, 0
0, 0
0, 0
1, 0
0, 0
0, 0
0, 0
0, 0
0, 0
0, 0
0, 0
0, 0
0, 0
0, 0
0, 0
0, 0
0, 0
0, 0
0, 0
0, 0
0, 0
0, 1
0, 0
0, 0
0, 0
0, 0
0, 0
0, 0
0, 0
0, 0
0, 0
0, 0
0, 0
0, 0
0, 0
0, 0
0, 0
0, 0
0, 0
0, 0
0, 0
0, 0
0, 0
0, 0
0, 0
0, 0
0, 0
0, 0
0, 0
0, 0
0, 0
0, 0
0, 0
0, 0
0, 0
0, 0
0, 0
0, 0
0, 0
0, 0
0, 0
0, 0
0, 0
0, 0
0, 0
0, 0
0, 0
0, 0
0, 0
0, 0
0, 0
0, 0
0, 0
0, 0
0, 0
0, 0
0, 0
0, 0
0, 0
0, 0
0, 0
0, 0
0, 0
0, 0
0, 0
0, 0
0, 0
0, 0
0, 0
0, 0
0, 0
0, 0
0, 0
0, 0
0, 0
0, 0
0, 0
0, 0
0, 0
0, 0
0, 0
#ENDOFDATA     end of spectrum data