File: host_upload/06-09-2024/ps_0852/dump3/ps__0852shot_2147.msa
#FORMAT      : EMSA/MAS spectral data file
#VERSION     : TC202v2.0 PIXL
#TITLE       : N/A
#DATE        :       Date in the format DD-MMM-YYYY, for example 07-JUL-2010
#TIME        :             The time of day at which the spectrum was recorded, in 24-hour format
#OWNER       : PIXL Flight Model       (PIXL will use this to indicate which instrument took the data.)
#NPOINTS     : 4096     Number of data points in the spectrum (This can be zero for configuration only files)
#NCOLUMNS    : 2     Number of data columns in the spectrum (This can be zero for configuration only files)
#XUNITS      : eV
#YUNITS      : COUNTS
#DATATYPE    : YY
#XPERCHAN    : 7.862, 7.881   eV per channel (separate by commas if more than one detector)
#OFFSET      : 18.5, -22.4         eV of first channel  (separate by commas if more than one detector
#SIGNALTYPE  : XRF
#YP_TEMP     : 2.203
#LIVETIME    : 8.56516, 8.59158   seconds (separate by commas if more than one detector)
#REALTIME    : 10, 10.0   seconds (separate by commas if more than one detector)
#SPECTRUM    : start of spectrum data
0, 0
0, 0
0, 0
0, 0
0, 0
0, 0
0, 0
0, 0
0, 1
2, 1
2, 2
56, 39
61, 48
7, 3
8, 6
100, 95
474, 391
132, 77
7, 4
4, 3
2, 0
5, 2
3, 0
4, 3
40, 21
50, 26
20, 20
8, 14
3, 5
3, 1
3, 1
0, 4
8, 1
13, 8
20, 11
7, 2
4, 4
5, 2
5, 7
4, 1
5, 0
19, 5
14, 13
20, 7
6, 1
2, 7
7, 10
4, 11
6, 8
11, 14
23, 7
17, 18
13, 21
53, 40
79, 38
31, 20
25, 40
495, 537
2346, 2125
1717, 1318
202, 133
22, 20
27, 26
108, 109
368, 315
233, 182
42, 26
15, 9
16, 8
10, 7
10, 5
8, 5
9, 5
3, 8
6, 7
4, 8
2, 1
4, 5
3, 5
5, 6
7, 5
5, 4
3, 7
6, 32
5, 26
4, 11
1, 4
3, 3
4, 12
2, 10
1, 4
2, 2
3, 2
5, 1
2, 5
6, 6
4, 1
0, 3
0, 2
2, 2
3, 2
5, 1
1, 7
4, 3
3, 2
1, 1
5, 1
2, 2
4, 3
3, 0
0, 1
4, 0
1, 1
3, 0
2, 2
4, 0
2, 3
2, 3
3, 1
1, 1
1, 0
1, 2
2, 1
1, 1
4, 0
2, 1
1, 2
0, 0
1, 0
2, 1
1, 1
2, 0
4, 1
1, 0
0, 1
1, 1
1, 2
0, 1
0, 1
0, 0
0, 1
2, 1
1, 1
1, 1
1, 1
0, 0
1, 0
1, 1
0, 0
0, 0
0, 0
1, 0
0, 0
0, 0
0, 0
0, 0
1, 0
0, 0
0, 0
0, 0
0, 0
0, 0
0, 0
0, 0
0, 0
0, 1
0, 0
0, 0
0, 0
0, 0
0, 0
0, 0
0, 0
1, 2
0, 0
0, 0
0, 0
0, 1
0, 0
0, 0
0, 0
0, 0
0, 0
0, 0
1, 1
0, 0
0, 0
0, 0
0, 0
0, 0
0, 0
0, 0
0, 0
1, 0
0, 0
0, 0
0, 0
0, 0
0, 0
0, 1
0, 0
0, 0
0, 0
0, 0
0, 0
0, 0
0, 1
0, 0
0, 0
0, 0
0, 0
0, 0
0, 0
0, 0
0, 0
0, 0
0, 0
0, 0
0, 0
0, 0
0, 0
0, 0
0, 0
0, 0
0, 0
0, 0
0, 0
0, 0
0, 0
0, 0
0, 0
0, 0
0, 0
0, 0
0, 0
0, 0
0, 0
0, 0
0, 0
0, 0
0, 0
0, 0
0, 0
0, 0
0, 0
0, 0
0, 0
0, 0
0, 0
0, 0
0, 0
0, 0
0, 0
0, 0
0, 0
0, 0
0, 0
0, 0
0, 0
0, 0
0, 0
0, 0
0, 0
0, 0
0, 0
0, 0
0, 0
0, 0
0, 0
0, 0
0, 0
0, 0
0, 0
0, 0
0, 0
0, 0
0, 0
0, 0
0, 0
0, 0
0, 0
0, 0
0, 0
0, 0
0, 0
0, 0
0, 0
0, 0
0, 0
0, 0
0, 0
0, 0
0, 0
0, 0
#ENDOFDATA     end of spectrum data