File: host_upload/06-09-2024/ps_0852/dump3/ps__0852shot_2470.msa
#FORMAT      : EMSA/MAS spectral data file
#VERSION     : TC202v2.0 PIXL
#TITLE       : N/A
#DATE        :       Date in the format DD-MMM-YYYY, for example 07-JUL-2010
#TIME        :             The time of day at which the spectrum was recorded, in 24-hour format
#OWNER       : PIXL Flight Model       (PIXL will use this to indicate which instrument took the data.)
#NPOINTS     : 4096     Number of data points in the spectrum (This can be zero for configuration only files)
#NCOLUMNS    : 2     Number of data columns in the spectrum (This can be zero for configuration only files)
#XUNITS      : eV
#YUNITS      : COUNTS
#DATATYPE    : YY
#XPERCHAN    : 7.862, 7.881   eV per channel (separate by commas if more than one detector)
#OFFSET      : 18.5, -22.4         eV of first channel  (separate by commas if more than one detector
#SIGNALTYPE  : XRF
#YP_TEMP     : 2.396
#LIVETIME    : 8.54712, 8.57058   seconds (separate by commas if more than one detector)
#REALTIME    : 10, 10.0   seconds (separate by commas if more than one detector)
#SPECTRUM    : start of spectrum data
0, 0
0, 0
0, 0
0, 0
0, 0
0, 0
0, 0
0, 1
1, 0
1, 0
1, 3
37, 47
74, 52
3, 10
2, 4
73, 88
419, 418
110, 110
3, 5
1, 2
2, 3
13, 12
4, 8
9, 6
36, 50
43, 41
22, 23
19, 10
3, 5
2, 0
1, 2
3, 0
3, 2
7, 7
15, 15
4, 10
4, 6
4, 7
4, 10
2, 2
5, 7
12, 8
18, 13
18, 18
7, 21
5, 52
3, 28
11, 8
12, 10
28, 23
20, 14
10, 7
12, 12
38, 44
60, 50
20, 25
29, 44
518, 568
2251, 2369
1732, 1434
254, 174
27, 20
19, 14
115, 100
359, 365
242, 196
30, 32
7, 21
14, 32
12, 13
8, 4
2, 1
4, 5
4, 6
5, 6
6, 10
4, 7
5, 4
9, 8
6, 5
7, 4
7, 7
0, 5
3, 8
3, 2
1, 6
4, 2
1, 5
1, 5
5, 1
6, 11
3, 6
1, 4
2, 2
3, 3
0, 1
4, 2
1, 1
7, 2
9, 2
5, 1
1, 5
5, 0
1, 2
0, 0
3, 5
2, 1
0, 3
2, 2
2, 3
1, 4
1, 2
2, 0
2, 1
0, 2
4, 6
4, 4
6, 4
3, 3
1, 3
3, 2
3, 4
2, 1
2, 0
0, 0
1, 1
1, 1
0, 1
0, 3
0, 1
1, 1
0, 1
0, 0
1, 1
0, 0
2, 0
1, 1
0, 1
1, 0
2, 2
2, 0
0, 1
0, 1
0, 0
1, 1
0, 0
0, 1
0, 0
0, 2
2, 0
0, 0
0, 0
1, 0
0, 0
0, 2
0, 0
0, 0
1, 1
0, 1
0, 0
1, 1
1, 0
0, 0
1, 0
0, 1
0, 0
2, 0
1, 0
0, 0
1, 0
0, 0
0, 1
0, 1
0, 0
1, 1
2, 0
1, 1
0, 0
0, 0
0, 0
0, 1
0, 0
0, 0
0, 0
1, 0
0, 0
0, 0
0, 0
0, 0
0, 0
0, 0
0, 0
0, 0
0, 0
0, 0
0, 0
0, 0
0, 1
1, 0
0, 0
0, 0
0, 0
0, 0
0, 0
0, 0
0, 0
0, 0
0, 0
0, 0
0, 0
0, 0
0, 0
0, 0
0, 0
0, 0
0, 0
0, 0
0, 0
0, 0
0, 0
0, 0
0, 0
0, 0
0, 0
0, 0
0, 0
0, 0
0, 0
0, 0
0, 0
0, 0
0, 0
0, 0
0, 0
0, 0
0, 0
0, 0
0, 0
0, 0
0, 0
0, 0
0, 0
0, 0
0, 0
0, 0
0, 0
0, 0
0, 0
0, 0
0, 0
0, 0
0, 0
0, 0
0, 0
0, 0
0, 0
0, 0
0, 0
0, 0
0, 0
0, 0
0, 0
0, 0
0, 0
0, 0
0, 0
0, 0
0, 0
0, 0
0, 0
0, 0
0, 0
0, 0
0, 0
0, 0
0, 0
0, 0
0, 0
0, 0
0, 0
0, 0
0, 0
0, 0
0, 0
0, 0
0, 0
0, 0
0, 0
0, 0
0, 0
0, 0
0, 0
0, 0
0, 0
#ENDOFDATA     end of spectrum data