File: host_upload/06-09-2024/ps_0852/dump3/ps__0852shot_2529.msa
#FORMAT      : EMSA/MAS spectral data file
#VERSION     : TC202v2.0 PIXL
#TITLE       : N/A
#DATE        :       Date in the format DD-MMM-YYYY, for example 07-JUL-2010
#TIME        :             The time of day at which the spectrum was recorded, in 24-hour format
#OWNER       : PIXL Flight Model       (PIXL will use this to indicate which instrument took the data.)
#NPOINTS     : 4096     Number of data points in the spectrum (This can be zero for configuration only files)
#NCOLUMNS    : 2     Number of data columns in the spectrum (This can be zero for configuration only files)
#XUNITS      : eV
#YUNITS      : COUNTS
#DATATYPE    : YY
#XPERCHAN    : 7.862, 7.881   eV per channel (separate by commas if more than one detector)
#OFFSET      : 18.5, -22.4         eV of first channel  (separate by commas if more than one detector
#SIGNALTYPE  : XRF
#YP_TEMP     : 2.139
#LIVETIME    : 8.54583, 8.56071   seconds (separate by commas if more than one detector)
#REALTIME    : 10, 10.0   seconds (separate by commas if more than one detector)
#SPECTRUM    : start of spectrum data
0, 0
0, 0
0, 0
0, 0
0, 0
0, 0
0, 0
0, 0
1, 1
2, 3
3, 2
42, 47
57, 40
8, 9
11, 8
70, 93
449, 431
109, 96
4, 4
3, 1
7, 6
31, 26
12, 9
10, 14
59, 55
54, 45
22, 22
11, 11
5, 7
2, 2
4, 7
1, 3
4, 5
21, 21
35, 19
13, 7
11, 4
7, 4
6, 4
1, 1
3, 10
15, 11
14, 18
9, 7
8, 15
10, 11
9, 10
5, 7
9, 5
10, 11
13, 10
19, 7
22, 17
54, 51
54, 50
23, 19
34, 44
429, 624
2045, 2309
1493, 1328
166, 124
15, 30
18, 31
103, 131
323, 365
201, 194
25, 20
7, 26
15, 55
10, 31
3, 2
2, 4
7, 2
8, 1
19, 8
13, 7
8, 5
5, 3
8, 12
5, 10
6, 5
6, 4
5, 3
6, 2
6, 4
6, 4
4, 0
5, 2
8, 3
6, 6
2, 5
2, 8
10, 3
7, 1
8, 2
4, 5
4, 3
2, 4
1, 3
2, 4
1, 2
1, 0
2, 3
3, 2
1, 3
2, 2
0, 1
3, 2
2, 0
3, 2
3, 3
2, 2
1, 0
2, 2
0, 1
1, 2
8, 5
3, 2
4, 2
2, 1
2, 2
1, 3
1, 2
0, 0
3, 3
1, 0
1, 2
3, 2
1, 1
0, 2
0, 1
1, 1
2, 1
0, 1
1, 0
0, 0
0, 0
0, 0
1, 0
0, 1
1, 0
0, 0
1, 0
0, 0
0, 1
0, 2
1, 2
0, 0
0, 0
1, 0
0, 0
0, 0
0, 0
1, 1
0, 0
0, 0
0, 1
0, 0
0, 0
0, 0
0, 0
0, 0
0, 0
0, 1
0, 0
2, 0
1, 0
0, 0
0, 0
0, 0
0, 1
0, 0
1, 0
0, 0
0, 0
0, 0
0, 0
0, 0
0, 0
0, 0
0, 0
0, 0
0, 0
0, 0
0, 1
1, 0
0, 0
0, 0
0, 0
0, 0
0, 0
0, 0
0, 0
0, 0
1, 0
0, 0
0, 0
0, 0
0, 0
0, 0
0, 0
0, 0
0, 0
0, 0
0, 0
0, 0
0, 0
0, 0
0, 0
0, 0
0, 0
0, 0
0, 0
0, 0
0, 0
0, 0
0, 0
0, 0
0, 0
0, 0
0, 0
0, 0
0, 0
0, 0
0, 0
0, 0
0, 0
0, 0
0, 0
0, 0
0, 0
0, 0
0, 0
0, 0
0, 0
0, 0
0, 0
0, 0
0, 0
0, 0
0, 0
0, 0
0, 0
0, 0
0, 0
0, 0
0, 0
0, 0
0, 0
0, 0
0, 0
0, 0
0, 0
0, 0
0, 0
0, 0
0, 0
0, 0
0, 0
0, 0
0, 0
0, 0
0, 0
0, 0
0, 0
0, 0
0, 0
0, 0
0, 0
0, 0
0, 0
0, 0
0, 0
0, 0
0, 0
0, 0
0, 0
0, 0
0, 0
0, 0
0, 0
0, 0
0, 0
0, 0
0, 0
0, 0
0, 0
0, 0
0, 0
0, 0
0, 0
0, 0
0, 0
0, 0
#ENDOFDATA     end of spectrum data