File: host_upload/06-09-2024/ps_0852/dump3/ps__0852shot_2149.msa
#FORMAT      : EMSA/MAS spectral data file
#VERSION     : TC202v2.0 PIXL
#TITLE       : N/A
#DATE        :       Date in the format DD-MMM-YYYY, for example 07-JUL-2010
#TIME        :             The time of day at which the spectrum was recorded, in 24-hour format
#OWNER       : PIXL Flight Model       (PIXL will use this to indicate which instrument took the data.)
#NPOINTS     : 4096     Number of data points in the spectrum (This can be zero for configuration only files)
#NCOLUMNS    : 2     Number of data columns in the spectrum (This can be zero for configuration only files)
#XUNITS      : eV
#YUNITS      : COUNTS
#DATATYPE    : YY
#XPERCHAN    : 7.862, 7.881   eV per channel (separate by commas if more than one detector)
#OFFSET      : 18.5, -22.4         eV of first channel  (separate by commas if more than one detector
#SIGNALTYPE  : XRF
#YP_TEMP     : 2.652
#LIVETIME    : 8.58518, 8.55314   seconds (separate by commas if more than one detector)
#REALTIME    : 10, 10.0   seconds (separate by commas if more than one detector)
#SPECTRUM    : start of spectrum data
0, 0
0, 0
0, 0
0, 0
0, 0
0, 0
0, 0
0, 2
1, 0
0, 1
3, 2
44, 33
57, 74
6, 6
4, 3
88, 95
429, 392
130, 86
6, 8
3, 0
1, 3
5, 9
4, 3
5, 6
22, 34
53, 41
22, 15
21, 17
6, 2
1, 5
2, 4
1, 3
5, 5
28, 22
55, 44
13, 6
8, 14
7, 11
5, 6
1, 5
5, 7
13, 5
13, 29
14, 25
5, 29
8, 11
6, 5
9, 6
13, 3
26, 16
22, 16
17, 12
8, 17
30, 48
79, 67
30, 15
44, 35
468, 587
2044, 2203
1581, 1348
192, 152
14, 15
26, 22
93, 116
338, 361
217, 214
37, 29
9, 7
12, 15
13, 9
1, 8
7, 5
6, 4
9, 9
7, 5
5, 3
4, 4
2, 4
5, 4
2, 2
5, 6
2, 2
1, 8
5, 10
3, 13
2, 7
7, 4
5, 2
2, 6
6, 6
1, 5
5, 1
9, 3
1, 3
0, 1
5, 2
3, 3
2, 3
0, 3
2, 1
1, 5
5, 2
4, 2
3, 2
2, 3
5, 3
1, 2
2, 2
1, 2
3, 3
2, 0
3, 2
6, 2
2, 1
3, 3
3, 3
1, 2
2, 2
5, 4
1, 3
2, 1
1, 1
2, 1
1, 0
2, 0
2, 0
0, 0
1, 0
3, 1
1, 0
1, 0
1, 1
1, 0
1, 1
0, 0
1, 1
0, 0
0, 2
0, 0
1, 1
1, 1
0, 0
0, 2
0, 0
1, 1
2, 0
1, 0
1, 1
0, 0
0, 0
2, 0
0, 1
0, 0
0, 1
0, 0
0, 0
0, 0
0, 0
0, 0
0, 0
0, 0
0, 1
1, 0
0, 0
1, 1
0, 1
0, 0
0, 0
0, 1
0, 0
0, 0
0, 0
0, 0
0, 0
0, 0
0, 0
0, 0
0, 0
0, 0
0, 0
1, 0
0, 0
0, 1
0, 0
0, 0
0, 0
0, 1
0, 0
0, 0
0, 0
0, 0
0, 0
0, 0
0, 0
0, 0
0, 0
0, 0
0, 0
0, 0
0, 0
0, 0
1, 0
0, 0
0, 0
0, 0
0, 0
0, 0
0, 0
0, 0
0, 0
0, 0
0, 0
0, 0
0, 0
0, 0
0, 0
0, 0
0, 0
0, 0
0, 0
0, 0
0, 0
0, 0
0, 1
0, 0
0, 0
0, 0
0, 0
0, 0
0, 0
0, 0
0, 0
0, 0
0, 0
0, 0
0, 0
0, 0
0, 0
0, 0
0, 0
0, 0
0, 0
0, 0
0, 0
0, 0
0, 0
0, 0
0, 0
0, 0
0, 0
0, 0
0, 0
0, 0
0, 0
0, 0
0, 0
0, 0
0, 0
0, 0
0, 0
0, 0
0, 0
0, 0
0, 0
0, 0
0, 0
0, 0
0, 0
0, 0
0, 0
0, 0
0, 0
0, 0
0, 0
0, 0
0, 0
0, 0
0, 0
0, 0
0, 0
0, 0
0, 0
0, 0
0, 0
0, 0
0, 0
0, 0
0, 0
0, 0
0, 0
0, 0
0, 0
0, 0
0, 0
#ENDOFDATA     end of spectrum data