File: host_upload/06-09-2024/ps_0852/dump3/ps__0852shot_2033.msa
#FORMAT      : EMSA/MAS spectral data file
#VERSION     : TC202v2.0 PIXL
#TITLE       : N/A
#DATE        :       Date in the format DD-MMM-YYYY, for example 07-JUL-2010
#TIME        :             The time of day at which the spectrum was recorded, in 24-hour format
#OWNER       : PIXL Flight Model       (PIXL will use this to indicate which instrument took the data.)
#NPOINTS     : 4096     Number of data points in the spectrum (This can be zero for configuration only files)
#NCOLUMNS    : 2     Number of data columns in the spectrum (This can be zero for configuration only files)
#XUNITS      : eV
#YUNITS      : COUNTS
#DATATYPE    : YY
#XPERCHAN    : 7.862, 7.881   eV per channel (separate by commas if more than one detector)
#OFFSET      : 18.5, -22.4         eV of first channel  (separate by commas if more than one detector
#SIGNALTYPE  : XRF
#YP_TEMP     : 2.524
#LIVETIME    : 8.59691, 8.56502   seconds (separate by commas if more than one detector)
#REALTIME    : 10, 10.0   seconds (separate by commas if more than one detector)
#SPECTRUM    : start of spectrum data
0, 0
0, 0
0, 0
0, 0
0, 0
0, 0
0, 0
0, 0
0, 2
2, 0
5, 3
56, 36
68, 62
1, 1
4, 6
102, 111
446, 378
107, 93
6, 7
2, 1
1, 1
3, 6
5, 5
12, 17
37, 35
51, 43
117, 17
142, 18
17, 3
1, 2
1, 3
4, 0
0, 3
11, 11
10, 12
2, 6
3, 2
5, 2
9, 5
7, 2
21, 6
16, 6
13, 15
5, 14
8, 5
3, 5
9, 6
5, 7
7, 6
18, 22
20, 6
18, 6
58, 14
99, 55
70, 43
29, 14
38, 32
458, 600
2119, 2300
1658, 1373
200, 142
15, 17
24, 24
92, 126
307, 356
229, 190
44, 23
7, 17
15, 17
6, 11
5, 4
5, 4
4, 2
7, 4
7, 6
9, 6
6, 1
7, 9
17, 8
14, 2
7, 3
3, 7
2, 5
3, 6
4, 3
2, 1
2, 2
3, 1
4, 5
1, 1
2, 4
5, 4
5, 5
1, 9
2, 10
6, 7
2, 2
6, 5
5, 4
5, 1
2, 5
3, 2
2, 3
1, 2
3, 2
5, 1
2, 1
1, 3
1, 4
1, 3
0, 1
3, 0
0, 4
2, 0
3, 3
2, 1
4, 6
7, 7
3, 3
3, 1
5, 1
3, 1
3, 3
3, 1
1, 0
2, 0
1, 2
1, 0
1, 2
2, 1
0, 0
3, 1
0, 1
2, 0
1, 1
2, 0
1, 1
3, 0
3, 0
0, 1
0, 1
1, 0
0, 0
1, 0
1, 0
2, 1
1, 1
0, 0
0, 0
1, 0
0, 1
1, 1
2, 1
0, 0
0, 0
0, 0
1, 0
0, 0
0, 0
0, 0
0, 0
1, 0
0, 1
0, 0
0, 0
0, 0
1, 0
0, 0
0, 0
2, 1
1, 0
0, 0
1, 0
1, 0
1, 0
0, 0
0, 0
0, 1
0, 0
0, 1
1, 0
1, 0
0, 0
0, 0
0, 1
2, 0
0, 0
0, 0
1, 0
0, 1
0, 0
0, 0
0, 0
0, 0
0, 0
0, 0
0, 0
0, 0
0, 0
0, 0
0, 0
0, 0
0, 0
0, 0
0, 0
0, 0
0, 0
0, 0
0, 0
0, 0
0, 0
0, 0
0, 0
0, 0
0, 0
0, 0
0, 0
0, 0
0, 0
0, 0
0, 0
0, 0
0, 0
0, 0
0, 0
0, 0
0, 0
0, 0
0, 0
0, 0
0, 0
0, 0
0, 0
0, 0
0, 0
0, 0
0, 0
0, 0
0, 0
0, 0
0, 0
0, 0
0, 0
0, 0
0, 0
0, 0
0, 0
0, 0
0, 0
0, 0
0, 0
0, 0
0, 0
0, 0
0, 0
0, 0
0, 0
0, 0
0, 0
0, 0
0, 0
0, 0
0, 0
0, 0
0, 0
0, 0
0, 0
0, 0
0, 0
0, 0
0, 0
0, 0
0, 0
0, 0
0, 0
0, 0
0, 0
0, 0
0, 0
0, 0
0, 0
0, 0
0, 0
0, 0
0, 0
0, 0
0, 0
0, 0
0, 0
0, 0
0, 0
0, 0
0, 0
0, 0
#ENDOFDATA     end of spectrum data