File: host_upload/06-09-2024/ps_0852/dump3/ps__0852shot_2382.msa
#FORMAT      : EMSA/MAS spectral data file
#VERSION     : TC202v2.0 PIXL
#TITLE       : N/A
#DATE        :       Date in the format DD-MMM-YYYY, for example 07-JUL-2010
#TIME        :             The time of day at which the spectrum was recorded, in 24-hour format
#OWNER       : PIXL Flight Model       (PIXL will use this to indicate which instrument took the data.)
#NPOINTS     : 4096     Number of data points in the spectrum (This can be zero for configuration only files)
#NCOLUMNS    : 2     Number of data columns in the spectrum (This can be zero for configuration only files)
#XUNITS      : eV
#YUNITS      : COUNTS
#DATATYPE    : YY
#XPERCHAN    : 7.862, 7.881   eV per channel (separate by commas if more than one detector)
#OFFSET      : 18.5, -22.4         eV of first channel  (separate by commas if more than one detector
#SIGNALTYPE  : XRF
#YP_TEMP     : 2.3
#LIVETIME    : 8.55989, 8.56315   seconds (separate by commas if more than one detector)
#REALTIME    : 10, 10.0   seconds (separate by commas if more than one detector)
#SPECTRUM    : start of spectrum data
0, 0
0, 0
0, 0
0, 0
0, 0
0, 0
0, 0
1, 0
3, 1
0, 2
1, 0
55, 49
85, 51
5, 3
5, 2
100, 76
482, 407
113, 86
2, 3
1, 3
3, 0
5, 5
4, 1
6, 6
53, 24
76, 25
37, 27
24, 17
2, 7
3, 3
1, 2
0, 4
7, 4
23, 13
15, 10
12, 7
5, 4
5, 5
2, 13
2, 3
4, 13
17, 14
17, 21
23, 10
5, 5
4, 4
8, 8
11, 4
27, 17
25, 6
22, 16
10, 29
9, 84
52, 76
66, 57
27, 25
34, 42
523, 580
2377, 2193
1742, 1381
249, 137
38, 16
25, 27
121, 108
373, 352
267, 207
44, 19
7, 22
15, 28
6, 9
3, 6
2, 4
14, 4
10, 9
6, 5
11, 3
7, 5
2, 3
3, 4
5, 5
7, 7
8, 4
5, 3
5, 4
11, 2
20, 4
6, 2
4, 11
3, 2
3, 6
3, 3
5, 6
4, 13
1, 8
3, 7
2, 2
6, 0
1, 2
6, 0
7, 2
3, 3
4, 4
3, 0
4, 4
5, 3
3, 2
1, 0
2, 4
1, 0
0, 1
4, 3
2, 1
5, 1
4, 1
2, 5
1, 1
3, 1
7, 3
3, 2
1, 2
2, 0
3, 0
0, 2
2, 3
2, 1
3, 1
2, 1
0, 0
0, 2
0, 0
0, 3
0, 1
1, 0
0, 2
1, 2
0, 0
1, 0
3, 1
0, 0
1, 1
1, 1
0, 1
1, 0
1, 0
1, 1
0, 0
0, 1
0, 0
0, 0
0, 0
0, 1
0, 0
0, 2
0, 1
1, 0
1, 1
0, 0
0, 0
0, 1
0, 0
1, 0
0, 0
1, 0
0, 0
1, 0
0, 0
0, 0
0, 1
0, 0
0, 0
0, 2
0, 0
0, 1
0, 1
0, 0
0, 0
0, 0
0, 0
0, 0
0, 0
0, 1
0, 0
0, 0
0, 0
1, 0
0, 0
0, 0
0, 0
0, 0
0, 0
0, 1
0, 0
1, 0
0, 0
1, 0
0, 0
0, 0
0, 0
0, 0
0, 0
0, 0
0, 0
0, 0
0, 0
0, 0
0, 0
0, 0
0, 0
0, 0
0, 0
0, 0
0, 0
0, 0
0, 0
0, 0
0, 0
0, 0
0, 0
0, 0
0, 0
0, 0
0, 0
0, 0
0, 0
0, 0
0, 0
0, 0
0, 0
0, 0
0, 0
0, 0
0, 0
0, 0
0, 0
0, 0
0, 0
0, 0
0, 0
0, 0
0, 0
0, 0
0, 0
0, 0
0, 0
0, 0
0, 0
0, 0
0, 0
0, 0
0, 0
0, 0
0, 0
0, 0
0, 0
0, 0
0, 0
0, 0
0, 0
0, 0
0, 0
0, 0
0, 0
0, 0
0, 0
0, 0
0, 0
0, 0
0, 0
0, 0
0, 0
0, 0
0, 0
0, 0
0, 0
0, 0
0, 0
0, 0
0, 0
0, 0
0, 0
0, 0
0, 0
0, 0
0, 0
0, 0
0, 0
0, 0
0, 0
0, 0
0, 0
0, 0
0, 0
0, 0
0, 0
#ENDOFDATA     end of spectrum data