File: host_upload/06-09-2024/ps_0852/dump3/ps__0852shot_2346.msa
#FORMAT      : EMSA/MAS spectral data file
#VERSION     : TC202v2.0 PIXL
#TITLE       : N/A
#DATE        :       Date in the format DD-MMM-YYYY, for example 07-JUL-2010
#TIME        :             The time of day at which the spectrum was recorded, in 24-hour format
#OWNER       : PIXL Flight Model       (PIXL will use this to indicate which instrument took the data.)
#NPOINTS     : 4096     Number of data points in the spectrum (This can be zero for configuration only files)
#NCOLUMNS    : 2     Number of data columns in the spectrum (This can be zero for configuration only files)
#XUNITS      : eV
#YUNITS      : COUNTS
#DATATYPE    : YY
#XPERCHAN    : 7.862, 7.881   eV per channel (separate by commas if more than one detector)
#OFFSET      : 18.5, -22.4         eV of first channel  (separate by commas if more than one detector
#SIGNALTYPE  : XRF
#YP_TEMP     : 2.203
#LIVETIME    : 8.55985, 8.56377   seconds (separate by commas if more than one detector)
#REALTIME    : 10, 10.0   seconds (separate by commas if more than one detector)
#SPECTRUM    : start of spectrum data
0, 0
0, 0
0, 0
0, 0
0, 0
0, 0
0, 0
0, 0
0, 0
0, 2
1, 1
58, 47
75, 67
6, 6
6, 3
94, 106
438, 440
115, 94
4, 9
1, 1
0, 1
7, 7
2, 3
7, 5
21, 27
18, 35
18, 17
16, 10
4, 5
1, 4
1, 1
3, 2
1, 6
5, 11
14, 19
1, 3
4, 6
3, 5
3, 2
6, 3
3, 7
11, 14
18, 12
9, 11
5, 1
6, 4
6, 4
4, 6
9, 9
56, 13
137, 9
60, 5
15, 3
53, 41
130, 56
32, 13
26, 44
459, 584
2201, 2487
1536, 1426
170, 147
16, 11
12, 11
99, 110
308, 367
213, 183
24, 23
10, 9
15, 17
9, 5
1, 7
5, 11
6, 12
8, 2
8, 5
3, 3
6, 2
3, 2
6, 8
2, 2
11, 3
24, 5
16, 8
7, 7
4, 2
5, 6
6, 3
7, 3
5, 5
2, 6
1, 3
1, 3
2, 2
1, 2
4, 2
2, 5
2, 3
3, 5
1, 2
7, 4
5, 6
7, 1
3, 3
0, 0
1, 2
3, 3
2, 3
2, 3
2, 4
2, 0
3, 3
1, 6
1, 4
0, 3
0, 3
1, 6
4, 2
7, 1
1, 1
0, 0
4, 0
0, 1
2, 3
4, 2
1, 1
0, 3
2, 2
2, 1
0, 2
2, 1
1, 0
0, 0
0, 1
1, 0
1, 0
0, 1
1, 1
0, 1
0, 1
3, 1
0, 1
4, 0
0, 1
0, 1
0, 0
1, 1
0, 0
0, 0
0, 0
0, 0
0, 0
0, 0
0, 0
0, 0
0, 1
2, 1
2, 1
0, 0
0, 0
0, 2
0, 0
0, 0
0, 0
0, 1
1, 0
1, 0
1, 0
0, 0
0, 0
0, 1
0, 0
0, 0
0, 0
1, 1
1, 0
1, 0
0, 0
0, 0
0, 0
0, 0
0, 0
0, 0
1, 1
0, 0
1, 0
0, 0
0, 1
0, 0
0, 0
0, 0
0, 0
0, 1
0, 0
0, 0
0, 0
0, 0
0, 0
0, 0
0, 0
0, 0
0, 0
0, 0
0, 0
0, 0
0, 0
0, 0
0, 0
0, 0
0, 0
0, 0
0, 0
0, 0
0, 0
0, 0
0, 0
0, 0
0, 0
0, 0
0, 0
0, 0
0, 0
0, 0
0, 0
0, 0
0, 0
0, 0
0, 0
0, 0
0, 0
0, 0
0, 0
0, 0
0, 0
0, 0
0, 0
0, 0
0, 0
0, 0
0, 0
0, 0
0, 0
0, 0
0, 0
0, 0
0, 0
0, 0
0, 0
0, 0
0, 0
0, 0
0, 0
0, 0
0, 0
0, 0
0, 0
0, 0
0, 0
0, 0
0, 0
0, 0
0, 0
0, 0
0, 0
0, 0
0, 0
0, 0
0, 0
0, 0
0, 0
0, 0
0, 0
0, 0
0, 0
0, 0
0, 0
0, 0
0, 0
0, 0
0, 0
0, 0
0, 0
0, 0
0, 0
0, 0
0, 0
0, 0
0, 0
0, 0
0, 0
0, 0
0, 0
0, 0
0, 0
0, 0
#ENDOFDATA     end of spectrum data