File: host_upload/06-09-2024/ps_0852/dump3/ps__0852shot_2220.msa
#FORMAT      : EMSA/MAS spectral data file
#VERSION     : TC202v2.0 PIXL
#TITLE       : N/A
#DATE        :       Date in the format DD-MMM-YYYY, for example 07-JUL-2010
#TIME        :             The time of day at which the spectrum was recorded, in 24-hour format
#OWNER       : PIXL Flight Model       (PIXL will use this to indicate which instrument took the data.)
#NPOINTS     : 4096     Number of data points in the spectrum (This can be zero for configuration only files)
#NCOLUMNS    : 2     Number of data columns in the spectrum (This can be zero for configuration only files)
#XUNITS      : eV
#YUNITS      : COUNTS
#DATATYPE    : YY
#XPERCHAN    : 7.862, 7.881   eV per channel (separate by commas if more than one detector)
#OFFSET      : 18.5, -22.4         eV of first channel  (separate by commas if more than one detector
#SIGNALTYPE  : XRF
#YP_TEMP     : 2.556
#LIVETIME    : 8.56199, 8.5688   seconds (separate by commas if more than one detector)
#REALTIME    : 10, 10.0   seconds (separate by commas if more than one detector)
#SPECTRUM    : start of spectrum data
0, 0
0, 0
0, 0
0, 0
0, 0
0, 0
0, 0
0, 2
2, 17
0, 45
6, 14
51, 34
75, 75
5, 6
5, 5
81, 62
447, 428
127, 98
9, 11
0, 3
2, 2
5, 4
6, 4
5, 91
16, 1856
26, 2679
15, 297
8, 12
4, 3
13, 3
10, 0
6, 4
3, 6
14, 12
12, 17
3, 7
2, 5
4, 2
2, 4
6, 6
3, 3
5, 12
11, 15
50, 11
146, 3
58, 6
10, 3
8, 7
4, 41
11, 115
15, 28
8, 8
8, 7
41, 48
74, 45
22, 28
34, 36
485, 600
2272, 2265
1604, 1342
195, 132
15, 23
14, 35
99, 127
351, 346
219, 188
27, 26
3, 4
11, 5
3, 6
3, 2
0, 11
17, 44
20, 72
19, 34
2, 12
6, 3
6, 5
2, 3
6, 2
2, 3
4, 3
1, 9
3, 4
7, 4
6, 3
2, 6
3, 6
2, 7
7, 3
4, 2
5, 1
1, 4
7, 2
9, 1
11, 2
11, 1
3, 6
2, 13
2, 3
4, 5
3, 2
2, 5
3, 3
3, 2
0, 1
0, 3
4, 5
1, 5
1, 3
2, 4
3, 4
1, 2
3, 2
3, 0
0, 2
3, 4
4, 3
5, 0
4, 3
2, 0
3, 0
2, 0
1, 1
0, 1
1, 0
1, 0
1, 1
1, 0
0, 1
5, 1
0, 1
3, 3
0, 2
0, 0
2, 1
0, 1
1, 0
0, 0
1, 0
1, 0
0, 1
2, 1
0, 0
0, 1
4, 2
0, 1
1, 0
1, 3
0, 0
0, 0
0, 0
0, 0
0, 2
1, 1
0, 0
0, 0
1, 0
0, 2
1, 0
0, 0
0, 0
1, 0
1, 0
0, 0
0, 0
0, 0
0, 0
1, 1
1, 0
0, 1
0, 0
1, 0
0, 0
0, 0
0, 0
1, 1
0, 0
0, 0
0, 0
0, 0
0, 0
0, 0
0, 0
1, 0
0, 0
0, 0
0, 0
1, 0
0, 0
1, 0
0, 0
0, 0
0, 0
0, 0
0, 0
0, 0
0, 0
0, 0
0, 0
0, 0
0, 1
0, 1
0, 0
1, 0
0, 0
0, 1
0, 0
0, 0
0, 0
0, 0
0, 0
0, 0
0, 0
0, 0
0, 0
0, 0
0, 0
0, 0
0, 0
0, 0
0, 0
0, 0
0, 0
0, 0
0, 0
0, 0
0, 0
0, 0
0, 0
0, 0
0, 0
0, 0
0, 0
0, 0
0, 0
0, 0
0, 0
0, 0
0, 0
0, 0
0, 0
0, 0
0, 0
0, 0
0, 0
0, 0
0, 0
0, 0
0, 0
0, 0
0, 0
0, 0
0, 0
0, 0
0, 0
0, 0
0, 0
0, 0
0, 0
0, 0
0, 0
0, 0
0, 0
0, 0
0, 0
0, 0
0, 0
0, 0
0, 0
0, 0
0, 0
0, 0
0, 0
0, 0
0, 0
0, 0
0, 0
0, 0
0, 0
0, 0
0, 0
0, 0
0, 0
0, 0
0, 0
0, 0
0, 0
0, 0
0, 0
0, 0
0, 0
0, 0
0, 0
#ENDOFDATA     end of spectrum data