File: host_upload/06-09-2024/ps_0852/dump3/ps__0852shot_2176.msa
#FORMAT      : EMSA/MAS spectral data file
#VERSION     : TC202v2.0 PIXL
#TITLE       : N/A
#DATE        :       Date in the format DD-MMM-YYYY, for example 07-JUL-2010
#TIME        :             The time of day at which the spectrum was recorded, in 24-hour format
#OWNER       : PIXL Flight Model       (PIXL will use this to indicate which instrument took the data.)
#NPOINTS     : 4096     Number of data points in the spectrum (This can be zero for configuration only files)
#NCOLUMNS    : 2     Number of data columns in the spectrum (This can be zero for configuration only files)
#XUNITS      : eV
#YUNITS      : COUNTS
#DATATYPE    : YY
#XPERCHAN    : 7.862, 7.881   eV per channel (separate by commas if more than one detector)
#OFFSET      : 18.5, -22.4         eV of first channel  (separate by commas if more than one detector
#SIGNALTYPE  : XRF
#YP_TEMP     : 2.235
#LIVETIME    : 8.55726, 8.57399   seconds (separate by commas if more than one detector)
#REALTIME    : 10, 10.0   seconds (separate by commas if more than one detector)
#SPECTRUM    : start of spectrum data
0, 0
0, 0
0, 0
0, 0
0, 0
0, 0
0, 0
0, 0
2, 0
1, 4
2, 1
30, 35
45, 57
7, 7
6, 3
89, 100
347, 396
83, 80
1, 2
2, 4
21, 31
117, 151
55, 63
13, 17
65, 43
55, 58
19, 24
13, 17
9, 6
5, 2
3, 5
1, 0
2, 2
11, 9
13, 22
14, 100
8, 102
8, 18
3, 8
6, 6
2, 7
5, 6
19, 14
8, 19
3, 8
8, 7
14, 7
5, 8
9, 7
11, 7
12, 9
9, 9
10, 9
38, 39
61, 54
95, 24
96, 41
437, 576
1811, 2263
1295, 1301
179, 157
20, 24
22, 20
93, 131
299, 338
184, 186
22, 32
9, 5
13, 12
6, 8
5, 12
3, 22
11, 9
7, 4
5, 7
7, 5
6, 2
2, 6
3, 2
4, 4
2, 3
4, 2
2, 3
3, 2
6, 7
1, 5
3, 6
8, 6
18, 1
9, 6
5, 2
4, 5
0, 12
4, 9
6, 11
5, 3
3, 8
2, 3
2, 1
3, 2
3, 3
2, 0
1, 3
3, 3
1, 1
2, 2
1, 1
3, 3
1, 1
0, 2
6, 2
6, 2
5, 5
0, 6
2, 9
1, 6
0, 4
3, 3
0, 1
2, 1
3, 3
0, 1
0, 2
3, 4
2, 1
1, 1
1, 1
0, 0
1, 1
2, 0
0, 1
0, 1
1, 3
0, 0
0, 1
0, 1
0, 0
0, 0
0, 2
0, 1
0, 0
0, 0
0, 0
0, 1
0, 0
0, 0
0, 1
0, 0
1, 2
1, 0
0, 0
1, 0
0, 1
0, 1
0, 0
0, 1
0, 0
0, 0
0, 0
0, 0
0, 0
0, 0
2, 0
0, 0
0, 0
0, 0
0, 0
1, 0
0, 0
0, 0
0, 0
1, 0
0, 1
0, 0
0, 0
0, 0
0, 1
1, 0
1, 0
1, 0
0, 0
0, 0
0, 0
0, 0
0, 0
0, 0
0, 0
0, 0
1, 0
0, 0
2, 0
0, 0
0, 0
0, 0
0, 0
0, 1
0, 0
0, 0
0, 0
0, 0
0, 0
0, 0
0, 0
0, 0
0, 0
0, 0
0, 0
0, 0
0, 0
0, 0
0, 0
0, 0
0, 0
0, 0
0, 0
0, 0
0, 0
0, 0
0, 0
0, 0
0, 0
0, 0
0, 0
0, 0
0, 0
0, 0
0, 0
0, 0
0, 0
0, 0
0, 0
0, 0
0, 0
0, 0
0, 0
0, 0
0, 0
0, 0
0, 0
0, 0
0, 0
0, 0
0, 0
0, 0
0, 0
0, 0
0, 0
0, 0
0, 0
0, 0
0, 0
0, 0
0, 0
0, 0
0, 0
0, 0
0, 0
0, 0
0, 0
0, 0
0, 0
0, 0
0, 0
0, 0
0, 0
0, 0
0, 0
0, 0
0, 0
0, 0
0, 0
0, 0
0, 0
0, 0
0, 0
0, 0
0, 0
0, 0
0, 0
0, 0
0, 0
0, 0
0, 0
0, 0
0, 0
0, 0
0, 0
0, 0
0, 0
0, 0
0, 0
0, 0
0, 0
0, 0
#ENDOFDATA     end of spectrum data