File: host_upload/06-09-2024/ps_0852/dump3/ps__0852shot_2074.msa
#FORMAT      : EMSA/MAS spectral data file
#VERSION     : TC202v2.0 PIXL
#TITLE       : N/A
#DATE        :       Date in the format DD-MMM-YYYY, for example 07-JUL-2010
#TIME        :             The time of day at which the spectrum was recorded, in 24-hour format
#OWNER       : PIXL Flight Model       (PIXL will use this to indicate which instrument took the data.)
#NPOINTS     : 4096     Number of data points in the spectrum (This can be zero for configuration only files)
#NCOLUMNS    : 2     Number of data columns in the spectrum (This can be zero for configuration only files)
#XUNITS      : eV
#YUNITS      : COUNTS
#DATATYPE    : YY
#XPERCHAN    : 7.862, 7.881   eV per channel (separate by commas if more than one detector)
#OFFSET      : 18.5, -22.4         eV of first channel  (separate by commas if more than one detector
#SIGNALTYPE  : XRF
#YP_TEMP     : 2.364
#LIVETIME    : 8.54146, 8.56773   seconds (separate by commas if more than one detector)
#REALTIME    : 10, 10.0   seconds (separate by commas if more than one detector)
#SPECTRUM    : start of spectrum data
0, 0
0, 0
0, 0
0, 0
0, 0
0, 0
0, 0
0, 0
1, 0
3, 5
4, 4
39, 36
74, 53
6, 4
2, 2
98, 89
440, 407
112, 81
6, 5
3, 1
4, 1
5, 9
10, 3
8, 6
41, 44
64, 49
47, 36
22, 9
6, 5
9, 5
4, 1
5, 1
12, 3
19, 14
26, 21
11, 12
8, 6
11, 10
6, 10
6, 10
5, 10
18, 8
27, 14
16, 17
17, 11
13, 8
9, 5
9, 11
19, 8
25, 22
26, 25
11, 13
25, 19
46, 54
75, 57
37, 30
43, 39
574, 516
2315, 2143
1675, 1259
221, 135
25, 20
45, 24
153, 112
385, 333
255, 165
28, 22
12, 8
16, 16
8, 9
1, 4
3, 5
4, 2
3, 4
8, 5
8, 4
10, 10
8, 4
5, 4
5, 3
9, 9
3, 7
11, 4
6, 6
4, 8
3, 2
3, 8
4, 5
2, 6
4, 6
0, 5
3, 5
7, 5
2, 6
5, 6
5, 1
4, 0
0, 1
0, 3
6, 2
1, 3
7, 2
0, 2
3, 3
6, 3
4, 4
5, 4
3, 0
2, 2
2, 1
0, 2
2, 3
2, 1
4, 0
5, 5
2, 3
5, 3
3, 1
1, 0
2, 0
0, 3
4, 6
0, 1
1, 1
0, 1
2, 0
0, 1
1, 0
0, 2
0, 1
3, 0
2, 0
0, 0
1, 0
0, 0
2, 0
1, 1
0, 0
1, 1
0, 1
0, 2
2, 1
1, 0
0, 0
1, 0
0, 1
1, 0
1, 0
0, 1
1, 0
1, 0
0, 0
1, 1
1, 0
0, 1
1, 0
1, 0
0, 2
1, 0
1, 0
1, 0
0, 0
0, 0
0, 1
1, 1
0, 0
1, 0
0, 0
0, 1
0, 0
0, 0
0, 0
2, 1
0, 0
0, 0
0, 0
1, 0
0, 0
0, 0
0, 0
0, 0
1, 0
0, 0
0, 0
0, 0
0, 0
0, 0
0, 0
0, 0
0, 0
0, 0
0, 0
0, 0
0, 0
0, 0
0, 0
0, 0
0, 0
0, 1
0, 0
0, 0
0, 0
0, 0
0, 0
0, 0
0, 0
0, 0
0, 0
0, 0
0, 0
0, 0
0, 0
0, 0
0, 0
0, 0
0, 0
0, 0
0, 0
0, 0
0, 0
0, 0
0, 0
0, 0
0, 0
0, 0
0, 0
0, 0
0, 0
0, 0
0, 0
0, 0
0, 0
0, 0
0, 0
0, 0
0, 0
0, 0
0, 0
0, 0
0, 0
0, 0
0, 0
0, 0
0, 0
0, 0
0, 0
0, 0
0, 0
0, 0
0, 0
0, 0
0, 0
0, 0
0, 0
0, 0
0, 0
0, 0
0, 0
0, 0
0, 0
0, 0
0, 0
0, 0
0, 0
0, 0
0, 0
0, 0
0, 0
0, 0
0, 0
0, 0
0, 0
0, 0
0, 0
0, 0
0, 0
0, 0
0, 0
0, 0
0, 0
0, 0
0, 0
0, 0
0, 0
0, 0
0, 0
0, 0
0, 0
0, 0
0, 0
0, 0
0, 0
0, 0
0, 0
#ENDOFDATA     end of spectrum data