File: host_upload/06-09-2024/ps_0852/dump3/ps__0852shot_2107.msa
#FORMAT      : EMSA/MAS spectral data file
#VERSION     : TC202v2.0 PIXL
#TITLE       : N/A
#DATE        :       Date in the format DD-MMM-YYYY, for example 07-JUL-2010
#TIME        :             The time of day at which the spectrum was recorded, in 24-hour format
#OWNER       : PIXL Flight Model       (PIXL will use this to indicate which instrument took the data.)
#NPOINTS     : 4096     Number of data points in the spectrum (This can be zero for configuration only files)
#NCOLUMNS    : 2     Number of data columns in the spectrum (This can be zero for configuration only files)
#XUNITS      : eV
#YUNITS      : COUNTS
#DATATYPE    : YY
#XPERCHAN    : 7.862, 7.881   eV per channel (separate by commas if more than one detector)
#OFFSET      : 18.5, -22.4         eV of first channel  (separate by commas if more than one detector
#SIGNALTYPE  : XRF
#YP_TEMP     : 2.3
#LIVETIME    : 8.53024, 8.521   seconds (separate by commas if more than one detector)
#REALTIME    : 10, 10.0   seconds (separate by commas if more than one detector)
#SPECTRUM    : start of spectrum data
0, 0
0, 0
0, 0
0, 0
0, 0
0, 0
0, 0
0, 1
0, 1
3, 5
1, 5
28, 52
45, 48
7, 1
5, 5
63, 76
273, 310
55, 81
7, 8
3, 2
62, 74
355, 490
149, 159
35, 48
83, 92
69, 81
47, 40
27, 11
4, 8
4, 8
6, 8
8, 6
8, 7
62, 89
79, 126
11, 16
19, 19
16, 21
4, 4
5, 6
3, 6
11, 16
17, 23
14, 17
7, 12
13, 18
8, 22
6, 11
10, 14
29, 32
35, 42
33, 31
11, 11
37, 62
60, 52
23, 23
25, 49
404, 606
1736, 2410
1255, 1386
179, 158
24, 17
14, 28
78, 134
298, 390
208, 223
30, 18
8, 6
19, 12
35, 14
21, 10
9, 4
3, 12
8, 11
7, 5
0, 5
6, 7
3, 3
6, 3
5, 5
4, 6
2, 7
5, 6
5, 8
2, 5
4, 6
2, 9
3, 5
4, 6
1, 10
4, 13
1, 9
4, 5
4, 3
4, 3
3, 2
2, 3
3, 3
0, 4
4, 2
6, 4
6, 4
3, 3
3, 0
5, 1
1, 3
0, 3
3, 0
7, 1
0, 4
2, 2
4, 3
1, 3
1, 5
7, 0
2, 5
2, 6
3, 2
1, 1
1, 1
4, 1
2, 1
0, 5
3, 2
3, 3
1, 0
1, 1
1, 0
1, 1
1, 2
1, 2
0, 1
1, 2
0, 0
1, 0
0, 0
0, 0
1, 0
1, 1
0, 0
0, 0
0, 2
1, 1
0, 0
0, 3
1, 1
1, 0
0, 1
0, 2
0, 1
1, 0
0, 1
0, 1
2, 1
0, 1
0, 0
0, 0
0, 0
0, 1
0, 0
0, 0
0, 0
0, 0
0, 2
0, 0
0, 0
0, 0
0, 0
0, 0
0, 2
0, 0
0, 1
0, 0
0, 0
0, 0
0, 0
0, 0
0, 0
0, 0
0, 0
0, 0
0, 1
0, 1
0, 0
0, 0
0, 0
0, 0
0, 0
0, 0
0, 0
0, 0
0, 0
0, 0
0, 0
0, 2
0, 0
0, 0
0, 0
0, 0
0, 1
0, 0
0, 0
1, 0
0, 1
0, 0
0, 0
0, 0
0, 0
0, 0
0, 0
0, 0
0, 0
0, 0
0, 0
0, 0
0, 0
0, 0
0, 0
0, 0
0, 0
0, 0
0, 0
0, 0
0, 0
0, 0
0, 0
0, 0
0, 0
0, 0
0, 0
0, 0
0, 0
0, 0
0, 0
0, 0
0, 0
0, 0
0, 0
0, 0
0, 0
0, 0
0, 0
0, 0
0, 0
0, 0
0, 0
0, 0
0, 0
0, 0
0, 0
0, 0
0, 0
0, 0
0, 0
0, 0
0, 0
0, 0
0, 0
0, 0
0, 0
0, 0
0, 0
0, 0
0, 0
0, 0
0, 0
0, 0
0, 0
0, 0
0, 0
0, 0
0, 0
0, 0
0, 0
0, 0
0, 0
0, 0
0, 0
0, 0
0, 0
0, 0
0, 0
0, 0
0, 0
0, 0
0, 0
0, 0
0, 0
0, 0
0, 0
0, 0
0, 0
0, 0
0, 0
#ENDOFDATA     end of spectrum data