File: host_upload/06-09-2024/ps_0852/dump3/ps__0852shot_2577.msa
#FORMAT      : EMSA/MAS spectral data file
#VERSION     : TC202v2.0 PIXL
#TITLE       : N/A
#DATE        :       Date in the format DD-MMM-YYYY, for example 07-JUL-2010
#TIME        :             The time of day at which the spectrum was recorded, in 24-hour format
#OWNER       : PIXL Flight Model       (PIXL will use this to indicate which instrument took the data.)
#NPOINTS     : 4096     Number of data points in the spectrum (This can be zero for configuration only files)
#NCOLUMNS    : 2     Number of data columns in the spectrum (This can be zero for configuration only files)
#XUNITS      : eV
#YUNITS      : COUNTS
#DATATYPE    : YY
#XPERCHAN    : 7.862, 7.881   eV per channel (separate by commas if more than one detector)
#OFFSET      : 18.5, -22.4         eV of first channel  (separate by commas if more than one detector
#SIGNALTYPE  : XRF
#YP_TEMP     : 2.332
#LIVETIME    : 8.55995, 8.55527   seconds (separate by commas if more than one detector)
#REALTIME    : 10, 10.0   seconds (separate by commas if more than one detector)
#SPECTRUM    : start of spectrum data
0, 0
0, 0
0, 0
0, 0
0, 0
0, 0
0, 0
0, 0
1, 6
0, 43
2, 1
55, 51
74, 48
5, 5
3, 10
112, 93
490, 413
101, 79
5, 3
1, 0
0, 2
3, 4
3, 8
3, 76
26, 1193
21, 1885
14, 182
9, 9
3, 6
2, 1
2, 2
4, 0
6, 2
10, 5
19, 18
15, 3
113, 2
101, 13
22, 181
2, 318
3, 66
7, 8
12, 11
21, 4
18, 6
12, 8
3, 11
5, 7
10, 17
11, 32
24, 18
37, 9
31, 17
45, 75
75, 69
19, 19
33, 26
517, 591
2429, 2254
1747, 1345
208, 136
22, 16
19, 26
97, 114
356, 332
244, 182
29, 27
8, 27
18, 25
8, 11
5, 0
4, 1
16, 12
14, 29
10, 19
3, 7
2, 6
5, 15
1, 18
5, 4
3, 7
4, 10
3, 14
5, 3
5, 6
4, 5
7, 8
2, 6
4, 3
4, 5
2, 2
1, 5
5, 8
0, 9
9, 3
18, 4
8, 4
5, 3
3, 1
2, 3
5, 6
3, 1
0, 1
5, 2
4, 1
0, 3
1, 5
5, 7
6, 3
8, 1
3, 4
1, 2
0, 3
1, 0
4, 0
3, 2
4, 3
5, 0
3, 3
3, 3
0, 1
0, 1
0, 1
4, 4
2, 1
0, 3
1, 3
1, 3
1, 1
2, 0
0, 1
1, 1
1, 1
1, 1
2, 1
0, 0
2, 0
2, 1
0, 1
1, 0
0, 1
0, 1
0, 1
1, 0
0, 0
0, 0
0, 0
0, 0
0, 0
1, 0
0, 1
0, 1
1, 0
1, 0
0, 1
0, 0
0, 0
0, 0
1, 1
1, 0
0, 0
0, 1
0, 1
1, 0
0, 1
0, 0
0, 0
1, 1
0, 0
0, 0
2, 1
0, 0
0, 0
1, 0
0, 0
0, 0
2, 0
0, 0
0, 0
0, 0
0, 0
0, 0
0, 1
0, 0
0, 0
0, 0
0, 0
0, 0
0, 0
0, 0
0, 0
0, 0
0, 0
1, 0
0, 0
0, 0
0, 0
0, 0
0, 0
0, 0
0, 0
0, 0
0, 0
0, 0
0, 0
0, 1
0, 0
0, 0
0, 0
0, 0
0, 0
0, 0
0, 0
0, 0
0, 0
0, 0
0, 0
0, 0
0, 0
0, 0
0, 0
0, 0
0, 0
0, 0
0, 0
0, 0
0, 0
0, 0
0, 0
0, 0
0, 0
0, 0
0, 0
0, 0
0, 0
0, 0
0, 0
0, 0
0, 0
0, 0
0, 0
0, 0
0, 0
0, 0
0, 0
0, 0
0, 0
0, 0
0, 0
0, 0
0, 0
0, 0
0, 0
0, 0
0, 0
0, 0
0, 0
0, 0
0, 0
0, 0
0, 0
0, 0
0, 0
0, 0
0, 0
0, 0
0, 0
0, 0
0, 0
0, 0
0, 0
0, 0
0, 0
0, 0
0, 0
0, 0
0, 0
0, 0
0, 0
0, 0
0, 0
0, 0
0, 0
0, 0
0, 0
0, 0
0, 0
0, 0
0, 0
0, 0
0, 0
0, 0
0, 0
0, 0
#ENDOFDATA     end of spectrum data