File: host_upload/06-09-2024/ps_0852/dump3/ps__0852shot_2066.msa
#FORMAT      : EMSA/MAS spectral data file
#VERSION     : TC202v2.0 PIXL
#TITLE       : N/A
#DATE        :       Date in the format DD-MMM-YYYY, for example 07-JUL-2010
#TIME        :             The time of day at which the spectrum was recorded, in 24-hour format
#OWNER       : PIXL Flight Model       (PIXL will use this to indicate which instrument took the data.)
#NPOINTS     : 4096     Number of data points in the spectrum (This can be zero for configuration only files)
#NCOLUMNS    : 2     Number of data columns in the spectrum (This can be zero for configuration only files)
#XUNITS      : eV
#YUNITS      : COUNTS
#DATATYPE    : YY
#XPERCHAN    : 7.862, 7.881   eV per channel (separate by commas if more than one detector)
#OFFSET      : 18.5, -22.4         eV of first channel  (separate by commas if more than one detector
#SIGNALTYPE  : XRF
#YP_TEMP     : 2.556
#LIVETIME    : 8.56742, 8.55191   seconds (separate by commas if more than one detector)
#REALTIME    : 10, 10.0   seconds (separate by commas if more than one detector)
#SPECTRUM    : start of spectrum data
0, 0
0, 0
0, 0
0, 0
0, 0
0, 0
0, 0
0, 0
1, 1
1, 3
0, 1
39, 40
49, 58
2, 7
3, 4
102, 118
465, 537
110, 127
13, 13
4, 4
4, 2
7, 5
6, 11
12, 37
31, 67
45, 40
20, 18
21, 15
4, 4
3, 5
6, 7
2, 4
14, 13
169, 227
251, 334
44, 48
26, 42
38, 40
11, 15
5, 4
9, 2
18, 18
17, 7
16, 12
10, 12
9, 16
6, 19
3, 18
11, 12
30, 44
32, 34
11, 7
13, 13
33, 53
48, 66
29, 12
32, 37
394, 433
1498, 1766
1121, 1068
160, 98
25, 14
18, 18
74, 97
222, 260
165, 165
33, 17
5, 7
13, 11
12, 6
4, 2
6, 6
1, 6
7, 7
7, 15
7, 7
10, 8
3, 7
3, 6
11, 10
8, 6
8, 3
7, 5
11, 14
8, 5
6, 3
5, 4
4, 4
9, 3
3, 4
1, 3
5, 10
3, 7
1, 7
5, 7
4, 4
4, 6
1, 4
4, 2
4, 3
1, 1
3, 5
2, 3
5, 3
2, 4
3, 0
0, 1
2, 1
5, 4
6, 1
4, 2
0, 4
2, 6
2, 2
0, 3
6, 1
1, 3
1, 1
2, 0
2, 1
1, 1
0, 1
3, 2
0, 1
0, 1
2, 2
0, 1
2, 2
0, 1
0, 2
2, 1
1, 1
1, 0
0, 1
0, 1
1, 1
1, 0
0, 1
1, 0
0, 2
0, 0
1, 0
1, 1
1, 0
0, 1
0, 0
1, 0
3, 1
0, 1
1, 1
0, 0
1, 0
0, 0
0, 0
0, 0
1, 0
1, 1
0, 0
0, 0
0, 0
0, 0
2, 0
1, 0
0, 0
1, 0
1, 0
0, 0
0, 0
0, 0
0, 1
1, 2
0, 0
0, 0
0, 0
0, 0
0, 1
1, 0
0, 0
1, 1
1, 0
1, 0
0, 0
0, 0
0, 0
0, 0
0, 0
0, 0
0, 0
0, 0
0, 0
0, 0
0, 0
0, 0
0, 0
0, 0
0, 0
0, 0
0, 0
0, 0
0, 0
0, 0
0, 0
0, 0
1, 0
0, 0
0, 0
0, 0
0, 0
0, 0
0, 0
0, 0
0, 0
0, 0
0, 0
0, 0
0, 0
0, 0
0, 0
0, 0
0, 0
0, 0
0, 0
0, 0
0, 0
0, 0
0, 0
0, 0
0, 0
0, 0
0, 0
0, 0
0, 0
0, 0
0, 0
0, 0
0, 0
0, 0
0, 0
0, 0
0, 0
0, 0
0, 0
0, 0
0, 0
0, 0
0, 0
0, 0
0, 0
0, 0
0, 0
0, 0
0, 0
0, 0
0, 0
0, 0
0, 0
0, 0
0, 0
0, 0
0, 0
0, 0
0, 0
0, 0
0, 0
0, 0
0, 0
0, 0
0, 0
0, 0
0, 0
0, 0
0, 0
0, 0
0, 0
0, 0
0, 0
0, 0
0, 0
0, 0
0, 0
0, 0
0, 0
0, 0
0, 0
0, 0
0, 0
0, 0
0, 0
0, 0
0, 0
0, 0
0, 0
0, 0
0, 0
#ENDOFDATA     end of spectrum data