File: host_upload/06-09-2024/ps_0852/dump3/ps__0852shot_2189.msa
#FORMAT      : EMSA/MAS spectral data file
#VERSION     : TC202v2.0 PIXL
#TITLE       : N/A
#DATE        :       Date in the format DD-MMM-YYYY, for example 07-JUL-2010
#TIME        :             The time of day at which the spectrum was recorded, in 24-hour format
#OWNER       : PIXL Flight Model       (PIXL will use this to indicate which instrument took the data.)
#NPOINTS     : 4096     Number of data points in the spectrum (This can be zero for configuration only files)
#NCOLUMNS    : 2     Number of data columns in the spectrum (This can be zero for configuration only files)
#XUNITS      : eV
#YUNITS      : COUNTS
#DATATYPE    : YY
#XPERCHAN    : 7.862, 7.881   eV per channel (separate by commas if more than one detector)
#OFFSET      : 18.5, -22.4         eV of first channel  (separate by commas if more than one detector
#SIGNALTYPE  : XRF
#YP_TEMP     : 2.267
#LIVETIME    : 8.55916, 8.5331   seconds (separate by commas if more than one detector)
#REALTIME    : 10, 10.0   seconds (separate by commas if more than one detector)
#SPECTRUM    : start of spectrum data
0, 0
0, 0
0, 0
0, 0
0, 0
0, 0
0, 0
0, 0
6, 0
21, 0
9, 3
54, 52
66, 58
6, 7
8, 0
83, 115
417, 474
100, 101
9, 7
0, 0
1, 1
2, 2
3, 3
39, 7
818, 18
1347, 25
214, 30
19, 8
2, 7
2, 1
0, 0
1, 1
3, 1
12, 10
26, 12
7, 6
6, 4
28, 7
47, 3
20, 0
4, 6
11, 18
13, 17
7, 104
3, 134
5, 16
8, 4
6, 5
6, 5
17, 15
23, 17
34, 12
16, 8
41, 36
59, 54
23, 41
29, 83
440, 615
2141, 2251
1567, 1375
177, 157
45, 25
117, 21
222, 110
347, 344
225, 202
27, 15
8, 8
11, 17
10, 8
9, 4
2, 2
3, 6
7, 5
23, 1
64, 6
60, 3
17, 4
1, 1
4, 4
2, 0
5, 2
5, 1
6, 3
6, 8
4, 9
0, 7
5, 11
3, 5
2, 5
2, 3
1, 6
2, 1
4, 2
0, 2
2, 2
3, 1
1, 3
3, 3
4, 3
7, 3
7, 5
4, 5
2, 2
2, 3
0, 1
1, 3
1, 3
1, 3
0, 0
2, 1
3, 2
6, 1
2, 1
1, 2
4, 2
4, 2
4, 3
1, 1
0, 2
2, 2
0, 0
2, 2
0, 2
1, 0
0, 0
0, 0
2, 0
3, 0
0, 2
0, 3
1, 0
0, 2
2, 1
2, 0
1, 1
1, 0
2, 1
1, 2
1, 0
0, 1
0, 0
1, 1
0, 0
0, 2
3, 0
1, 0
1, 1
0, 0
1, 0
2, 0
0, 0
0, 0
0, 1
0, 1
0, 1
0, 0
0, 1
1, 0
0, 0
0, 0
0, 0
0, 0
0, 0
1, 0
0, 0
0, 1
0, 0
0, 0
1, 1
0, 0
0, 0
0, 0
0, 0
0, 0
0, 0
0, 0
0, 0
0, 0
0, 0
0, 0
1, 0
0, 0
0, 0
1, 0
0, 0
0, 0
0, 1
0, 0
0, 0
0, 0
0, 0
0, 0
0, 0
0, 0
0, 0
1, 0
0, 0
0, 0
0, 0
0, 0
0, 0
0, 0
0, 0
0, 0
0, 0
1, 0
0, 1
0, 0
0, 0
0, 0
0, 0
0, 0
0, 0
0, 0
0, 0
0, 0
0, 0
0, 0
0, 0
0, 0
0, 0
0, 0
0, 0
0, 0
0, 0
0, 0
0, 0
0, 0
0, 0
0, 0
0, 0
0, 0
0, 0
0, 0
0, 0
0, 0
0, 0
0, 0
0, 0
0, 0
0, 0
0, 0
0, 0
0, 0
0, 0
0, 0
0, 0
0, 0
0, 0
0, 0
0, 0
0, 0
0, 0
0, 0
0, 0
0, 0
0, 0
0, 0
0, 0
0, 0
0, 0
0, 0
0, 0
0, 0
0, 0
0, 0
0, 0
0, 0
0, 0
0, 0
0, 0
0, 0
0, 0
0, 0
0, 0
0, 0
0, 0
0, 0
0, 0
0, 0
0, 0
0, 0
0, 0
0, 0
0, 0
0, 0
0, 0
0, 0
0, 0
0, 0
0, 0
0, 0
0, 0
#ENDOFDATA     end of spectrum data