File: host_upload/06-09-2024/ps_0852/dump3/ps__0852shot_2056.msa
#FORMAT      : EMSA/MAS spectral data file
#VERSION     : TC202v2.0 PIXL
#TITLE       : N/A
#DATE        :       Date in the format DD-MMM-YYYY, for example 07-JUL-2010
#TIME        :             The time of day at which the spectrum was recorded, in 24-hour format
#OWNER       : PIXL Flight Model       (PIXL will use this to indicate which instrument took the data.)
#NPOINTS     : 4096     Number of data points in the spectrum (This can be zero for configuration only files)
#NCOLUMNS    : 2     Number of data columns in the spectrum (This can be zero for configuration only files)
#XUNITS      : eV
#YUNITS      : COUNTS
#DATATYPE    : YY
#XPERCHAN    : 7.862, 7.881   eV per channel (separate by commas if more than one detector)
#OFFSET      : 18.5, -22.4         eV of first channel  (separate by commas if more than one detector
#SIGNALTYPE  : XRF
#YP_TEMP     : 2.524
#LIVETIME    : 8.51817, 8.51669   seconds (separate by commas if more than one detector)
#REALTIME    : 10, 10.0   seconds (separate by commas if more than one detector)
#SPECTRUM    : start of spectrum data
0, 0
0, 0
0, 0
0, 0
0, 0
0, 0
0, 0
0, 0
0, 0
1, 0
2, 2
44, 47
68, 45
3, 4
2, 5
87, 102
420, 397
113, 97
4, 6
0, 2
2, 1
10, 9
3, 8
10, 7
49, 31
60, 49
30, 25
12, 13
4, 2
2, 3
4, 1
2, 1
3, 8
6, 8
11, 14
9, 18
6, 7
4, 4
4, 5
7, 3
8, 7
10, 12
12, 15
15, 12
6, 12
5, 31
9, 29
8, 11
10, 7
16, 15
22, 16
15, 10
17, 14
45, 45
79, 61
26, 20
43, 40
456, 590
2264, 2276
1569, 1370
251, 132
17, 10
29, 25
131, 98
343, 339
253, 181
31, 21
11, 20
13, 24
13, 29
8, 12
11, 6
6, 2
4, 1
5, 4
7, 8
5, 5
3, 2
5, 4
5, 5
10, 5
2, 4
8, 7
1, 5
4, 4
4, 5
5, 2
4, 0
2, 5
4, 3
4, 3
1, 3
8, 5
5, 3
4, 1
1, 3
0, 2
2, 6
3, 4
7, 4
5, 3
2, 1
3, 4
4, 2
2, 3
1, 2
3, 1
0, 3
2, 1
2, 2
2, 2
2, 1
4, 1
1, 4
5, 1
2, 2
1, 4
4, 3
3, 1
1, 0
2, 2
4, 2
4, 2
3, 1
1, 1
0, 1
1, 2
0, 1
1, 0
1, 0
0, 0
1, 0
2, 0
1, 1
1, 0
1, 0
0, 1
2, 2
0, 1
2, 1
0, 0
0, 0
0, 0
0, 1
0, 0
0, 0
0, 3
1, 1
0, 1
0, 1
0, 1
0, 0
0, 0
1, 0
0, 0
0, 0
0, 1
0, 0
1, 0
1, 1
0, 0
0, 0
0, 0
1, 0
0, 0
1, 0
0, 0
0, 0
1, 0
0, 0
1, 0
0, 0
0, 1
0, 0
0, 1
0, 0
0, 0
0, 0
1, 0
0, 0
1, 0
0, 0
0, 0
0, 0
0, 0
1, 0
0, 0
0, 0
1, 0
0, 0
0, 0
0, 0
0, 0
0, 0
0, 0
0, 0
0, 0
0, 0
0, 0
0, 0
0, 0
0, 0
0, 0
0, 0
0, 0
0, 0
0, 0
0, 0
0, 0
0, 1
0, 0
0, 0
0, 0
0, 0
0, 0
0, 0
0, 0
0, 0
0, 0
0, 0
0, 0
0, 0
0, 0
0, 0
0, 0
0, 0
0, 0
0, 0
0, 0
0, 0
0, 0
0, 0
0, 0
0, 0
0, 0
0, 0
0, 0
0, 0
0, 0
0, 0
0, 0
0, 0
0, 0
0, 0
0, 0
0, 0
0, 0
0, 0
0, 0
0, 0
0, 0
0, 0
0, 0
0, 0
0, 0
0, 0
0, 0
0, 0
0, 0
0, 0
0, 0
0, 0
0, 0
0, 0
0, 0
0, 0
0, 0
0, 0
0, 0
0, 0
0, 0
0, 0
0, 0
0, 0
0, 0
0, 0
0, 0
0, 0
0, 0
0, 0
0, 0
0, 0
0, 0
0, 0
0, 0
0, 0
0, 0
0, 0
0, 0
0, 0
0, 0
0, 0
0, 0
0, 0
#ENDOFDATA     end of spectrum data