File: host_upload/06-09-2024/ps_0852/dump3/ps__0852shot_2520.msa
#FORMAT      : EMSA/MAS spectral data file
#VERSION     : TC202v2.0 PIXL
#TITLE       : N/A
#DATE        :       Date in the format DD-MMM-YYYY, for example 07-JUL-2010
#TIME        :             The time of day at which the spectrum was recorded, in 24-hour format
#OWNER       : PIXL Flight Model       (PIXL will use this to indicate which instrument took the data.)
#NPOINTS     : 4096     Number of data points in the spectrum (This can be zero for configuration only files)
#NCOLUMNS    : 2     Number of data columns in the spectrum (This can be zero for configuration only files)
#XUNITS      : eV
#YUNITS      : COUNTS
#DATATYPE    : YY
#XPERCHAN    : 7.862, 7.881   eV per channel (separate by commas if more than one detector)
#OFFSET      : 18.5, -22.4         eV of first channel  (separate by commas if more than one detector
#SIGNALTYPE  : XRF
#YP_TEMP     : 2.043
#LIVETIME    : 8.55388, 8.55976   seconds (separate by commas if more than one detector)
#REALTIME    : 10, 10.0   seconds (separate by commas if more than one detector)
#SPECTRUM    : start of spectrum data
0, 0
0, 0
0, 0
0, 0
0, 0
0, 0
0, 0
0, 0
1, 1
2, 2
2, 1
46, 40
40, 41
3, 9
7, 5
75, 95
370, 398
90, 98
7, 10
2, 4
18, 25
134, 138
60, 41
22, 22
278, 39
334, 40
44, 22
18, 8
7, 5
4, 1
4, 6
4, 3
3, 5
33, 40
38, 56
14, 9
13, 11
17, 14
22, 9
13, 8
5, 10
10, 15
5, 11
11, 10
6, 2
7, 4
6, 11
8, 5
7, 14
10, 20
22, 18
12, 13
42, 20
132, 63
104, 70
28, 20
26, 32
419, 554
2071, 2124
1556, 1341
179, 134
24, 14
31, 12
93, 85
329, 326
224, 177
33, 24
6, 6
13, 12
6, 8
6, 2
0, 3
3, 5
6, 6
5, 6
12, 16
13, 6
4, 11
0, 1
3, 4
5, 8
3, 3
3, 3
1, 3
5, 2
2, 2
10, 2
5, 7
1, 4
1, 3
0, 4
3, 3
3, 3
1, 2
3, 4
0, 3
2, 3
3, 4
2, 3
6, 1
3, 5
5, 2
2, 1
3, 3
2, 2
4, 0
5, 4
9, 3
4, 5
2, 1
1, 2
5, 4
1, 2
5, 4
0, 1
2, 2
1, 3
2, 3
2, 1
2, 2
0, 2
0, 5
1, 6
1, 2
0, 1
0, 0
0, 2
0, 3
1, 2
0, 1
1, 1
0, 2
0, 2
0, 1
0, 1
0, 1
1, 0
0, 0
1, 0
1, 0
1, 2
0, 1
0, 0
1, 3
1, 1
1, 0
0, 0
0, 0
0, 1
1, 1
0, 0
0, 0
1, 1
0, 0
0, 0
0, 2
0, 1
0, 0
0, 0
1, 0
0, 0
0, 0
0, 0
0, 0
0, 0
0, 0
0, 0
0, 0
1, 0
2, 0
0, 0
1, 1
0, 0
1, 0
0, 1
0, 0
0, 1
0, 0
0, 0
0, 0
0, 0
0, 0
0, 0
0, 0
0, 0
0, 0
1, 0
0, 0
0, 0
0, 0
0, 0
0, 0
0, 0
0, 0
0, 0
0, 0
0, 1
1, 0
0, 0
0, 0
0, 0
0, 0
0, 0
0, 0
0, 0
0, 0
0, 0
0, 0
1, 0
0, 0
0, 0
0, 1
0, 0
0, 0
0, 0
0, 0
0, 0
0, 0
0, 0
0, 0
0, 0
0, 0
0, 0
0, 0
0, 0
0, 0
0, 0
0, 0
0, 0
0, 0
0, 0
0, 0
0, 0
0, 0
0, 0
0, 0
0, 0
0, 0
0, 0
0, 0
0, 0
0, 0
0, 0
0, 0
0, 0
0, 0
0, 0
0, 0
0, 0
0, 0
0, 0
0, 0
0, 0
0, 0
0, 0
0, 0
0, 0
0, 0
0, 0
0, 0
0, 0
0, 0
0, 0
0, 0
0, 0
0, 0
0, 0
0, 0
0, 0
0, 0
0, 0
0, 0
0, 0
0, 0
0, 0
0, 0
0, 0
0, 0
0, 0
0, 0
0, 0
0, 0
0, 0
0, 0
0, 0
0, 0
0, 0
0, 0
0, 0
0, 0
0, 0
0, 0
0, 0
0, 0
#ENDOFDATA     end of spectrum data