File: host_upload/06-09-2024/ps_0852/dump3/ps__0852shot_2261.msa
#FORMAT      : EMSA/MAS spectral data file
#VERSION     : TC202v2.0 PIXL
#TITLE       : N/A
#DATE        :       Date in the format DD-MMM-YYYY, for example 07-JUL-2010
#TIME        :             The time of day at which the spectrum was recorded, in 24-hour format
#OWNER       : PIXL Flight Model       (PIXL will use this to indicate which instrument took the data.)
#NPOINTS     : 4096     Number of data points in the spectrum (This can be zero for configuration only files)
#NCOLUMNS    : 2     Number of data columns in the spectrum (This can be zero for configuration only files)
#XUNITS      : eV
#YUNITS      : COUNTS
#DATATYPE    : YY
#XPERCHAN    : 7.862, 7.881   eV per channel (separate by commas if more than one detector)
#OFFSET      : 18.5, -22.4         eV of first channel  (separate by commas if more than one detector
#SIGNALTYPE  : XRF
#YP_TEMP     : 2.332
#LIVETIME    : 8.57069, 8.57419   seconds (separate by commas if more than one detector)
#REALTIME    : 10, 10.0   seconds (separate by commas if more than one detector)
#SPECTRUM    : start of spectrum data
0, 0
0, 0
0, 0
0, 0
0, 0
0, 0
0, 0
0, 1
1, 0
5, 3
4, 3
41, 50
65, 67
4, 6
3, 7
87, 98
378, 454
98, 98
3, 8
2, 3
0, 1
1, 2
4, 3
20, 3
298, 29
457, 23
71, 15
13, 9
6, 5
6, 5
1, 2
1, 4
3, 2
8, 14
20, 11
5, 8
3, 0
27, 5
34, 3
10, 2
4, 6
7, 12
10, 15
9, 77
4, 91
5, 17
6, 5
6, 8
7, 5
16, 10
21, 14
35, 6
18, 8
36, 40
59, 74
14, 45
32, 90
425, 651
1972, 2458
1513, 1416
174, 164
38, 20
56, 28
143, 124
302, 329
220, 194
29, 26
6, 7
12, 19
11, 8
2, 4
6, 10
4, 9
7, 4
14, 5
46, 4
39, 8
9, 3
2, 4
3, 6
2, 4
3, 4
1, 3
2, 4
3, 8
1, 5
0, 5
2, 4
6, 6
1, 3
3, 1
1, 5
5, 2
1, 5
2, 3
4, 2
0, 3
1, 3
5, 1
2, 3
2, 5
5, 3
1, 3
3, 1
1, 0
2, 4
1, 0
4, 0
1, 5
2, 3
2, 3
2, 3
1, 5
3, 2
2, 1
8, 3
4, 1
2, 4
1, 1
0, 1
2, 1
0, 4
3, 3
1, 1
1, 0
1, 1
1, 0
0, 0
1, 4
2, 2
0, 1
0, 3
1, 1
1, 4
1, 0
0, 1
0, 1
1, 1
1, 1
0, 0
0, 0
0, 2
0, 1
0, 1
1, 1
0, 1
0, 1
0, 0
0, 2
0, 0
0, 0
0, 0
0, 0
1, 0
0, 0
1, 1
0, 2
0, 0
0, 0
0, 0
2, 0
1, 0
0, 0
0, 1
1, 0
1, 0
0, 0
2, 0
0, 1
1, 0
0, 1
0, 0
0, 0
0, 0
0, 0
0, 1
0, 1
0, 0
0, 0
0, 1
0, 1
0, 0
0, 0
0, 0
0, 0
0, 0
0, 0
0, 0
0, 0
0, 0
0, 0
0, 0
0, 0
0, 0
0, 0
0, 0
0, 0
0, 0
0, 0
0, 0
0, 0
0, 0
0, 0
0, 0
0, 0
0, 0
0, 0
0, 0
0, 0
0, 0
0, 0
0, 0
0, 0
0, 0
0, 0
0, 0
0, 0
0, 0
0, 0
0, 0
0, 0
0, 0
0, 0
0, 0
0, 0
0, 0
0, 0
0, 0
0, 0
0, 0
0, 0
0, 0
0, 0
0, 0
0, 0
0, 0
0, 0
0, 0
0, 0
0, 0
0, 0
0, 0
0, 0
0, 0
0, 0
0, 0
0, 0
0, 0
0, 0
0, 0
0, 0
0, 0
0, 0
0, 0
0, 0
0, 0
0, 0
0, 0
0, 0
0, 0
0, 0
0, 0
0, 0
0, 0
0, 0
0, 0
0, 0
0, 0
0, 0
0, 0
0, 0
0, 0
0, 0
0, 0
0, 0
0, 0
0, 0
0, 0
0, 0
0, 0
0, 0
0, 0
0, 0
0, 0
0, 0
0, 0
0, 0
0, 0
0, 0
0, 0
0, 0
0, 0
0, 0
0, 0
#ENDOFDATA     end of spectrum data