File: host_upload/06-09-2024/ps_0852/dump3/ps__0852shot_2339.msa
#FORMAT      : EMSA/MAS spectral data file
#VERSION     : TC202v2.0 PIXL
#TITLE       : N/A
#DATE        :       Date in the format DD-MMM-YYYY, for example 07-JUL-2010
#TIME        :             The time of day at which the spectrum was recorded, in 24-hour format
#OWNER       : PIXL Flight Model       (PIXL will use this to indicate which instrument took the data.)
#NPOINTS     : 4096     Number of data points in the spectrum (This can be zero for configuration only files)
#NCOLUMNS    : 2     Number of data columns in the spectrum (This can be zero for configuration only files)
#XUNITS      : eV
#YUNITS      : COUNTS
#DATATYPE    : YY
#XPERCHAN    : 7.862, 7.881   eV per channel (separate by commas if more than one detector)
#OFFSET      : 18.5, -22.4         eV of first channel  (separate by commas if more than one detector
#SIGNALTYPE  : XRF
#YP_TEMP     : 2.107
#LIVETIME    : 8.59626, 8.52732   seconds (separate by commas if more than one detector)
#REALTIME    : 10, 10.0   seconds (separate by commas if more than one detector)
#SPECTRUM    : start of spectrum data
0, 0
0, 0
0, 0
0, 0
0, 0
0, 0
0, 0
0, 1
1, 4
0, 4
5, 6
28, 26
28, 48
7, 3
6, 3
65, 44
222, 251
58, 62
5, 4
7, 9
98, 106
535, 663
227, 265
55, 66
92, 112
73, 100
37, 43
24, 23
8, 9
3, 6
13, 6
9, 7
3, 5
21, 11
22, 23
6, 10
6, 8
12, 7
3, 5
5, 5
5, 8
11, 8
13, 16
10, 15
7, 11
5, 19
8, 8
7, 8
7, 7
16, 21
34, 33
20, 16
11, 15
34, 33
67, 74
18, 29
39, 35
424, 662
2030, 2476
1488, 1472
155, 133
16, 20
19, 19
92, 148
341, 387
207, 213
41, 20
13, 18
17, 16
20, 12
19, 5
4, 8
6, 4
10, 8
10, 9
8, 9
3, 6
5, 6
3, 4
12, 6
5, 4
2, 2
8, 9
4, 14
2, 3
3, 8
1, 6
3, 3
4, 7
4, 3
4, 13
2, 4
8, 4
4, 8
5, 1
4, 5
1, 5
2, 1
0, 3
4, 2
5, 1
7, 5
2, 4
1, 3
8, 0
3, 2
3, 1
1, 1
1, 6
1, 1
5, 2
5, 3
0, 2
0, 1
4, 2
1, 3
4, 4
5, 1
0, 2
5, 3
1, 1
0, 0
2, 4
4, 3
0, 0
2, 2
2, 1
1, 2
0, 2
1, 2
0, 1
2, 1
1, 0
3, 0
0, 0
0, 0
0, 0
0, 0
0, 0
0, 1
0, 0
1, 0
0, 1
1, 0
1, 0
0, 1
1, 1
1, 1
0, 1
1, 1
0, 0
0, 0
0, 2
0, 0
1, 0
0, 0
0, 0
0, 0
0, 0
0, 1
0, 0
1, 0
0, 0
0, 0
0, 0
0, 1
0, 0
0, 1
0, 0
0, 0
0, 0
0, 0
0, 0
1, 0
0, 0
0, 0
1, 0
0, 0
1, 0
0, 0
0, 0
0, 0
0, 0
0, 0
0, 0
0, 1
0, 0
0, 0
0, 0
0, 0
0, 0
0, 0
0, 0
0, 0
0, 0
0, 0
0, 0
0, 0
0, 0
0, 0
0, 0
0, 0
0, 0
0, 0
0, 0
0, 0
0, 0
0, 0
0, 0
0, 0
0, 0
0, 0
0, 0
0, 0
0, 0
0, 0
0, 0
0, 0
0, 0
0, 0
0, 0
0, 0
0, 0
0, 0
0, 0
0, 0
0, 0
0, 0
0, 0
0, 0
0, 0
0, 0
0, 0
0, 0
0, 0
0, 0
0, 0
0, 0
0, 0
0, 0
0, 0
0, 0
0, 0
0, 0
0, 0
0, 0
0, 0
0, 0
0, 0
0, 0
0, 0
0, 0
0, 0
0, 0
0, 0
0, 0
0, 0
0, 0
0, 0
0, 0
0, 0
0, 0
0, 0
0, 0
0, 0
0, 0
0, 0
0, 0
0, 0
0, 0
0, 0
0, 0
0, 0
0, 0
0, 0
0, 0
0, 0
0, 0
0, 0
0, 0
0, 0
0, 0
0, 0
0, 0
0, 0
0, 0
0, 0
0, 0
0, 0
0, 0
0, 0
0, 0
0, 0
0, 0
#ENDOFDATA     end of spectrum data