File: host_upload/06-09-2024/ps_0852/dump3/ps__0852shot_2505.msa
#FORMAT      : EMSA/MAS spectral data file
#VERSION     : TC202v2.0 PIXL
#TITLE       : N/A
#DATE        :       Date in the format DD-MMM-YYYY, for example 07-JUL-2010
#TIME        :             The time of day at which the spectrum was recorded, in 24-hour format
#OWNER       : PIXL Flight Model       (PIXL will use this to indicate which instrument took the data.)
#NPOINTS     : 4096     Number of data points in the spectrum (This can be zero for configuration only files)
#NCOLUMNS    : 2     Number of data columns in the spectrum (This can be zero for configuration only files)
#XUNITS      : eV
#YUNITS      : COUNTS
#DATATYPE    : YY
#XPERCHAN    : 7.862, 7.881   eV per channel (separate by commas if more than one detector)
#OFFSET      : 18.5, -22.4         eV of first channel  (separate by commas if more than one detector
#SIGNALTYPE  : XRF
#YP_TEMP     : 2.3
#LIVETIME    : 8.60016, 8.54357   seconds (separate by commas if more than one detector)
#REALTIME    : 10, 10.0   seconds (separate by commas if more than one detector)
#SPECTRUM    : start of spectrum data
0, 0
0, 0
0, 0
0, 0
0, 0
0, 0
0, 0
0, 0
0, 1
1, 0
2, 4
58, 42
61, 44
5, 2
5, 6
88, 90
431, 391
108, 102
3, 2
1, 1
1, 2
3, 9
7, 1
8, 11
21, 23
67, 34
33, 23
9, 9
6, 1
0, 2
4, 1
1, 2
13, 1
58, 5
34, 9
6, 3
3, 2
4, 4
4, 4
3, 8
3, 5
17, 23
18, 23
9, 17
5, 4
13, 7
8, 5
9, 11
20, 23
92, 101
128, 64
54, 28
27, 32
53, 57
92, 77
19, 27
31, 44
491, 607
2213, 2264
1572, 1269
203, 134
18, 14
26, 27
114, 109
373, 354
211, 185
34, 26
6, 4
28, 16
22, 6
12, 2
1, 4
3, 7
7, 7
6, 6
2, 8
4, 9
3, 25
4, 27
4, 8
3, 5
6, 5
3, 4
6, 14
3, 14
6, 5
10, 2
5, 4
3, 4
2, 2
1, 5
5, 1
1, 2
2, 5
2, 5
1, 0
4, 2
4, 2
6, 4
0, 2
1, 2
5, 4
6, 4
3, 2
1, 2
1, 3
5, 5
3, 1
2, 0
2, 7
1, 2
3, 1
2, 2
0, 1
2, 0
4, 2
4, 8
5, 1
2, 5
1, 3
4, 2
1, 2
4, 0
1, 1
1, 2
0, 1
2, 0
0, 0
4, 0
0, 1
0, 0
0, 2
1, 2
3, 2
2, 1
2, 0
1, 1
0, 0
0, 2
1, 0
0, 1
0, 0
0, 1
3, 0
0, 2
2, 1
0, 1
1, 1
0, 1
2, 0
1, 0
0, 0
0, 0
0, 0
0, 1
0, 0
0, 0
0, 0
1, 1
1, 0
0, 1
0, 1
0, 0
0, 0
0, 0
0, 0
0, 0
0, 0
1, 0
0, 0
0, 0
1, 0
0, 1
0, 0
0, 0
2, 0
0, 0
0, 0
0, 0
0, 1
0, 0
0, 0
1, 0
1, 0
0, 0
0, 0
1, 0
0, 0
1, 0
0, 0
0, 0
0, 0
0, 1
0, 0
0, 0
0, 0
0, 0
0, 0
0, 0
1, 0
0, 0
0, 0
0, 0
0, 0
0, 0
0, 0
0, 0
0, 0
0, 0
0, 0
0, 1
0, 0
0, 0
0, 0
0, 0
0, 0
0, 0
0, 0
0, 0
0, 0
0, 0
0, 0
0, 0
0, 0
0, 0
0, 0
0, 0
0, 0
0, 0
0, 0
0, 0
0, 0
0, 0
0, 0
0, 0
0, 0
0, 0
0, 0
0, 0
0, 0
0, 0
0, 0
0, 0
0, 0
0, 0
0, 0
0, 0
0, 0
0, 0
0, 0
0, 0
0, 0
0, 0
0, 0
0, 0
0, 0
0, 0
0, 0
0, 0
0, 0
0, 0
0, 0
0, 0
0, 0
0, 0
0, 0
0, 0
0, 0
0, 0
0, 0
0, 0
0, 0
0, 0
0, 0
0, 0
0, 0
0, 0
0, 0
0, 0
0, 0
0, 0
0, 0
0, 0
0, 0
0, 0
0, 0
0, 0
0, 0
0, 0
0, 0
0, 0
0, 0
0, 0
0, 0
#ENDOFDATA     end of spectrum data