File: host_upload/06-09-2024/ps_0852/dump3/ps__0852shot_2519.msa
#FORMAT      : EMSA/MAS spectral data file
#VERSION     : TC202v2.0 PIXL
#TITLE       : N/A
#DATE        :       Date in the format DD-MMM-YYYY, for example 07-JUL-2010
#TIME        :             The time of day at which the spectrum was recorded, in 24-hour format
#OWNER       : PIXL Flight Model       (PIXL will use this to indicate which instrument took the data.)
#NPOINTS     : 4096     Number of data points in the spectrum (This can be zero for configuration only files)
#NCOLUMNS    : 2     Number of data columns in the spectrum (This can be zero for configuration only files)
#XUNITS      : eV
#YUNITS      : COUNTS
#DATATYPE    : YY
#XPERCHAN    : 7.862, 7.881   eV per channel (separate by commas if more than one detector)
#OFFSET      : 18.5, -22.4         eV of first channel  (separate by commas if more than one detector
#SIGNALTYPE  : XRF
#YP_TEMP     : 2.364
#LIVETIME    : 8.57166, 8.5598   seconds (separate by commas if more than one detector)
#REALTIME    : 10, 10.0   seconds (separate by commas if more than one detector)
#SPECTRUM    : start of spectrum data
0, 0
0, 0
0, 0
0, 0
0, 0
0, 0
0, 0
0, 0
2, 2
0, 0
4, 1
57, 54
55, 55
7, 5
6, 6
71, 76
354, 401
103, 84
5, 8
4, 1
39, 42
205, 267
83, 96
30, 20
95, 44
100, 37
32, 16
15, 11
6, 4
7, 3
5, 1
4, 3
5, 2
14, 33
33, 25
6, 8
8, 4
10, 11
43, 5
36, 4
5, 5
10, 19
11, 15
5, 12
4, 4
9, 6
2, 6
4, 7
6, 13
16, 19
23, 20
7, 30
10, 42
55, 56
74, 58
21, 11
33, 36
485, 556
2018, 2256
1417, 1429
161, 141
13, 17
18, 30
99, 138
322, 336
224, 207
34, 23
8, 6
14, 11
17, 10
3, 3
2, 1
3, 3
2, 8
4, 11
6, 10
7, 7
11, 5
3, 11
6, 4
4, 3
2, 4
6, 5
3, 10
5, 11
4, 7
7, 2
9, 6
3, 3
4, 1
5, 8
3, 7
7, 6
6, 4
5, 4
3, 3
4, 0
7, 4
1, 3
1, 2
4, 3
3, 2
2, 4
1, 4
2, 0
3, 3
2, 2
2, 2
3, 3
3, 2
3, 3
1, 4
1, 4
1, 1
0, 0
3, 5
2, 7
5, 3
2, 2
1, 1
2, 3
1, 4
4, 1
1, 0
1, 0
2, 2
1, 4
2, 2
0, 2
1, 1
2, 2
0, 3
1, 2
1, 0
1, 2
0, 0
1, 1
0, 1
2, 1
1, 0
0, 1
0, 1
2, 0
2, 1
0, 0
0, 0
1, 0
0, 1
0, 1
1, 0
0, 0
0, 1
0, 0
0, 1
1, 0
0, 0
0, 0
0, 1
0, 0
1, 0
0, 0
0, 1
0, 0
0, 0
0, 1
0, 0
0, 0
0, 0
1, 0
0, 1
0, 1
0, 0
0, 0
0, 0
0, 0
0, 0
0, 0
0, 2
0, 0
0, 0
0, 0
0, 0
0, 0
0, 0
0, 0
0, 0
0, 0
1, 0
0, 0
0, 0
0, 0
0, 0
1, 0
0, 0
0, 0
0, 0
0, 0
0, 0
0, 0
0, 0
0, 0
0, 0
1, 0
0, 0
1, 1
0, 0
0, 0
0, 0
0, 0
0, 0
0, 0
0, 0
0, 0
0, 0
0, 0
0, 0
0, 0
0, 0
0, 0
0, 0
0, 0
0, 0
0, 0
0, 0
0, 0
0, 0
0, 0
0, 0
0, 0
0, 0
0, 0
0, 0
0, 0
0, 0
0, 0
0, 0
0, 0
0, 0
0, 0
0, 0
0, 0
0, 0
0, 0
0, 0
0, 0
0, 0
0, 0
0, 0
0, 0
0, 0
0, 0
0, 0
0, 0
0, 0
0, 0
0, 0
0, 0
0, 0
0, 0
0, 0
0, 0
0, 0
0, 0
0, 0
0, 0
0, 0
0, 0
0, 0
0, 0
0, 0
0, 0
0, 0
0, 0
0, 0
0, 0
0, 0
0, 0
0, 0
0, 0
0, 0
0, 0
0, 0
0, 0
0, 0
0, 0
0, 0
0, 0
0, 0
0, 0
0, 0
0, 0
0, 0
0, 0
0, 0
#ENDOFDATA     end of spectrum data