File: host_upload/06-09-2024/ps_0852/dump3/ps__0852shot_2205.msa
#FORMAT      : EMSA/MAS spectral data file
#VERSION     : TC202v2.0 PIXL
#TITLE       : N/A
#DATE        :       Date in the format DD-MMM-YYYY, for example 07-JUL-2010
#TIME        :             The time of day at which the spectrum was recorded, in 24-hour format
#OWNER       : PIXL Flight Model       (PIXL will use this to indicate which instrument took the data.)
#NPOINTS     : 4096     Number of data points in the spectrum (This can be zero for configuration only files)
#NCOLUMNS    : 2     Number of data columns in the spectrum (This can be zero for configuration only files)
#XUNITS      : eV
#YUNITS      : COUNTS
#DATATYPE    : YY
#XPERCHAN    : 7.862, 7.881   eV per channel (separate by commas if more than one detector)
#OFFSET      : 18.5, -22.4         eV of first channel  (separate by commas if more than one detector
#SIGNALTYPE  : XRF
#YP_TEMP     : 2.171
#LIVETIME    : 8.5714, 8.55513   seconds (separate by commas if more than one detector)
#REALTIME    : 10, 10.0   seconds (separate by commas if more than one detector)
#SPECTRUM    : start of spectrum data
0, 0
0, 0
0, 0
0, 0
0, 0
0, 0
0, 0
0, 0
1, 1
4, 3
1, 4
31, 42
50, 61
1, 6
2, 11
96, 94
416, 458
106, 79
7, 7
3, 2
1, 1
5, 8
2, 32
5, 30
33, 36
43, 59
24, 26
8, 19
5, 7
1, 6
1, 3
2, 3
4, 2
30, 29
56, 61
16, 10
4, 13
6, 11
6, 4
5, 2
5, 3
8, 17
17, 20
12, 13
5, 6
6, 23
10, 20
9, 12
10, 14
18, 21
21, 14
7, 11
15, 12
31, 46
45, 62
20, 20
36, 35
441, 592
2082, 2352
1521, 1459
184, 137
33, 13
38, 27
97, 116
307, 348
201, 195
32, 29
10, 6
18, 7
8, 5
2, 4
3, 2
2, 5
6, 3
5, 5
10, 6
2, 4
2, 6
4, 1
3, 4
7, 4
7, 4
8, 4
8, 3
8, 2
2, 2
2, 4
5, 5
17, 5
8, 3
6, 3
2, 6
2, 6
2, 10
2, 1
2, 8
2, 6
1, 4
6, 4
4, 1
2, 1
4, 3
3, 1
2, 2
4, 3
2, 2
0, 0
4, 1
2, 0
3, 0
4, 2
3, 1
0, 3
1, 3
1, 3
5, 1
2, 3
0, 4
1, 2
4, 2
3, 2
1, 1
1, 1
1, 4
1, 4
3, 2
2, 1
0, 3
0, 0
1, 2
0, 0
0, 3
1, 0
0, 0
1, 0
1, 1
2, 1
0, 2
0, 0
1, 1
1, 0
0, 1
0, 1
0, 0
0, 0
0, 0
0, 0
1, 0
1, 0
0, 1
0, 2
0, 0
0, 0
0, 1
0, 0
1, 0
0, 2
0, 0
1, 0
1, 0
0, 0
0, 0
0, 0
0, 1
0, 0
0, 0
0, 0
0, 0
0, 0
0, 0
0, 0
1, 0
0, 1
0, 2
0, 0
0, 0
0, 0
1, 0
0, 0
0, 0
0, 0
0, 0
0, 0
0, 1
0, 0
0, 1
0, 1
0, 0
0, 0
0, 0
0, 0
0, 0
0, 0
0, 0
0, 0
0, 0
0, 0
0, 0
0, 0
0, 1
0, 0
0, 0
0, 0
0, 0
0, 0
0, 0
0, 0
0, 0
0, 0
0, 0
0, 0
0, 0
0, 0
1, 0
0, 0
0, 0
0, 0
0, 0
0, 0
0, 0
0, 0
0, 0
0, 0
0, 0
0, 0
0, 0
0, 0
0, 0
0, 0
0, 0
0, 0
0, 0
0, 0
0, 0
0, 0
0, 0
0, 0
0, 0
0, 0
0, 0
0, 0
0, 0
0, 0
0, 0
0, 0
0, 0
0, 0
0, 0
0, 0
0, 0
0, 0
0, 0
0, 0
0, 0
0, 0
0, 0
0, 0
0, 0
0, 0
0, 0
0, 0
0, 0
0, 0
0, 0
0, 0
0, 0
0, 0
0, 0
0, 0
0, 0
0, 0
0, 0
0, 0
0, 0
0, 0
0, 0
0, 0
0, 0
0, 0
0, 0
0, 0
0, 0
0, 0
0, 0
0, 0
0, 0
0, 0
0, 0
0, 0
0, 0
0, 0
0, 0
0, 0
0, 0
#ENDOFDATA     end of spectrum data