File: host_upload/06-09-2024/ps_0852/dump3/ps__0852shot_2525.msa
#FORMAT      : EMSA/MAS spectral data file
#VERSION     : TC202v2.0 PIXL
#TITLE       : N/A
#DATE        :       Date in the format DD-MMM-YYYY, for example 07-JUL-2010
#TIME        :             The time of day at which the spectrum was recorded, in 24-hour format
#OWNER       : PIXL Flight Model       (PIXL will use this to indicate which instrument took the data.)
#NPOINTS     : 4096     Number of data points in the spectrum (This can be zero for configuration only files)
#NCOLUMNS    : 2     Number of data columns in the spectrum (This can be zero for configuration only files)
#XUNITS      : eV
#YUNITS      : COUNTS
#DATATYPE    : YY
#XPERCHAN    : 7.862, 7.881   eV per channel (separate by commas if more than one detector)
#OFFSET      : 18.5, -22.4         eV of first channel  (separate by commas if more than one detector
#SIGNALTYPE  : XRF
#YP_TEMP     : 2.267
#LIVETIME    : 8.5672, 8.5469   seconds (separate by commas if more than one detector)
#REALTIME    : 10, 10.0   seconds (separate by commas if more than one detector)
#SPECTRUM    : start of spectrum data
0, 0
0, 0
0, 0
0, 0
0, 0
0, 0
0, 0
0, 0
0, 0
2, 1
3, 1
50, 50
61, 54
5, 6
6, 2
102, 119
441, 445
98, 104
3, 7
1, 1
12, 6
38, 36
20, 16
17, 14
32, 26
20, 21
15, 10
14, 10
2, 3
1, 2
3, 5
6, 4
4, 4
6, 13
14, 24
3, 6
0, 2
4, 5
4, 2
3, 4
3, 9
8, 16
10, 10
10, 11
4, 5
7, 19
2, 15
6, 4
9, 6
42, 13
106, 19
33, 14
8, 2
46, 39
101, 68
38, 15
32, 27
506, 627
2110, 2382
1526, 1400
162, 125
17, 22
23, 17
101, 150
331, 339
230, 196
27, 15
7, 12
9, 14
9, 7
1, 10
1, 11
7, 14
10, 3
5, 8
7, 3
3, 5
6, 4
9, 3
5, 1
16, 6
22, 2
20, 13
8, 9
8, 3
2, 6
3, 3
1, 2
3, 4
3, 5
1, 8
4, 4
1, 2
5, 2
2, 0
3, 1
0, 5
4, 0
5, 1
6, 1
10, 1
0, 3
3, 3
2, 1
3, 3
2, 2
1, 3
2, 4
1, 5
1, 4
0, 2
1, 2
6, 3
2, 1
4, 3
3, 2
3, 5
2, 6
3, 0
3, 3
0, 0
2, 7
3, 3
0, 0
1, 1
1, 0
1, 1
1, 3
0, 0
2, 1
0, 0
1, 0
2, 0
1, 1
0, 0
0, 1
0, 1
1, 1
0, 0
3, 0
1, 1
1, 3
0, 0
2, 0
0, 0
0, 0
0, 3
0, 0
0, 1
1, 0
0, 0
1, 0
1, 0
0, 0
0, 1
1, 0
0, 1
1, 0
0, 1
0, 2
0, 0
0, 1
0, 2
0, 2
0, 0
0, 0
0, 0
0, 0
0, 0
2, 2
0, 0
0, 1
0, 0
0, 1
0, 0
0, 0
1, 1
0, 0
0, 0
2, 0
0, 0
0, 0
0, 0
0, 0
0, 0
1, 0
0, 0
0, 1
0, 0
0, 0
0, 0
0, 0
0, 0
0, 0
0, 0
0, 0
0, 0
0, 0
0, 0
0, 0
0, 0
0, 0
0, 0
0, 0
0, 0
0, 0
0, 0
0, 0
0, 0
0, 0
0, 0
0, 0
0, 0
0, 0
0, 0
0, 0
0, 0
0, 0
0, 0
0, 0
0, 0
0, 0
0, 0
0, 0
0, 0
0, 0
0, 0
0, 0
0, 0
0, 0
0, 0
0, 0
0, 0
0, 0
0, 0
0, 0
0, 0
0, 0
0, 0
0, 0
0, 0
0, 0
0, 0
0, 0
0, 0
0, 0
0, 0
0, 0
0, 0
0, 0
0, 0
0, 0
0, 0
0, 0
0, 0
0, 0
0, 0
0, 0
0, 0
0, 0
0, 0
0, 0
0, 0
0, 0
0, 0
0, 0
0, 0
0, 0
0, 0
0, 0
0, 0
0, 0
0, 0
0, 0
0, 0
0, 0
0, 0
0, 0
0, 0
0, 0
0, 0
0, 0
0, 0
0, 0
0, 0
0, 0
0, 0
0, 0
0, 0
0, 0
0, 0
0, 0
0, 0
0, 0
#ENDOFDATA     end of spectrum data