File: host_upload/06-09-2024/ps_0852/dump3/ps__0852shot_2361.msa
#FORMAT      : EMSA/MAS spectral data file
#VERSION     : TC202v2.0 PIXL
#TITLE       : N/A
#DATE        :       Date in the format DD-MMM-YYYY, for example 07-JUL-2010
#TIME        :             The time of day at which the spectrum was recorded, in 24-hour format
#OWNER       : PIXL Flight Model       (PIXL will use this to indicate which instrument took the data.)
#NPOINTS     : 4096     Number of data points in the spectrum (This can be zero for configuration only files)
#NCOLUMNS    : 2     Number of data columns in the spectrum (This can be zero for configuration only files)
#XUNITS      : eV
#YUNITS      : COUNTS
#DATATYPE    : YY
#XPERCHAN    : 7.862, 7.881   eV per channel (separate by commas if more than one detector)
#OFFSET      : 18.5, -22.4         eV of first channel  (separate by commas if more than one detector
#SIGNALTYPE  : XRF
#YP_TEMP     : 2.364
#LIVETIME    : 8.54406, 8.57341   seconds (separate by commas if more than one detector)
#REALTIME    : 10, 10.0   seconds (separate by commas if more than one detector)
#SPECTRUM    : start of spectrum data
0, 0
0, 0
0, 0
0, 0
0, 0
0, 0
0, 0
0, 1
1, 10
0, 56
1, 14
42, 45
63, 45
13, 8
5, 2
108, 112
414, 426
113, 101
5, 7
6, 5
0, 3
6, 4
0, 12
7, 137
43, 2608
37, 3616
28, 383
17, 11
5, 2
2, 3
3, 1
3, 3
1, 5
7, 14
24, 33
7, 6
10, 7
10, 16
5, 17
3, 10
4, 7
4, 15
16, 9
19, 8
18, 2
9, 4
10, 6
8, 9
34, 16
42, 57
34, 30
12, 9
8, 9
30, 52
66, 65
25, 22
32, 32
462, 624
2073, 2385
1478, 1461
180, 151
28, 47
25, 77
96, 171
324, 353
235, 203
16, 20
9, 4
9, 14
8, 11
3, 6
3, 5
5, 7
17, 9
10, 13
7, 20
6, 26
4, 9
2, 2
9, 6
2, 4
5, 4
2, 14
10, 5
9, 3
12, 3
8, 5
4, 3
1, 2
1, 4
1, 0
1, 2
2, 3
3, 1
0, 2
3, 0
3, 1
9, 5
2, 13
2, 6
3, 3
2, 2
3, 2
2, 1
0, 4
3, 3
2, 1
2, 2
1, 2
3, 4
4, 1
4, 2
2, 2
4, 5
3, 2
0, 2
2, 4
2, 3
1, 1
1, 1
3, 1
2, 2
2, 6
2, 1
1, 1
0, 2
1, 2
0, 0
2, 0
2, 1
1, 0
1, 0
1, 1
1, 0
1, 2
1, 1
0, 0
0, 1
0, 1
2, 0
0, 2
1, 0
0, 0
1, 0
1, 0
1, 1
1, 1
1, 0
3, 0
1, 0
0, 0
0, 0
0, 0
0, 0
1, 0
1, 0
0, 1
0, 0
0, 0
0, 1
0, 0
1, 0
0, 0
0, 0
0, 0
0, 0
0, 1
1, 0
0, 0
0, 0
1, 0
0, 1
0, 1
1, 1
0, 0
1, 0
0, 0
0, 0
0, 0
0, 0
0, 0
0, 0
0, 0
0, 0
0, 1
0, 0
0, 0
0, 1
0, 0
0, 0
0, 0
0, 0
1, 0
0, 0
0, 0
0, 0
0, 0
0, 0
0, 0
0, 0
1, 0
0, 0
0, 0
0, 0
0, 0
0, 0
0, 0
0, 0
0, 0
0, 0
0, 0
0, 0
0, 0
0, 0
0, 0
0, 0
0, 0
0, 0
0, 0
0, 0
0, 0
0, 0
0, 0
0, 0
0, 0
0, 0
0, 0
0, 0
0, 0
0, 0
0, 0
0, 0
0, 0
0, 0
0, 0
0, 0
0, 0
0, 0
0, 0
0, 0
0, 0
0, 0
0, 0
0, 0
0, 0
0, 0
0, 0
0, 0
0, 0
0, 0
0, 0
0, 0
0, 0
0, 0
0, 0
0, 0
0, 0
0, 0
0, 0
0, 0
0, 0
0, 0
0, 0
0, 0
0, 0
0, 0
0, 0
0, 0
0, 0
0, 0
0, 0
0, 0
0, 0
0, 0
0, 0
0, 0
0, 0
0, 0
0, 0
0, 0
0, 0
0, 0
0, 0
0, 0
0, 0
0, 0
0, 0
0, 0
0, 0
0, 0
0, 0
0, 0
0, 0
0, 0
#ENDOFDATA     end of spectrum data