File: host_upload/06-09-2024/ps_0852/dump3/ps__0852shot_2037.msa
#FORMAT      : EMSA/MAS spectral data file
#VERSION     : TC202v2.0 PIXL
#TITLE       : N/A
#DATE        :       Date in the format DD-MMM-YYYY, for example 07-JUL-2010
#TIME        :             The time of day at which the spectrum was recorded, in 24-hour format
#OWNER       : PIXL Flight Model       (PIXL will use this to indicate which instrument took the data.)
#NPOINTS     : 4096     Number of data points in the spectrum (This can be zero for configuration only files)
#NCOLUMNS    : 2     Number of data columns in the spectrum (This can be zero for configuration only files)
#XUNITS      : eV
#YUNITS      : COUNTS
#DATATYPE    : YY
#XPERCHAN    : 7.862, 7.881   eV per channel (separate by commas if more than one detector)
#OFFSET      : 18.5, -22.4         eV of first channel  (separate by commas if more than one detector
#SIGNALTYPE  : XRF
#YP_TEMP     : 2.3
#LIVETIME    : 8.5715, 8.52255   seconds (separate by commas if more than one detector)
#REALTIME    : 10, 10.0   seconds (separate by commas if more than one detector)
#SPECTRUM    : start of spectrum data
0, 0
0, 0
0, 0
0, 0
0, 0
0, 0
0, 0
1, 0
0, 2
2, 1
1, 1
34, 52
60, 52
14, 6
4, 8
98, 109
452, 429
121, 110
2, 6
1, 1
0, 2
3, 4
4, 3
10, 17
70, 43
90, 53
27, 14
12, 11
7, 4
2, 4
3, 3
2, 4
3, 7
12, 15
13, 19
4, 5
2, 6
6, 5
7, 6
3, 7
3, 5
10, 11
22, 9
10, 20
3, 10
10, 12
7, 4
8, 6
18, 12
20, 26
8, 52
9, 26
13, 12
42, 43
70, 54
28, 21
23, 44
448, 615
2102, 2471
1514, 1455
194, 149
21, 13
19, 27
96, 137
329, 345
220, 225
31, 24
10, 10
17, 13
7, 11
4, 6
3, 8
2, 6
10, 6
5, 6
7, 6
3, 4
2, 4
5, 11
9, 10
2, 3
1, 8
5, 4
3, 1
5, 2
4, 6
1, 8
3, 4
2, 7
5, 5
2, 2
3, 4
1, 4
5, 5
4, 3
3, 5
2, 2
2, 1
6, 0
5, 3
3, 4
2, 3
3, 9
0, 2
3, 5
5, 3
0, 0
0, 4
3, 1
2, 4
0, 4
2, 3
4, 4
3, 1
2, 3
5, 3
4, 5
3, 2
3, 0
1, 1
2, 2
2, 0
0, 1
0, 4
2, 2
2, 0
0, 1
3, 2
0, 2
2, 0
1, 0
0, 0
1, 1
0, 1
0, 1
2, 0
2, 1
0, 1
1, 1
0, 1
0, 1
0, 1
1, 1
1, 1
0, 2
1, 2
0, 3
0, 0
0, 0
0, 4
0, 0
1, 0
0, 0
0, 0
0, 0
0, 1
1, 1
0, 0
0, 0
1, 0
0, 1
1, 1
0, 0
0, 0
1, 1
0, 0
0, 0
1, 1
0, 0
1, 0
0, 0
0, 0
0, 0
1, 0
0, 1
0, 0
1, 1
2, 0
0, 0
0, 0
0, 0
0, 0
0, 0
0, 0
0, 0
0, 0
0, 0
0, 0
0, 0
0, 0
0, 0
0, 0
0, 0
0, 0
0, 0
0, 0
0, 0
0, 0
0, 1
0, 0
0, 0
0, 0
0, 0
0, 0
0, 0
0, 0
0, 0
0, 0
0, 0
0, 0
1, 0
0, 0
0, 0
0, 0
0, 0
0, 0
0, 0
0, 0
0, 0
0, 0
0, 0
0, 0
0, 0
0, 0
0, 0
0, 0
0, 0
0, 0
0, 0
0, 0
0, 0
0, 0
0, 0
0, 0
0, 0
0, 0
0, 0
0, 0
0, 0
0, 0
0, 0
0, 0
0, 0
0, 0
0, 0
0, 0
0, 0
0, 0
0, 0
0, 0
0, 0
0, 0
0, 0
0, 0
0, 0
0, 0
0, 0
0, 0
0, 0
0, 0
0, 0
0, 0
0, 0
0, 0
0, 0
0, 0
0, 0
0, 0
0, 0
0, 0
0, 0
0, 0
0, 0
0, 0
0, 0
0, 0
0, 0
0, 0
0, 0
0, 0
0, 0
0, 0
0, 0
0, 0
0, 0
0, 0
0, 0
0, 0
0, 0
0, 0
0, 0
0, 0
0, 0
0, 0
#ENDOFDATA     end of spectrum data