File: host_upload/06-09-2024/ps_0852/dump3/ps__0852shot_2200.msa
#FORMAT      : EMSA/MAS spectral data file
#VERSION     : TC202v2.0 PIXL
#TITLE       : N/A
#DATE        :       Date in the format DD-MMM-YYYY, for example 07-JUL-2010
#TIME        :             The time of day at which the spectrum was recorded, in 24-hour format
#OWNER       : PIXL Flight Model       (PIXL will use this to indicate which instrument took the data.)
#NPOINTS     : 4096     Number of data points in the spectrum (This can be zero for configuration only files)
#NCOLUMNS    : 2     Number of data columns in the spectrum (This can be zero for configuration only files)
#XUNITS      : eV
#YUNITS      : COUNTS
#DATATYPE    : YY
#XPERCHAN    : 7.862, 7.881   eV per channel (separate by commas if more than one detector)
#OFFSET      : 18.5, -22.4         eV of first channel  (separate by commas if more than one detector
#SIGNALTYPE  : XRF
#YP_TEMP     : 2.364
#LIVETIME    : 8.57127, 8.56392   seconds (separate by commas if more than one detector)
#REALTIME    : 10, 10.0   seconds (separate by commas if more than one detector)
#SPECTRUM    : start of spectrum data
0, 0
0, 0
0, 0
0, 0
0, 0
0, 0
0, 0
0, 0
1, 1
2, 1
1, 6
40, 39
71, 52
5, 8
6, 3
78, 105
478, 371
107, 93
2, 2
3, 0
0, 3
6, 0
2, 2
2, 2
25, 29
32, 23
24, 11
4, 15
6, 2
4, 1
1, 4
6, 6
20, 2
17, 13
12, 15
2, 4
3, 8
4, 7
3, 5
5, 8
2, 15
9, 39
16, 9
5, 7
3, 6
3, 3
2, 7
6, 5
5, 9
12, 17
9, 12
6, 9
14, 15
56, 37
82, 48
38, 15
32, 49
470, 614
2293, 2361
1677, 1324
213, 140
24, 16
17, 21
112, 127
327, 346
222, 179
25, 32
7, 9
8, 9
15, 6
7, 1
4, 3
6, 1
8, 8
2, 6
4, 11
6, 3
6, 5
1, 3
7, 11
8, 6
7, 4
15, 2
9, 6
4, 4
7, 8
2, 5
11, 8
5, 2
1, 3
2, 3
4, 1
8, 2
2, 5
4, 5
4, 1
3, 2
5, 4
8, 5
8, 3
2, 4
2, 1
3, 3
4, 1
2, 5
2, 2
5, 2
1, 1
4, 3
6, 2
4, 4
2, 2
1, 2
1, 5
4, 5
1, 2
4, 4
4, 2
4, 0
4, 2
1, 3
3, 4
2, 5
2, 2
2, 1
1, 2
2, 1
0, 0
0, 2
1, 1
1, 0
1, 1
2, 1
1, 0
0, 1
0, 0
0, 2
0, 0
0, 0
0, 1
0, 0
0, 1
0, 1
0, 1
1, 0
0, 0
0, 0
0, 0
0, 1
1, 0
0, 0
1, 0
0, 0
0, 1
1, 0
0, 0
1, 1
0, 1
1, 0
0, 0
0, 0
0, 0
0, 0
0, 1
0, 1
0, 0
0, 3
0, 0
0, 0
0, 0
0, 0
0, 0
1, 0
0, 0
2, 0
0, 1
0, 0
0, 1
0, 0
0, 0
1, 0
0, 0
0, 0
1, 0
1, 0
1, 0
0, 0
1, 0
0, 0
0, 0
1, 0
0, 1
1, 0
0, 0
0, 0
0, 0
0, 0
0, 0
0, 0
1, 0
0, 0
0, 0
0, 0
0, 0
0, 0
0, 1
0, 0
0, 0
0, 0
0, 0
0, 0
0, 0
0, 0
0, 0
0, 0
0, 0
0, 0
0, 0
0, 0
0, 0
0, 0
0, 0
0, 0
0, 0
0, 0
0, 0
0, 0
0, 0
0, 0
0, 0
0, 0
1, 0
0, 0
0, 0
0, 0
0, 0
0, 0
0, 0
0, 0
0, 0
0, 0
0, 0
0, 0
0, 0
0, 0
0, 0
0, 0
0, 0
0, 0
0, 0
0, 0
0, 0
0, 0
0, 0
0, 0
0, 0
0, 0
0, 0
0, 0
0, 0
0, 0
0, 0
0, 0
0, 0
0, 0
0, 0
0, 0
0, 0
0, 0
0, 0
0, 0
0, 0
0, 0
0, 0
0, 0
0, 0
0, 0
0, 0
0, 0
0, 0
0, 0
0, 0
0, 0
0, 0
0, 0
0, 0
0, 0
0, 0
0, 0
0, 0
0, 0
0, 0
0, 0
0, 0
#ENDOFDATA     end of spectrum data