File: host_upload/06-09-2024/ps_0852/dump3/ps__0852shot_2333.msa
#FORMAT      : EMSA/MAS spectral data file
#VERSION     : TC202v2.0 PIXL
#TITLE       : N/A
#DATE        :       Date in the format DD-MMM-YYYY, for example 07-JUL-2010
#TIME        :             The time of day at which the spectrum was recorded, in 24-hour format
#OWNER       : PIXL Flight Model       (PIXL will use this to indicate which instrument took the data.)
#NPOINTS     : 4096     Number of data points in the spectrum (This can be zero for configuration only files)
#NCOLUMNS    : 2     Number of data columns in the spectrum (This can be zero for configuration only files)
#XUNITS      : eV
#YUNITS      : COUNTS
#DATATYPE    : YY
#XPERCHAN    : 7.862, 7.881   eV per channel (separate by commas if more than one detector)
#OFFSET      : 18.5, -22.4         eV of first channel  (separate by commas if more than one detector
#SIGNALTYPE  : XRF
#YP_TEMP     : 2.364
#LIVETIME    : 8.56015, 8.53857   seconds (separate by commas if more than one detector)
#REALTIME    : 10, 10.0   seconds (separate by commas if more than one detector)
#SPECTRUM    : start of spectrum data
0, 0
0, 0
0, 0
0, 0
0, 0
0, 0
0, 0
0, 0
1, 0
0, 0
1, 2
43, 40
58, 52
10, 4
8, 2
103, 103
447, 411
109, 91
7, 4
3, 1
6, 11
62, 55
22, 21
13, 10
25, 25
30, 29
19, 13
6, 13
6, 2
4, 3
6, 5
1, 2
5, 3
13, 8
17, 13
7, 4
3, 4
3, 7
6, 26
8, 12
5, 6
12, 12
17, 18
22, 28
15, 19
11, 5
7, 13
8, 7
16, 8
22, 20
20, 11
12, 18
9, 24
43, 50
64, 59
65, 20
145, 27
566, 565
2302, 2271
1621, 1384
188, 132
15, 16
21, 24
101, 121
362, 371
215, 181
41, 30
15, 5
15, 15
6, 4
7, 3
7, 5
5, 4
2, 7
8, 5
6, 8
17, 4
31, 4
10, 9
2, 4
5, 4
3, 6
2, 1
8, 3
3, 6
1, 6
7, 4
6, 5
2, 4
7, 3
7, 8
3, 1
3, 1
3, 2
5, 5
6, 3
5, 6
0, 3
5, 1
2, 3
1, 0
2, 0
1, 3
3, 2
2, 1
1, 0
1, 2
1, 2
3, 2
2, 7
3, 1
0, 2
4, 1
1, 0
6, 2
3, 2
8, 8
1, 4
6, 1
1, 0
0, 3
1, 0
2, 3
6, 1
2, 2
2, 0
0, 1
0, 1
2, 0
1, 2
2, 1
0, 0
0, 1
2, 0
2, 0
0, 1
2, 0
1, 0
1, 0
2, 2
0, 0
2, 1
2, 2
0, 0
0, 2
0, 0
0, 0
0, 0
1, 0
1, 0
1, 0
1, 0
1, 1
1, 1
1, 1
0, 1
0, 0
0, 0
0, 0
0, 0
0, 0
0, 0
0, 1
0, 0
0, 0
0, 0
0, 0
1, 0
1, 0
0, 0
0, 0
0, 1
0, 0
0, 1
0, 2
0, 0
0, 0
1, 0
0, 0
0, 0
0, 0
0, 0
0, 0
0, 1
1, 1
0, 0
0, 0
0, 0
0, 0
0, 0
0, 0
0, 0
0, 0
0, 0
0, 0
0, 0
0, 0
0, 0
0, 0
0, 0
0, 0
0, 0
0, 0
0, 0
0, 0
0, 0
0, 0
0, 0
0, 0
0, 0
0, 0
0, 0
0, 0
0, 0
0, 0
0, 0
0, 0
0, 0
0, 0
0, 0
0, 0
0, 0
0, 0
0, 0
0, 0
0, 0
0, 0
0, 0
0, 0
0, 0
1, 0
0, 0
0, 0
0, 0
0, 0
0, 0
0, 0
0, 0
0, 0
0, 0
0, 0
0, 0
0, 0
0, 0
0, 0
0, 0
0, 0
0, 0
0, 0
0, 0
0, 0
0, 0
0, 0
0, 0
0, 0
0, 0
0, 0
0, 0
0, 0
0, 0
0, 0
0, 0
0, 0
0, 0
0, 0
0, 0
0, 0
0, 0
0, 0
0, 0
0, 0
0, 0
0, 0
0, 0
0, 0
0, 0
0, 0
0, 0
0, 0
0, 0
0, 0
0, 0
0, 0
0, 0
0, 0
0, 0
0, 0
0, 0
0, 0
0, 0
0, 0
0, 0
0, 0
0, 0
#ENDOFDATA     end of spectrum data