File: host_upload/06-09-2024/ps_0852/dump3/ps__0852shot_2058.msa
#FORMAT      : EMSA/MAS spectral data file
#VERSION     : TC202v2.0 PIXL
#TITLE       : N/A
#DATE        :       Date in the format DD-MMM-YYYY, for example 07-JUL-2010
#TIME        :             The time of day at which the spectrum was recorded, in 24-hour format
#OWNER       : PIXL Flight Model       (PIXL will use this to indicate which instrument took the data.)
#NPOINTS     : 4096     Number of data points in the spectrum (This can be zero for configuration only files)
#NCOLUMNS    : 2     Number of data columns in the spectrum (This can be zero for configuration only files)
#XUNITS      : eV
#YUNITS      : COUNTS
#DATATYPE    : YY
#XPERCHAN    : 7.862, 7.881   eV per channel (separate by commas if more than one detector)
#OFFSET      : 18.5, -22.4         eV of first channel  (separate by commas if more than one detector
#SIGNALTYPE  : XRF
#YP_TEMP     : 2.203
#LIVETIME    : 8.52874, 8.49024   seconds (separate by commas if more than one detector)
#REALTIME    : 10, 10.0   seconds (separate by commas if more than one detector)
#SPECTRUM    : start of spectrum data
0, 0
0, 0
0, 0
0, 0
0, 0
0, 0
0, 0
0, 0
0, 1
2, 0
1, 1
51, 38
56, 56
9, 4
5, 2
98, 108
415, 391
94, 94
4, 4
2, 3
2, 0
2, 5
2, 5
9, 5
34, 16
44, 29
23, 18
12, 15
4, 6
4, 3
2, 0
1, 3
1, 2
7, 8
12, 9
3, 1
3, 1
4, 4
7, 9
10, 2
10, 8
13, 8
10, 16
12, 17
2, 10
6, 10
10, 8
4, 10
5, 9
14, 23
24, 40
66, 13
101, 12
87, 47
57, 58
15, 16
30, 38
480, 592
2160, 2243
1521, 1423
193, 157
10, 13
21, 34
82, 109
307, 322
236, 179
39, 31
7, 11
11, 10
18, 8
5, 4
2, 2
5, 4
4, 3
6, 6
15, 7
6, 5
5, 2
8, 9
4, 7
3, 10
4, 7
6, 2
7, 3
1, 6
5, 5
4, 2
2, 1
4, 7
1, 6
5, 8
3, 9
1, 6
2, 15
3, 4
2, 5
2, 5
2, 3
1, 1
2, 3
0, 3
3, 3
5, 3
6, 1
6, 3
5, 5
2, 1
2, 1
2, 2
4, 1
3, 1
2, 0
0, 4
2, 1
3, 2
1, 1
3, 1
3, 7
0, 2
0, 1
0, 2
1, 2
0, 0
1, 2
2, 4
1, 2
1, 1
0, 1
0, 3
0, 1
2, 0
2, 0
0, 3
1, 0
1, 0
1, 0
0, 1
0, 0
0, 0
2, 0
0, 1
0, 1
0, 1
0, 0
1, 0
1, 0
0, 0
0, 1
0, 0
0, 0
0, 0
0, 1
1, 0
1, 0
3, 0
0, 0
0, 0
0, 1
0, 0
0, 1
0, 0
0, 0
0, 0
0, 0
0, 0
0, 0
0, 0
0, 0
1, 0
0, 0
0, 0
0, 0
0, 0
0, 1
0, 0
0, 0
1, 0
0, 0
0, 0
1, 0
0, 1
0, 1
0, 0
0, 1
0, 0
0, 1
0, 0
0, 0
0, 0
1, 0
0, 0
0, 0
1, 0
0, 0
0, 0
0, 0
0, 0
0, 0
0, 0
0, 0
0, 0
0, 0
0, 0
0, 0
0, 0
0, 0
0, 0
0, 0
0, 0
0, 0
0, 0
0, 0
0, 0
0, 0
0, 0
1, 0
0, 0
0, 0
0, 0
0, 0
0, 0
0, 0
0, 0
0, 0
0, 0
0, 0
0, 0
0, 0
0, 0
0, 0
0, 0
0, 0
0, 0
0, 0
0, 0
0, 0
0, 0
0, 0
0, 0
0, 0
0, 0
0, 0
0, 0
0, 0
0, 0
0, 0
0, 0
0, 0
0, 0
0, 0
0, 0
0, 0
0, 0
0, 0
0, 0
0, 0
0, 0
0, 0
0, 0
0, 0
0, 0
0, 0
0, 0
0, 0
0, 0
0, 0
0, 0
0, 0
0, 0
0, 0
0, 0
0, 0
0, 0
0, 0
0, 0
0, 0
0, 0
0, 0
0, 0
0, 0
0, 0
0, 0
0, 0
0, 0
0, 0
0, 0
0, 0
0, 0
0, 0
0, 0
0, 0
0, 0
0, 0
0, 0
#ENDOFDATA     end of spectrum data