File: host_upload/06-09-2024/ps_0852/dump3/ps__0852shot_2417.msa
#FORMAT      : EMSA/MAS spectral data file
#VERSION     : TC202v2.0 PIXL
#TITLE       : N/A
#DATE        :       Date in the format DD-MMM-YYYY, for example 07-JUL-2010
#TIME        :             The time of day at which the spectrum was recorded, in 24-hour format
#OWNER       : PIXL Flight Model       (PIXL will use this to indicate which instrument took the data.)
#NPOINTS     : 4096     Number of data points in the spectrum (This can be zero for configuration only files)
#NCOLUMNS    : 2     Number of data columns in the spectrum (This can be zero for configuration only files)
#XUNITS      : eV
#YUNITS      : COUNTS
#DATATYPE    : YY
#XPERCHAN    : 7.862, 7.881   eV per channel (separate by commas if more than one detector)
#OFFSET      : 18.5, -22.4         eV of first channel  (separate by commas if more than one detector
#SIGNALTYPE  : XRF
#YP_TEMP     : 2.524
#LIVETIME    : 8.56191, 8.54151   seconds (separate by commas if more than one detector)
#REALTIME    : 10, 10.0   seconds (separate by commas if more than one detector)
#SPECTRUM    : start of spectrum data
0, 0
0, 0
0, 0
0, 0
0, 0
0, 0
0, 0
0, 0
1, 0
2, 1
3, 1
54, 41
60, 60
3, 5
4, 5
105, 103
472, 414
117, 92
4, 3
2, 1
3, 1
2, 3
3, 3
5, 2
30, 18
51, 21
21, 20
13, 11
5, 5
4, 3
2, 3
0, 1
0, 6
12, 18
19, 16
4, 2
4, 3
11, 3
3, 3
28, 3
44, 3
17, 6
13, 16
10, 11
8, 3
4, 11
4, 21
1, 27
6, 16
10, 37
12, 48
21, 21
40, 11
71, 38
63, 46
27, 15
35, 29
491, 555
2186, 2164
1665, 1363
216, 151
14, 22
19, 47
100, 123
343, 366
252, 170
37, 28
11, 7
11, 13
6, 4
6, 3
3, 4
5, 3
3, 7
5, 5
8, 7
5, 4
6, 7
9, 8
5, 7
4, 11
3, 6
2, 9
3, 2
0, 4
2, 3
4, 2
2, 3
1, 5
15, 6
19, 3
22, 4
13, 7
5, 12
2, 7
2, 2
1, 3
3, 1
2, 1
3, 3
4, 3
2, 1
3, 3
2, 2
2, 0
3, 1
5, 1
3, 1
3, 3
1, 2
2, 0
2, 0
2, 2
4, 1
1, 1
4, 1
4, 4
4, 3
6, 2
3, 1
0, 3
1, 1
3, 2
0, 0
1, 2
1, 2
1, 1
0, 0
0, 2
0, 1
0, 1
0, 0
2, 2
0, 2
0, 1
0, 0
0, 1
0, 0
0, 0
2, 0
1, 1
0, 1
0, 0
1, 2
2, 1
2, 1
0, 1
0, 0
0, 0
0, 1
0, 0
1, 0
1, 0
0, 0
1, 1
2, 0
1, 0
0, 0
0, 0
0, 2
0, 0
0, 0
1, 0
1, 0
1, 0
1, 0
0, 0
0, 0
1, 0
0, 0
0, 1
2, 1
1, 0
0, 0
0, 0
0, 1
0, 0
0, 0
0, 0
0, 0
0, 0
0, 0
1, 1
0, 0
0, 0
0, 0
1, 0
1, 0
0, 0
0, 0
2, 0
0, 0
0, 1
0, 0
0, 0
0, 0
0, 0
0, 0
0, 0
0, 0
0, 0
0, 0
0, 0
0, 0
0, 0
0, 0
0, 0
0, 0
0, 0
0, 0
0, 0
0, 0
0, 0
0, 0
0, 0
0, 0
0, 0
0, 0
0, 0
0, 0
0, 0
0, 0
0, 0
0, 0
0, 0
0, 0
0, 0
0, 0
0, 0
0, 0
0, 0
0, 0
0, 0
0, 0
0, 0
0, 0
0, 0
0, 0
0, 0
0, 0
0, 0
0, 0
0, 0
0, 0
0, 0
0, 0
0, 0
0, 0
0, 0
0, 0
0, 0
0, 0
0, 0
0, 0
0, 0
0, 0
0, 0
0, 0
0, 0
0, 0
0, 0
0, 0
0, 0
0, 0
0, 0
0, 0
0, 0
0, 0
0, 0
0, 0
0, 0
0, 0
0, 0
0, 0
0, 0
0, 0
0, 0
0, 0
0, 0
0, 0
0, 0
0, 0
0, 0
0, 0
0, 0
0, 0
0, 0
0, 0
0, 0
0, 0
0, 0
0, 0
0, 0
0, 0
#ENDOFDATA     end of spectrum data