File: host_upload/06-09-2024/ps_0852/dump3/ps__0852shot_2338.msa
#FORMAT      : EMSA/MAS spectral data file
#VERSION     : TC202v2.0 PIXL
#TITLE       : N/A
#DATE        :       Date in the format DD-MMM-YYYY, for example 07-JUL-2010
#TIME        :             The time of day at which the spectrum was recorded, in 24-hour format
#OWNER       : PIXL Flight Model       (PIXL will use this to indicate which instrument took the data.)
#NPOINTS     : 4096     Number of data points in the spectrum (This can be zero for configuration only files)
#NCOLUMNS    : 2     Number of data columns in the spectrum (This can be zero for configuration only files)
#XUNITS      : eV
#YUNITS      : COUNTS
#DATATYPE    : YY
#XPERCHAN    : 7.862, 7.881   eV per channel (separate by commas if more than one detector)
#OFFSET      : 18.5, -22.4         eV of first channel  (separate by commas if more than one detector
#SIGNALTYPE  : XRF
#YP_TEMP     : 2.332
#LIVETIME    : 8.56763, 8.54565   seconds (separate by commas if more than one detector)
#REALTIME    : 10, 10.0   seconds (separate by commas if more than one detector)
#SPECTRUM    : start of spectrum data
0, 0
0, 0
0, 0
0, 0
0, 0
0, 0
0, 0
0, 0
2, 1
3, 2
3, 3
34, 20
53, 47
5, 10
10, 12
95, 82
374, 349
82, 74
9, 5
5, 6
59, 66
313, 329
129, 141
40, 45
72, 100
57, 54
41, 39
18, 21
8, 3
4, 8
13, 14
3, 8
1, 5
8, 14
17, 16
4, 2
7, 5
4, 6
4, 9
4, 6
13, 18
10, 26
13, 30
8, 10
11, 7
9, 12
8, 12
8, 7
6, 6
9, 7
10, 13
8, 6
12, 16
37, 47
49, 60
20, 22
34, 33
474, 564
2234, 2299
1649, 1337
205, 124
16, 15
19, 32
88, 115
362, 354
214, 188
43, 22
8, 10
11, 10
19, 11
18, 2
23, 6
5, 6
4, 3
5, 10
6, 9
9, 13
1, 8
6, 2
6, 7
4, 3
8, 5
3, 3
5, 16
4, 7
2, 4
2, 3
4, 4
7, 5
0, 1
6, 1
3, 5
3, 0
3, 5
3, 5
4, 5
1, 2
0, 2
4, 5
2, 2
4, 1
2, 2
4, 1
3, 3
2, 2
1, 1
2, 1
2, 1
1, 2
3, 3
2, 2
0, 2
2, 2
2, 0
3, 2
3, 3
2, 3
3, 1
2, 4
0, 0
1, 1
1, 0
2, 1
1, 1
0, 2
0, 0
1, 0
0, 4
2, 0
0, 1
3, 1
0, 2
0, 1
1, 3
2, 3
1, 1
2, 2
2, 1
0, 1
0, 1
1, 0
0, 2
1, 0
2, 0
0, 1
0, 0
0, 2
1, 0
1, 1
0, 0
0, 0
1, 0
1, 0
0, 0
0, 0
1, 0
0, 0
1, 0
0, 0
0, 0
0, 0
0, 0
0, 0
0, 0
1, 0
0, 0
0, 0
0, 2
0, 0
0, 0
0, 1
1, 1
0, 0
0, 0
0, 0
0, 0
0, 0
0, 0
1, 0
1, 0
0, 0
0, 1
0, 0
1, 1
0, 1
0, 0
1, 0
0, 0
0, 1
0, 0
0, 0
0, 0
0, 1
0, 0
0, 0
0, 0
0, 0
0, 0
0, 1
0, 0
0, 0
1, 0
1, 0
0, 0
0, 0
0, 0
0, 0
0, 0
0, 0
0, 0
0, 0
0, 0
0, 0
0, 0
0, 0
0, 0
0, 0
0, 0
0, 0
0, 0
0, 0
0, 0
0, 0
0, 0
0, 0
0, 0
0, 0
0, 0
0, 0
0, 0
0, 0
0, 0
0, 0
0, 0
0, 0
0, 0
0, 0
0, 0
0, 0
0, 0
0, 0
0, 0
0, 0
0, 0
0, 0
0, 0
0, 0
0, 0
0, 0
0, 0
0, 0
0, 0
0, 0
0, 0
0, 0
0, 0
0, 0
0, 0
0, 0
0, 0
0, 0
0, 0
0, 0
0, 0
0, 0
0, 0
0, 0
0, 0
0, 0
0, 0
0, 0
0, 0
0, 0
0, 0
0, 0
0, 0
0, 0
0, 0
0, 0
0, 0
0, 0
0, 0
0, 0
0, 0
0, 0
0, 0
0, 0
0, 0
0, 0
0, 0
0, 0
0, 0
0, 0
0, 0
#ENDOFDATA     end of spectrum data