File: host_upload/06-09-2024/ps_0852/dump3/ps__0852shot_2083.msa
#FORMAT      : EMSA/MAS spectral data file
#VERSION     : TC202v2.0 PIXL
#TITLE       : N/A
#DATE        :       Date in the format DD-MMM-YYYY, for example 07-JUL-2010
#TIME        :             The time of day at which the spectrum was recorded, in 24-hour format
#OWNER       : PIXL Flight Model       (PIXL will use this to indicate which instrument took the data.)
#NPOINTS     : 4096     Number of data points in the spectrum (This can be zero for configuration only files)
#NCOLUMNS    : 2     Number of data columns in the spectrum (This can be zero for configuration only files)
#XUNITS      : eV
#YUNITS      : COUNTS
#DATATYPE    : YY
#XPERCHAN    : 7.862, 7.881   eV per channel (separate by commas if more than one detector)
#OFFSET      : 18.5, -22.4         eV of first channel  (separate by commas if more than one detector
#SIGNALTYPE  : XRF
#YP_TEMP     : 2.364
#LIVETIME    : 8.54434, 8.5631   seconds (separate by commas if more than one detector)
#REALTIME    : 10, 10.0   seconds (separate by commas if more than one detector)
#SPECTRUM    : start of spectrum data
0, 0
0, 0
0, 0
0, 0
0, 0
0, 0
0, 0
0, 0
1, 0
2, 3
1, 0
49, 44
68, 67
4, 9
4, 0
91, 89
414, 448
111, 88
5, 5
2, 3
11, 5
31, 26
23, 15
3, 5
79, 24
172, 19
26, 3
12, 13
6, 3
3, 2
1, 1
1, 1
2, 4
8, 12
12, 13
7, 5
6, 2
24, 2
51, 2
13, 2
7, 3
10, 7
14, 25
7, 102
5, 100
5, 18
7, 6
3, 6
7, 9
22, 15
28, 6
49, 8
13, 8
43, 41
68, 58
16, 35
30, 63
454, 576
2022, 2325
1622, 1448
211, 175
25, 17
41, 28
149, 119
333, 333
209, 171
32, 25
9, 11
7, 15
6, 6
5, 3
7, 4
0, 11
7, 2
21, 3
54, 5
62, 3
16, 5
8, 5
4, 8
6, 4
2, 1
3, 7
4, 4
5, 5
2, 7
1, 6
2, 7
0, 2
2, 4
5, 4
1, 5
1, 2
1, 5
4, 5
3, 5
2, 2
2, 6
1, 2
5, 5
9, 2
9, 4
0, 2
5, 4
1, 1
2, 0
1, 1
2, 0
3, 0
1, 2
2, 1
2, 2
2, 3
4, 1
5, 2
1, 3
2, 2
5, 2
0, 3
1, 2
0, 0
1, 2
1, 3
1, 4
1, 2
1, 2
1, 1
1, 2
1, 2
1, 0
2, 1
0, 1
2, 1
1, 2
0, 1
1, 1
2, 3
2, 0
1, 1
0, 1
1, 1
1, 2
0, 0
0, 1
0, 0
0, 1
0, 1
0, 0
2, 0
1, 0
0, 0
0, 0
0, 2
0, 1
0, 0
0, 0
1, 0
0, 0
0, 0
0, 1
1, 0
0, 0
0, 0
0, 0
0, 0
0, 1
0, 0
1, 1
0, 0
1, 1
0, 0
0, 0
0, 0
0, 1
0, 0
0, 0
0, 0
0, 0
0, 0
0, 0
1, 0
0, 0
0, 1
0, 0
0, 1
1, 0
0, 0
1, 0
0, 1
0, 0
0, 1
0, 0
0, 0
0, 0
0, 0
0, 0
1, 0
0, 0
0, 0
0, 0
0, 0
0, 0
0, 0
0, 0
0, 0
0, 0
0, 0
0, 0
0, 0
0, 0
0, 0
0, 0
0, 0
0, 0
0, 0
0, 0
0, 0
0, 0
0, 0
0, 0
0, 0
0, 0
0, 0
0, 0
0, 0
0, 1
0, 0
1, 0
0, 0
0, 0
0, 0
0, 0
0, 0
0, 0
0, 0
0, 0
0, 0
0, 0
0, 0
0, 0
0, 0
0, 0
0, 0
0, 0
0, 0
0, 0
0, 0
0, 0
0, 0
0, 0
0, 0
0, 0
0, 0
0, 0
0, 0
0, 0
0, 0
0, 0
0, 0
0, 0
0, 0
0, 0
0, 0
0, 0
0, 0
0, 0
0, 0
0, 0
0, 0
0, 0
0, 0
0, 0
0, 0
0, 0
0, 0
0, 0
0, 0
0, 0
0, 0
0, 0
0, 0
0, 0
0, 0
0, 0
0, 0
0, 0
0, 0
0, 0
0, 0
0, 0
0, 0
0, 0
0, 0
0, 0
#ENDOFDATA     end of spectrum data