File: host_upload/06-09-2024/ps_0852/dump3/ps__0852shot_2293.msa
#FORMAT      : EMSA/MAS spectral data file
#VERSION     : TC202v2.0 PIXL
#TITLE       : N/A
#DATE        :       Date in the format DD-MMM-YYYY, for example 07-JUL-2010
#TIME        :             The time of day at which the spectrum was recorded, in 24-hour format
#OWNER       : PIXL Flight Model       (PIXL will use this to indicate which instrument took the data.)
#NPOINTS     : 4096     Number of data points in the spectrum (This can be zero for configuration only files)
#NCOLUMNS    : 2     Number of data columns in the spectrum (This can be zero for configuration only files)
#XUNITS      : eV
#YUNITS      : COUNTS
#DATATYPE    : YY
#XPERCHAN    : 7.862, 7.881   eV per channel (separate by commas if more than one detector)
#OFFSET      : 18.5, -22.4         eV of first channel  (separate by commas if more than one detector
#SIGNALTYPE  : XRF
#YP_TEMP     : 2.396
#LIVETIME    : 8.56979, 8.55024   seconds (separate by commas if more than one detector)
#REALTIME    : 10, 10.0   seconds (separate by commas if more than one detector)
#SPECTRUM    : start of spectrum data
0, 0
0, 0
0, 0
0, 0
0, 0
0, 0
0, 0
0, 1
0, 1
0, 4
2, 2
43, 44
53, 45
3, 5
8, 6
87, 100
317, 391
85, 90
4, 4
0, 2
20, 25
112, 141
43, 49
21, 24
42, 45
38, 42
21, 23
12, 23
8, 7
1, 2
4, 9
5, 4
5, 4
11, 14
10, 23
5, 5
3, 2
3, 3
5, 6
1, 4
6, 3
8, 14
11, 20
8, 33
7, 32
5, 13
9, 8
2, 11
7, 11
14, 17
10, 11
9, 21
14, 24
37, 60
47, 66
55, 26
137, 29
481, 614
2053, 2490
1503, 1499
197, 151
17, 22
22, 24
89, 125
308, 398
199, 201
34, 24
15, 12
21, 19
34, 5
22, 2
16, 6
8, 3
6, 5
3, 4
7, 8
10, 4
16, 3
5, 6
6, 6
10, 7
3, 5
3, 4
1, 7
7, 4
3, 3
4, 3
1, 3
5, 3
3, 3
1, 2
1, 3
6, 8
4, 20
5, 16
2, 6
3, 2
8, 5
5, 5
3, 0
1, 1
1, 1
1, 3
1, 2
2, 3
1, 0
2, 2
0, 4
2, 3
1, 0
2, 5
4, 4
2, 1
3, 3
5, 5
5, 7
3, 2
10, 3
1, 5
1, 5
0, 1
2, 3
4, 1
0, 3
0, 4
2, 0
0, 4
2, 2
2, 0
0, 2
2, 3
2, 0
1, 1
2, 0
1, 1
1, 0
0, 2
0, 1
0, 1
0, 0
1, 2
0, 2
0, 2
1, 0
2, 0
0, 0
1, 0
0, 1
0, 0
1, 1
1, 2
0, 1
0, 1
0, 0
0, 1
0, 1
0, 0
1, 1
0, 0
1, 0
1, 0
0, 1
0, 0
1, 1
0, 0
0, 0
0, 0
0, 0
0, 1
1, 0
0, 0
0, 0
0, 0
0, 0
1, 1
0, 0
0, 0
0, 0
0, 0
0, 0
0, 0
1, 0
0, 0
0, 0
1, 0
0, 0
0, 0
0, 0
0, 0
0, 0
0, 0
0, 0
1, 0
0, 0
0, 0
0, 0
0, 0
0, 0
0, 0
0, 0
0, 0
0, 0
0, 0
0, 0
0, 0
0, 0
0, 0
0, 0
0, 0
0, 0
0, 0
0, 0
0, 0
0, 0
0, 0
0, 0
0, 0
0, 0
0, 0
0, 0
0, 0
0, 0
0, 0
0, 0
0, 0
0, 0
0, 0
0, 0
0, 0
0, 0
0, 0
0, 0
0, 0
0, 0
0, 0
0, 0
0, 0
0, 0
0, 0
0, 0
0, 0
0, 0
0, 0
0, 0
0, 0
0, 0
0, 0
0, 0
0, 0
0, 0
0, 0
0, 0
0, 0
0, 0
0, 0
0, 0
0, 0
0, 0
0, 0
0, 0
0, 0
0, 0
0, 0
0, 0
0, 0
0, 0
0, 0
0, 0
0, 0
0, 0
0, 0
0, 0
0, 0
0, 0
0, 0
0, 0
0, 0
0, 0
0, 0
0, 0
0, 0
0, 0
0, 0
0, 0
0, 0
0, 0
0, 0
0, 0
0, 0
0, 0
0, 0
0, 0
0, 0
0, 0
#ENDOFDATA     end of spectrum data