File: host_upload/06-09-2024/ps_0852/dump3/ps__0852shot_2567.msa
#FORMAT      : EMSA/MAS spectral data file
#VERSION     : TC202v2.0 PIXL
#TITLE       : N/A
#DATE        :       Date in the format DD-MMM-YYYY, for example 07-JUL-2010
#TIME        :             The time of day at which the spectrum was recorded, in 24-hour format
#OWNER       : PIXL Flight Model       (PIXL will use this to indicate which instrument took the data.)
#NPOINTS     : 4096     Number of data points in the spectrum (This can be zero for configuration only files)
#NCOLUMNS    : 2     Number of data columns in the spectrum (This can be zero for configuration only files)
#XUNITS      : eV
#YUNITS      : COUNTS
#DATATYPE    : YY
#XPERCHAN    : 7.862, 7.881   eV per channel (separate by commas if more than one detector)
#OFFSET      : 18.5, -22.4         eV of first channel  (separate by commas if more than one detector
#SIGNALTYPE  : XRF
#YP_TEMP     : 2.3
#LIVETIME    : 8.56082, 8.54171   seconds (separate by commas if more than one detector)
#REALTIME    : 10, 10.0   seconds (separate by commas if more than one detector)
#SPECTRUM    : start of spectrum data
0, 0
0, 0
0, 0
0, 0
0, 0
0, 0
0, 0
0, 0
0, 1
0, 0
2, 1
48, 38
50, 56
6, 6
12, 9
84, 109
482, 451
111, 87
7, 2
1, 3
1, 3
8, 3
7, 1
7, 7
53, 22
63, 22
31, 17
16, 15
2, 6
1, 4
4, 6
1, 2
7, 3
16, 17
22, 22
6, 4
4, 4
14, 5
13, 3
30, 3
34, 4
15, 14
9, 16
7, 10
6, 5
4, 8
3, 22
4, 15
7, 17
16, 34
10, 24
29, 10
47, 14
94, 42
82, 57
25, 23
21, 32
477, 550
2220, 2352
1582, 1384
167, 151
19, 21
14, 22
106, 131
352, 351
218, 192
32, 38
9, 7
14, 19
9, 8
7, 4
4, 5
3, 5
4, 6
4, 4
17, 2
11, 7
6, 24
10, 11
10, 10
6, 4
1, 14
2, 1
4, 1
1, 2
4, 4
3, 5
2, 7
9, 5
6, 2
13, 5
17, 4
8, 10
11, 21
2, 9
2, 2
1, 3
2, 3
3, 2
3, 1
1, 2
2, 1
6, 0
0, 1
4, 4
0, 1
5, 1
3, 0
0, 7
3, 2
3, 1
1, 3
0, 2
2, 0
2, 2
5, 2
4, 5
3, 2
4, 1
0, 2
3, 5
2, 2
4, 2
0, 0
0, 0
1, 1
0, 0
0, 1
0, 1
2, 0
0, 0
0, 0
1, 1
0, 0
0, 1
3, 0
0, 0
0, 3
0, 2
1, 1
1, 2
1, 0
3, 2
0, 3
1, 0
0, 0
0, 0
0, 0
0, 0
1, 0
0, 1
1, 2
0, 0
3, 1
0, 2
0, 0
0, 0
0, 0
0, 0
0, 0
2, 0
0, 0
0, 0
0, 0
0, 0
1, 1
0, 0
0, 0
0, 0
1, 0
0, 0
0, 0
2, 0
0, 0
0, 0
0, 1
0, 0
1, 0
0, 0
0, 1
0, 0
0, 0
0, 0
0, 1
0, 0
0, 0
0, 0
0, 0
0, 0
0, 0
0, 0
0, 0
0, 0
0, 0
0, 0
0, 0
0, 0
0, 0
0, 0
0, 0
0, 0
0, 0
0, 0
0, 0
0, 0
0, 0
0, 0
0, 0
0, 0
0, 0
0, 0
0, 0
0, 0
0, 0
0, 0
0, 0
0, 0
0, 0
0, 0
0, 0
0, 0
0, 0
0, 0
0, 0
0, 0
0, 0
0, 0
0, 0
0, 0
0, 0
0, 0
0, 0
0, 0
0, 0
0, 0
0, 0
0, 0
0, 0
0, 0
0, 0
0, 0
0, 0
0, 0
0, 0
0, 0
0, 0
0, 0
0, 0
0, 0
0, 0
0, 0
0, 0
0, 0
0, 0
0, 0
0, 0
0, 0
0, 0
0, 0
0, 0
0, 0
0, 0
0, 0
0, 0
0, 0
0, 0
0, 0
0, 0
0, 0
0, 0
0, 0
0, 0
0, 0
0, 0
0, 0
0, 0
0, 0
0, 0
0, 0
0, 0
0, 0
0, 0
0, 0
0, 0
0, 0
0, 0
0, 0
0, 0
0, 0
0, 0
0, 0
0, 0
0, 0
0, 0
#ENDOFDATA     end of spectrum data