File: host_upload/06-09-2024/ps_0852/dump3/ps__0852shot_2133.msa
#FORMAT      : EMSA/MAS spectral data file
#VERSION     : TC202v2.0 PIXL
#TITLE       : N/A
#DATE        :       Date in the format DD-MMM-YYYY, for example 07-JUL-2010
#TIME        :             The time of day at which the spectrum was recorded, in 24-hour format
#OWNER       : PIXL Flight Model       (PIXL will use this to indicate which instrument took the data.)
#NPOINTS     : 4096     Number of data points in the spectrum (This can be zero for configuration only files)
#NCOLUMNS    : 2     Number of data columns in the spectrum (This can be zero for configuration only files)
#XUNITS      : eV
#YUNITS      : COUNTS
#DATATYPE    : YY
#XPERCHAN    : 7.862, 7.881   eV per channel (separate by commas if more than one detector)
#OFFSET      : 18.5, -22.4         eV of first channel  (separate by commas if more than one detector
#SIGNALTYPE  : XRF
#YP_TEMP     : 2.3
#LIVETIME    : 8.59085, 8.54845   seconds (separate by commas if more than one detector)
#REALTIME    : 10, 10.0   seconds (separate by commas if more than one detector)
#SPECTRUM    : start of spectrum data
0, 0
0, 0
0, 0
0, 0
0, 0
0, 0
0, 0
0, 0
2, 1
8, 2
6, 3
46, 40
73, 55
9, 5
1, 5
99, 97
428, 404
113, 116
8, 7
2, 5
3, 4
6, 9
1, 2
38, 16
586, 47
785, 62
114, 34
22, 11
3, 2
3, 1
3, 3
1, 0
7, 6
14, 10
22, 17
2, 3
17, 55
6, 72
2, 8
10, 6
9, 5
7, 10
14, 7
8, 14
4, 4
4, 6
3, 5
5, 9
12, 25
19, 15
10, 6
8, 8
12, 7
33, 44
48, 66
12, 12
32, 39
473, 559
2215, 2204
1597, 1346
236, 146
42, 33
31, 38
96, 134
339, 380
215, 214
33, 20
2, 5
11, 10
12, 9
4, 3
3, 4
4, 7
10, 10
4, 4
6, 11
6, 4
2, 2
4, 4
6, 6
5, 4
5, 3
6, 2
4, 3
1, 5
3, 1
5, 2
0, 2
4, 2
1, 2
2, 4
3, 2
2, 1
3, 3
2, 4
7, 0
4, 6
4, 2
2, 6
6, 2
3, 3
3, 2
1, 0
1, 1
0, 1
2, 2
1, 1
2, 5
4, 2
0, 5
4, 7
0, 3
1, 0
0, 3
1, 2
4, 3
8, 5
6, 6
1, 0
4, 1
2, 0
1, 5
2, 3
2, 3
2, 0
1, 0
0, 0
1, 1
2, 1
0, 3
1, 1
0, 0
1, 2
1, 2
0, 2
1, 1
1, 0
1, 0
0, 1
0, 0
0, 0
0, 1
3, 0
1, 2
2, 2
1, 1
2, 0
0, 2
0, 1
1, 0
0, 1
0, 0
1, 2
0, 0
0, 0
1, 0
0, 0
0, 1
0, 1
1, 1
1, 0
0, 0
0, 0
0, 0
0, 1
0, 1
0, 2
0, 0
1, 1
0, 0
0, 0
1, 1
0, 0
0, 0
0, 0
0, 0
0, 1
0, 1
0, 1
0, 0
0, 0
0, 0
0, 0
0, 1
0, 0
0, 0
0, 0
0, 0
0, 0
0, 0
1, 0
0, 0
0, 0
0, 0
0, 0
0, 0
0, 0
0, 0
0, 0
0, 0
0, 0
0, 0
0, 0
0, 0
0, 0
0, 0
0, 0
0, 0
0, 0
0, 0
0, 0
0, 0
0, 0
0, 0
0, 0
0, 0
0, 0
0, 0
0, 0
0, 0
0, 0
0, 0
0, 0
0, 0
0, 0
0, 0
0, 0
0, 0
0, 0
0, 0
0, 0
0, 0
0, 0
0, 0
0, 0
0, 0
0, 0
0, 0
0, 0
0, 0
0, 0
0, 0
0, 0
0, 0
0, 0
0, 0
0, 0
0, 0
0, 0
0, 0
0, 0
0, 0
0, 0
0, 0
0, 0
0, 0
0, 0
0, 0
0, 0
0, 0
0, 0
0, 0
0, 0
0, 0
0, 0
0, 0
0, 0
0, 0
0, 0
0, 0
0, 0
0, 0
0, 0
0, 0
0, 0
0, 0
0, 0
0, 0
0, 0
0, 0
0, 0
0, 0
0, 0
0, 0
0, 0
0, 0
0, 0
0, 0
0, 0
0, 0
0, 0
0, 0
0, 0
0, 0
#ENDOFDATA     end of spectrum data