File: host_upload/06-09-2024/ps_0852/dump3/ps__0852shot_2358.msa
#FORMAT      : EMSA/MAS spectral data file
#VERSION     : TC202v2.0 PIXL
#TITLE       : N/A
#DATE        :       Date in the format DD-MMM-YYYY, for example 07-JUL-2010
#TIME        :             The time of day at which the spectrum was recorded, in 24-hour format
#OWNER       : PIXL Flight Model       (PIXL will use this to indicate which instrument took the data.)
#NPOINTS     : 4096     Number of data points in the spectrum (This can be zero for configuration only files)
#NCOLUMNS    : 2     Number of data columns in the spectrum (This can be zero for configuration only files)
#XUNITS      : eV
#YUNITS      : COUNTS
#DATATYPE    : YY
#XPERCHAN    : 7.862, 7.881   eV per channel (separate by commas if more than one detector)
#OFFSET      : 18.5, -22.4         eV of first channel  (separate by commas if more than one detector
#SIGNALTYPE  : XRF
#YP_TEMP     : 2.332
#LIVETIME    : 8.60857, 8.50317   seconds (separate by commas if more than one detector)
#REALTIME    : 10, 10.0   seconds (separate by commas if more than one detector)
#SPECTRUM    : start of spectrum data
0, 0
0, 0
0, 0
0, 0
0, 0
0, 0
0, 0
0, 0
3, 0
0, 2
6, 2
43, 38
54, 54
11, 4
11, 3
91, 93
464, 370
87, 96
7, 4
4, 3
10, 4
22, 16
8, 2
9, 9
39, 42
40, 39
27, 22
7, 8
11, 7
7, 2
1, 6
1, 1
3, 4
19, 12
23, 16
9, 7
5, 14
5, 9
4, 21
11, 25
5, 10
8, 8
15, 22
13, 32
16, 86
17, 34
6, 8
9, 6
19, 5
32, 15
22, 13
10, 12
6, 14
46, 43
54, 45
22, 21
39, 34
500, 590
2358, 2148
1737, 1252
205, 138
21, 18
21, 23
106, 129
390, 321
234, 172
26, 24
6, 6
23, 16
8, 13
4, 4
8, 5
8, 12
13, 11
6, 15
8, 9
7, 3
3, 5
7, 6
5, 7
2, 5
3, 3
3, 4
4, 2
3, 2
5, 3
9, 2
5, 2
5, 3
6, 2
9, 3
5, 1
6, 1
3, 8
2, 1
2, 4
3, 3
3, 4
4, 3
3, 3
0, 1
9, 7
5, 1
4, 1
4, 1
2, 0
5, 5
0, 6
1, 4
2, 1
1, 0
1, 1
1, 2
3, 4
1, 3
1, 0
3, 3
6, 1
1, 2
2, 1
3, 2
0, 0
4, 3
2, 0
2, 1
1, 3
0, 0
3, 1
3, 0
1, 1
1, 1
0, 0
1, 1
0, 0
1, 1
1, 0
2, 1
4, 0
2, 0
0, 1
0, 0
0, 0
1, 0
1, 0
3, 1
0, 1
0, 0
1, 1
0, 1
1, 1
0, 0
0, 0
3, 1
0, 1
0, 0
0, 0
0, 1
1, 0
1, 0
0, 0
1, 0
1, 2
0, 0
0, 0
0, 0
0, 0
1, 0
0, 0
0, 1
0, 0
1, 0
0, 0
0, 0
0, 0
1, 0
0, 0
0, 0
0, 0
0, 0
1, 0
0, 0
0, 0
0, 0
0, 0
1, 0
1, 0
0, 0
0, 0
0, 0
0, 0
0, 0
0, 0
0, 0
0, 0
0, 0
0, 0
0, 0
0, 0
0, 0
0, 0
0, 0
0, 0
0, 1
0, 0
0, 0
0, 0
0, 0
0, 0
0, 0
0, 0
0, 0
0, 0
0, 0
0, 0
0, 0
0, 0
0, 0
0, 0
0, 0
0, 0
0, 0
0, 0
0, 0
0, 0
0, 0
0, 0
0, 0
0, 0
0, 0
0, 0
0, 0
0, 0
0, 0
0, 0
0, 0
0, 0
0, 0
0, 0
0, 0
0, 0
0, 0
0, 0
0, 0
0, 0
0, 0
0, 0
0, 0
0, 0
0, 0
0, 0
0, 0
0, 0
0, 0
0, 0
0, 0
0, 0
0, 0
0, 0
0, 0
0, 0
0, 0
0, 0
0, 0
0, 0
0, 0
0, 0
0, 0
0, 0
0, 0
0, 0
0, 0
0, 0
0, 0
0, 0
0, 0
0, 0
0, 0
0, 0
0, 0
0, 0
0, 0
0, 0
0, 0
0, 0
0, 0
0, 0
0, 0
0, 0
0, 0
0, 0
0, 0
0, 0
0, 0
0, 0
#ENDOFDATA     end of spectrum data