File: host_upload/06-09-2024/ps_0852/dump3/ps__0852shot_2405.msa
#FORMAT      : EMSA/MAS spectral data file
#VERSION     : TC202v2.0 PIXL
#TITLE       : N/A
#DATE        :       Date in the format DD-MMM-YYYY, for example 07-JUL-2010
#TIME        :             The time of day at which the spectrum was recorded, in 24-hour format
#OWNER       : PIXL Flight Model       (PIXL will use this to indicate which instrument took the data.)
#NPOINTS     : 4096     Number of data points in the spectrum (This can be zero for configuration only files)
#NCOLUMNS    : 2     Number of data columns in the spectrum (This can be zero for configuration only files)
#XUNITS      : eV
#YUNITS      : COUNTS
#DATATYPE    : YY
#XPERCHAN    : 7.862, 7.881   eV per channel (separate by commas if more than one detector)
#OFFSET      : 18.5, -22.4         eV of first channel  (separate by commas if more than one detector
#SIGNALTYPE  : XRF
#YP_TEMP     : 2.235
#LIVETIME    : 8.55815, 8.56058   seconds (separate by commas if more than one detector)
#REALTIME    : 10, 10.0   seconds (separate by commas if more than one detector)
#SPECTRUM    : start of spectrum data
0, 0
0, 0
0, 0
0, 0
0, 0
0, 0
0, 0
0, 1
0, 1
0, 4
2, 1
46, 48
70, 52
3, 3
3, 1
108, 85
450, 400
110, 77
2, 4
2, 0
1, 3
2, 1
1, 2
9, 12
21, 62
28, 73
17, 12
14, 9
2, 5
1, 2
1, 2
5, 1
7, 2
16, 9
15, 15
25, 1
74, 4
50, 7
14, 70
2, 103
1, 44
8, 13
12, 11
11, 9
3, 10
4, 6
4, 17
7, 16
15, 3
21, 8
29, 7
104, 6
109, 11
42, 58
61, 70
24, 25
53, 42
490, 509
2290, 2198
1701, 1306
220, 137
19, 26
26, 36
103, 116
377, 328
240, 174
31, 29
12, 20
11, 24
14, 13
4, 4
7, 3
3, 7
9, 3
9, 11
6, 9
5, 5
5, 9
6, 8
5, 2
7, 4
4, 5
8, 9
4, 4
5, 4
6, 2
5, 3
5, 2
4, 3
4, 4
1, 2
3, 9
4, 18
1, 6
9, 7
9, 4
7, 4
3, 3
2, 3
7, 0
2, 4
1, 1
2, 1
3, 2
2, 0
3, 2
3, 4
7, 2
6, 3
4, 1
3, 3
1, 2
2, 4
3, 4
4, 2
2, 0
5, 0
6, 7
2, 0
1, 0
1, 1
0, 2
1, 2
3, 1
3, 0
1, 1
0, 1
1, 0
3, 1
0, 1
2, 0
0, 1
2, 0
0, 2
1, 0
1, 0
1, 2
1, 0
0, 1
1, 0
1, 1
0, 0
1, 1
1, 1
0, 0
1, 0
0, 1
2, 0
0, 0
1, 0
0, 0
0, 1
0, 0
1, 0
0, 0
2, 1
0, 1
1, 0
0, 0
0, 0
0, 0
0, 0
2, 0
0, 0
0, 0
1, 0
0, 0
0, 0
1, 1
0, 0
0, 0
2, 0
0, 0
0, 0
1, 0
1, 1
0, 0
0, 0
0, 0
0, 0
0, 0
0, 0
0, 0
0, 0
0, 2
0, 0
0, 0
0, 0
0, 0
0, 0
0, 0
0, 0
0, 0
0, 0
0, 0
0, 0
0, 0
0, 0
0, 0
0, 0
0, 0
0, 0
0, 0
0, 0
0, 0
0, 0
0, 0
0, 0
0, 0
0, 0
0, 0
0, 0
0, 0
0, 0
0, 0
0, 0
0, 0
0, 0
0, 0
0, 0
0, 0
0, 0
0, 0
0, 0
0, 0
0, 0
0, 0
0, 0
0, 0
0, 0
0, 0
0, 0
0, 0
0, 0
0, 0
0, 0
0, 0
0, 0
0, 0
0, 0
0, 0
0, 0
0, 0
0, 0
0, 0
0, 0
0, 0
0, 0
1, 0
0, 0
0, 0
0, 0
0, 0
0, 0
0, 0
0, 0
0, 0
0, 0
0, 0
0, 0
0, 0
0, 0
0, 0
0, 0
0, 0
0, 0
0, 0
0, 0
0, 0
0, 0
0, 0
0, 0
0, 0
0, 0
0, 0
0, 0
0, 0
0, 0
0, 0
0, 0
0, 0
0, 0
0, 0
0, 0
0, 0
0, 0
0, 0
0, 0
0, 0
0, 0
0, 0
0, 0
0, 0
0, 0
#ENDOFDATA     end of spectrum data