File: host_upload/06-09-2024/ps_0852/dump3/ps__0852shot_2211.msa
#FORMAT      : EMSA/MAS spectral data file
#VERSION     : TC202v2.0 PIXL
#TITLE       : N/A
#DATE        :       Date in the format DD-MMM-YYYY, for example 07-JUL-2010
#TIME        :             The time of day at which the spectrum was recorded, in 24-hour format
#OWNER       : PIXL Flight Model       (PIXL will use this to indicate which instrument took the data.)
#NPOINTS     : 4096     Number of data points in the spectrum (This can be zero for configuration only files)
#NCOLUMNS    : 2     Number of data columns in the spectrum (This can be zero for configuration only files)
#XUNITS      : eV
#YUNITS      : COUNTS
#DATATYPE    : YY
#XPERCHAN    : 7.862, 7.881   eV per channel (separate by commas if more than one detector)
#OFFSET      : 18.5, -22.4         eV of first channel  (separate by commas if more than one detector
#SIGNALTYPE  : XRF
#YP_TEMP     : 2.396
#LIVETIME    : 8.54638, 8.54313   seconds (separate by commas if more than one detector)
#REALTIME    : 10, 10.0   seconds (separate by commas if more than one detector)
#SPECTRUM    : start of spectrum data
0, 0
0, 0
0, 0
0, 0
0, 0
0, 0
0, 0
0, 0
0, 0
0, 0
1, 2
59, 44
57, 67
3, 2
4, 4
98, 120
393, 455
100, 100
4, 4
1, 2
0, 0
2, 0
0, 1
7, 8
18, 13
41, 20
17, 12
7, 13
2, 6
2, 9
1, 7
2, 4
3, 15
9, 39
14, 13
4, 9
1, 3
5, 1
2, 1
10, 5
22, 2
38, 12
31, 50
16, 42
4, 8
6, 20
4, 25
6, 17
7, 7
10, 15
9, 16
10, 2
23, 13
75, 56
83, 59
25, 19
38, 39
517, 611
2121, 2364
1534, 1395
214, 155
11, 22
20, 41
99, 123
333, 385
216, 192
30, 26
14, 12
11, 8
14, 3
12, 10
4, 8
5, 10
1, 2
6, 5
5, 7
5, 3
9, 8
5, 10
7, 12
7, 3
3, 10
0, 3
2, 2
3, 6
2, 4
6, 8
4, 4
2, 1
4, 6
9, 0
18, 1
15, 3
11, 10
1, 7
4, 0
2, 1
0, 3
3, 2
6, 0
2, 4
3, 3
1, 4
3, 5
3, 6
1, 7
1, 1
3, 2
3, 1
1, 1
4, 1
0, 1
1, 3
2, 2
1, 0
0, 4
3, 3
7, 1
2, 2
2, 2
2, 4
1, 0
2, 2
2, 1
0, 1
3, 1
0, 0
2, 2
1, 1
0, 0
1, 0
3, 0
1, 1
0, 1
0, 0
0, 0
0, 0
0, 0
0, 1
0, 0
0, 1
1, 0
0, 0
1, 1
2, 1
0, 1
1, 0
0, 0
0, 1
0, 0
0, 2
1, 0
1, 0
0, 0
0, 0
1, 0
0, 0
2, 0
0, 0
0, 1
0, 0
0, 0
0, 0
0, 0
0, 1
0, 0
0, 1
0, 0
1, 0
0, 1
0, 1
0, 1
0, 0
0, 0
0, 1
0, 0
1, 0
0, 0
0, 0
0, 0
0, 1
1, 0
0, 0
0, 0
0, 0
0, 1
0, 0
0, 0
0, 0
0, 0
0, 0
0, 0
0, 0
0, 0
0, 0
0, 1
0, 0
0, 0
0, 0
0, 0
0, 0
0, 0
0, 0
0, 0
0, 0
0, 0
0, 0
0, 0
0, 0
0, 0
0, 0
0, 0
0, 0
0, 0
0, 0
0, 0
0, 0
0, 0
0, 0
0, 0
0, 0
0, 0
0, 0
0, 0
0, 0
0, 0
0, 0
0, 0
0, 0
0, 0
0, 0
0, 0
0, 0
0, 0
0, 0
0, 0
0, 0
0, 0
0, 0
0, 0
0, 0
0, 0
0, 0
0, 0
0, 0
0, 0
0, 0
0, 0
0, 0
0, 0
0, 0
0, 0
0, 0
0, 0
0, 0
0, 0
0, 0
0, 0
0, 0
0, 0
0, 0
0, 0
0, 0
0, 0
0, 0
0, 0
0, 0
0, 0
0, 0
0, 0
0, 0
0, 0
0, 0
0, 0
0, 0
0, 0
0, 0
0, 0
0, 0
0, 0
0, 0
0, 0
0, 0
0, 0
0, 0
0, 0
0, 0
0, 0
0, 0
0, 0
0, 0
0, 0
0, 0
0, 0
#ENDOFDATA     end of spectrum data