File: host_upload/06-09-2024/ps_0852/dump3/ps__0852shot_2467.msa
#FORMAT      : EMSA/MAS spectral data file
#VERSION     : TC202v2.0 PIXL
#TITLE       : N/A
#DATE        :       Date in the format DD-MMM-YYYY, for example 07-JUL-2010
#TIME        :             The time of day at which the spectrum was recorded, in 24-hour format
#OWNER       : PIXL Flight Model       (PIXL will use this to indicate which instrument took the data.)
#NPOINTS     : 4096     Number of data points in the spectrum (This can be zero for configuration only files)
#NCOLUMNS    : 2     Number of data columns in the spectrum (This can be zero for configuration only files)
#XUNITS      : eV
#YUNITS      : COUNTS
#DATATYPE    : YY
#XPERCHAN    : 7.862, 7.881   eV per channel (separate by commas if more than one detector)
#OFFSET      : 18.5, -22.4         eV of first channel  (separate by commas if more than one detector
#SIGNALTYPE  : XRF
#YP_TEMP     : 2.428
#LIVETIME    : 8.54231, 8.52525   seconds (separate by commas if more than one detector)
#REALTIME    : 10, 10.0   seconds (separate by commas if more than one detector)
#SPECTRUM    : start of spectrum data
0, 0
0, 0
0, 0
0, 0
0, 0
0, 0
0, 0
0, 0
1, 2
0, 0
2, 4
35, 25
45, 36
5, 2
9, 7
61, 69
267, 306
87, 69
5, 9
11, 2
68, 103
535, 554
215, 206
44, 46
104, 114
64, 61
32, 36
25, 17
5, 13
5, 1
11, 8
7, 4
9, 5
20, 17
29, 40
10, 9
2, 9
5, 13
2, 6
6, 11
4, 24
8, 47
14, 40
11, 12
6, 8
14, 7
5, 13
1, 7
5, 8
11, 17
18, 17
16, 10
17, 8
42, 50
67, 53
26, 16
29, 34
438, 600
1963, 2317
1520, 1353
177, 132
15, 10
21, 24
94, 132
319, 351
223, 215
32, 27
11, 6
14, 14
16, 4
7, 3
6, 5
2, 3
3, 5
8, 4
8, 10
8, 7
2, 4
3, 4
6, 5
3, 7
6, 6
10, 7
9, 17
5, 10
4, 6
6, 1
5, 5
3, 1
2, 6
3, 3
4, 2
2, 2
5, 4
3, 2
6, 4
1, 3
0, 5
2, 2
1, 3
3, 1
2, 0
1, 2
6, 2
4, 0
1, 3
0, 4
4, 4
3, 4
1, 3
2, 1
0, 1
1, 1
2, 2
2, 1
6, 1
1, 6
2, 3
2, 0
0, 0
2, 2
1, 1
3, 0
2, 3
0, 2
2, 2
2, 2
0, 1
0, 3
2, 1
2, 2
0, 0
1, 0
1, 0
1, 0
3, 0
1, 0
0, 2
1, 1
2, 1
0, 2
0, 0
1, 0
1, 0
2, 0
0, 1
0, 0
0, 1
1, 0
0, 0
0, 0
0, 1
0, 0
0, 0
0, 0
0, 0
0, 0
0, 0
0, 0
0, 0
0, 0
1, 0
0, 0
1, 0
2, 0
0, 0
0, 0
0, 0
1, 0
1, 0
0, 0
0, 2
0, 0
0, 0
0, 0
1, 0
0, 0
0, 0
0, 0
0, 0
0, 0
0, 0
0, 0
0, 0
0, 1
0, 0
0, 0
0, 0
0, 0
0, 0
0, 0
0, 0
0, 0
0, 0
0, 0
0, 0
0, 0
0, 0
0, 0
0, 0
0, 0
0, 0
0, 0
1, 0
0, 0
0, 0
0, 0
0, 0
0, 0
0, 0
0, 0
0, 0
0, 0
0, 0
0, 0
0, 0
0, 0
0, 0
0, 0
0, 0
0, 0
0, 0
0, 0
0, 0
0, 0
0, 0
0, 0
0, 1
0, 0
0, 0
0, 0
0, 0
0, 0
0, 0
0, 0
0, 0
0, 0
0, 0
0, 0
0, 0
0, 0
0, 0
0, 0
0, 0
0, 0
0, 0
0, 0
0, 0
0, 0
0, 0
0, 0
0, 0
0, 0
0, 0
0, 0
0, 0
0, 0
0, 0
0, 0
0, 0
0, 0
0, 0
0, 0
0, 0
0, 0
0, 0
0, 0
0, 0
0, 0
0, 0
0, 0
0, 0
0, 0
0, 0
0, 0
0, 0
0, 0
0, 0
0, 0
0, 0
0, 0
0, 0
0, 0
0, 0
0, 0
0, 0
0, 0
0, 0
0, 0
0, 0
0, 0
0, 0
0, 0
0, 0
#ENDOFDATA     end of spectrum data