File: host_upload/06-09-2024/ps_0852/dump3/ps__0852shot_2130.msa
#FORMAT      : EMSA/MAS spectral data file
#VERSION     : TC202v2.0 PIXL
#TITLE       : N/A
#DATE        :       Date in the format DD-MMM-YYYY, for example 07-JUL-2010
#TIME        :             The time of day at which the spectrum was recorded, in 24-hour format
#OWNER       : PIXL Flight Model       (PIXL will use this to indicate which instrument took the data.)
#NPOINTS     : 4096     Number of data points in the spectrum (This can be zero for configuration only files)
#NCOLUMNS    : 2     Number of data columns in the spectrum (This can be zero for configuration only files)
#XUNITS      : eV
#YUNITS      : COUNTS
#DATATYPE    : YY
#XPERCHAN    : 7.862, 7.881   eV per channel (separate by commas if more than one detector)
#OFFSET      : 18.5, -22.4         eV of first channel  (separate by commas if more than one detector
#SIGNALTYPE  : XRF
#YP_TEMP     : 2.524
#LIVETIME    : 8.55953, 8.36774   seconds (separate by commas if more than one detector)
#REALTIME    : 10, 10.0   seconds (separate by commas if more than one detector)
#SPECTRUM    : start of spectrum data
0, 0
0, 0
0, 0
0, 0
0, 0
0, 0
0, 0
0, 0
1, 1
1, 1
3, 1
45, 35
50, 63
7, 5
3, 2
102, 98
421, 402
110, 114
11, 5
5, 1
3, 5
21, 14
12, 5
9, 7
44, 39
33, 39
24, 18
9, 14
2, 5
4, 0
1, 2
5, 2
15, 7
83, 68
129, 112
18, 17
12, 18
20, 16
18, 4
15, 5
4, 3
11, 5
15, 9
14, 7
20, 8
16, 13
3, 66
7, 106
3, 31
18, 21
15, 26
11, 6
7, 7
43, 43
54, 73
23, 31
27, 74
471, 551
1936, 2114
1494, 1298
185, 131
43, 14
37, 25
142, 135
338, 340
225, 262
30, 45
6, 17
12, 40
7, 17
3, 18
2, 2
6, 6
7, 5
4, 5
2, 7
11, 7
5, 2
5, 5
6, 3
5, 5
5, 6
3, 3
1, 5
2, 4
4, 3
3, 4
0, 2
5, 6
2, 6
2, 4
4, 7
3, 7
2, 4
0, 4
3, 2
4, 3
4, 4
2, 2
2, 2
3, 2
4, 4
4, 3
1, 1
2, 0
2, 3
3, 5
3, 0
4, 2
2, 2
1, 2
2, 2
4, 1
5, 1
2, 2
3, 2
6, 9
5, 1
1, 2
1, 1
3, 1
2, 3
3, 2
1, 1
1, 1
2, 3
0, 1
1, 1
0, 2
0, 2
0, 4
2, 0
1, 1
0, 0
0, 0
0, 5
0, 0
0, 0
2, 1
0, 0
1, 0
1, 1
2, 0
2, 0
0, 2
3, 0
0, 1
0, 0
0, 2
0, 1
0, 0
1, 0
0, 0
0, 2
1, 0
1, 0
0, 1
0, 1
1, 0
0, 0
0, 1
0, 0
0, 0
1, 0
1, 0
0, 1
0, 0
0, 0
0, 0
0, 3
0, 2
0, 1
0, 1
0, 0
0, 0
0, 1
0, 2
0, 0
0, 0
0, 0
0, 0
0, 0
0, 0
0, 0
0, 0
0, 0
0, 0
0, 0
0, 0
0, 0
0, 0
0, 0
1, 0
0, 0
0, 0
0, 0
0, 1
0, 0
0, 0
0, 0
0, 0
0, 0
0, 0
0, 0
0, 0
0, 0
0, 0
0, 0
0, 0
0, 0
0, 0
0, 0
0, 0
0, 0
0, 0
0, 0
0, 0
0, 0
0, 0
0, 0
0, 0
0, 0
0, 0
0, 0
0, 0
0, 0
0, 0
0, 0
0, 0
0, 0
0, 0
0, 0
0, 0
0, 0
0, 0
0, 0
0, 0
0, 0
0, 0
0, 0
0, 0
0, 0
0, 0
0, 0
0, 0
0, 0
0, 0
0, 0
0, 0
0, 0
0, 0
0, 0
0, 0
0, 0
0, 0
0, 0
0, 0
0, 0
0, 0
0, 0
0, 0
0, 0
0, 0
0, 0
0, 0
0, 0
0, 0
0, 0
0, 0
0, 0
0, 0
0, 0
0, 0
0, 0
0, 0
0, 0
0, 0
0, 0
0, 0
0, 0
0, 0
0, 0
0, 0
0, 0
0, 0
0, 0
0, 0
0, 0
0, 0
0, 0
0, 0
0, 0
0, 0
0, 0
#ENDOFDATA     end of spectrum data