File: host_upload/06-09-2024/ps_0852/dump3/ps__0852shot_2248.msa
#FORMAT      : EMSA/MAS spectral data file
#VERSION     : TC202v2.0 PIXL
#TITLE       : N/A
#DATE        :       Date in the format DD-MMM-YYYY, for example 07-JUL-2010
#TIME        :             The time of day at which the spectrum was recorded, in 24-hour format
#OWNER       : PIXL Flight Model       (PIXL will use this to indicate which instrument took the data.)
#NPOINTS     : 4096     Number of data points in the spectrum (This can be zero for configuration only files)
#NCOLUMNS    : 2     Number of data columns in the spectrum (This can be zero for configuration only files)
#XUNITS      : eV
#YUNITS      : COUNTS
#DATATYPE    : YY
#XPERCHAN    : 7.862, 7.881   eV per channel (separate by commas if more than one detector)
#OFFSET      : 18.5, -22.4         eV of first channel  (separate by commas if more than one detector
#SIGNALTYPE  : XRF
#YP_TEMP     : 2.332
#LIVETIME    : 8.57233, 8.56837   seconds (separate by commas if more than one detector)
#REALTIME    : 10, 10.0   seconds (separate by commas if more than one detector)
#SPECTRUM    : start of spectrum data
0, 0
0, 0
0, 0
0, 0
0, 0
0, 0
0, 0
1, 0
0, 0
0, 2
1, 2
42, 51
57, 49
4, 8
2, 2
78, 94
415, 436
98, 106
12, 7
1, 0
1, 2
3, 4
2, 3
8, 8
29, 52
34, 49
28, 26
11, 7
5, 5
2, 2
3, 4
0, 5
0, 3
2, 7
16, 12
5, 2
5, 8
1, 4
2, 6
2, 3
8, 3
48, 11
80, 13
14, 11
12, 7
5, 6
4, 3
8, 10
3, 49
15, 40
5, 9
19, 8
34, 13
47, 62
65, 56
30, 19
27, 36
489, 665
2170, 2415
1593, 1424
191, 164
15, 52
17, 35
101, 134
329, 342
240, 201
46, 19
40, 5
25, 12
11, 8
5, 3
2, 2
5, 6
7, 7
7, 6
4, 6
9, 7
2, 4
2, 0
11, 4
12, 3
3, 7
2, 2
6, 3
1, 9
1, 7
2, 4
1, 2
3, 5
5, 2
3, 1
4, 4
4, 5
9, 2
7, 4
5, 5
2, 5
3, 3
3, 5
4, 1
1, 4
1, 4
0, 7
0, 6
1, 0
2, 2
1, 3
0, 1
0, 2
3, 4
2, 2
0, 2
1, 2
2, 1
1, 1
3, 5
5, 2
1, 3
2, 0
1, 2
3, 1
4, 1
2, 2
1, 1
1, 2
0, 1
1, 2
1, 3
0, 2
1, 1
0, 1
1, 0
1, 1
2, 0
1, 2
1, 1
0, 1
0, 0
0, 2
2, 0
0, 0
1, 1
0, 1
1, 0
0, 0
0, 1
0, 2
0, 0
0, 0
0, 2
0, 0
1, 0
0, 0
0, 1
0, 1
1, 0
1, 0
0, 0
1, 0
0, 0
1, 1
0, 0
0, 0
0, 0
0, 0
0, 0
0, 0
0, 0
0, 1
0, 0
0, 0
1, 0
1, 0
0, 0
0, 0
0, 0
0, 0
0, 0
0, 0
0, 0
0, 0
1, 0
0, 0
0, 2
0, 1
0, 1
1, 0
0, 0
0, 0
0, 0
0, 0
0, 0
0, 0
0, 0
1, 1
0, 0
0, 0
0, 0
0, 0
0, 0
0, 0
0, 0
0, 0
0, 0
0, 0
0, 0
0, 0
0, 0
0, 0
0, 0
0, 0
0, 0
0, 0
0, 0
0, 0
0, 0
0, 0
0, 0
0, 0
0, 0
0, 0
0, 0
0, 0
0, 0
0, 0
0, 0
0, 0
0, 0
0, 0
0, 0
0, 0
0, 0
0, 0
0, 0
0, 0
0, 0
0, 0
0, 0
0, 0
0, 0
0, 0
0, 0
0, 0
0, 0
0, 0
0, 0
0, 0
0, 0
0, 0
0, 0
0, 0
0, 0
0, 0
0, 0
0, 0
0, 0
0, 0
0, 0
0, 0
0, 0
0, 0
0, 0
0, 0
0, 0
0, 0
0, 0
0, 0
0, 0
0, 0
0, 0
0, 0
0, 0
0, 0
0, 0
0, 0
0, 0
0, 0
0, 0
0, 0
0, 0
0, 0
0, 0
0, 0
0, 0
0, 0
0, 0
0, 0
0, 0
0, 0
0, 0
0, 0
0, 0
0, 0
0, 0
#ENDOFDATA     end of spectrum data