File: host_upload/06-09-2024/ps_0852/dump3/ps__0852shot_2223.msa
#FORMAT      : EMSA/MAS spectral data file
#VERSION     : TC202v2.0 PIXL
#TITLE       : N/A
#DATE        :       Date in the format DD-MMM-YYYY, for example 07-JUL-2010
#TIME        :             The time of day at which the spectrum was recorded, in 24-hour format
#OWNER       : PIXL Flight Model       (PIXL will use this to indicate which instrument took the data.)
#NPOINTS     : 4096     Number of data points in the spectrum (This can be zero for configuration only files)
#NCOLUMNS    : 2     Number of data columns in the spectrum (This can be zero for configuration only files)
#XUNITS      : eV
#YUNITS      : COUNTS
#DATATYPE    : YY
#XPERCHAN    : 7.862, 7.881   eV per channel (separate by commas if more than one detector)
#OFFSET      : 18.5, -22.4         eV of first channel  (separate by commas if more than one detector
#SIGNALTYPE  : XRF
#YP_TEMP     : 2.46
#LIVETIME    : 8.54637, 8.54819   seconds (separate by commas if more than one detector)
#REALTIME    : 10, 10.0   seconds (separate by commas if more than one detector)
#SPECTRUM    : start of spectrum data
0, 0
0, 0
0, 0
0, 0
0, 0
0, 0
0, 0
0, 0
0, 2
0, 2
6, 2
46, 54
56, 53
8, 8
3, 4
117, 96
460, 416
94, 104
8, 6
1, 0
5, 1
3, 5
4, 13
2, 15
14, 122
16, 189
14, 18
15, 7
6, 1
2, 4
2, 3
2, 1
1, 0
8, 6
15, 11
4, 2
9, 3
11, 3
77, 0
98, 4
11, 3
7, 6
7, 12
15, 12
8, 15
5, 13
2, 10
4, 3
8, 5
17, 12
8, 11
3, 15
10, 33
37, 78
56, 56
20, 16
44, 35
515, 578
2285, 2393
1620, 1416
223, 150
13, 18
22, 17
79, 118
359, 376
241, 201
31, 65
10, 67
14, 29
10, 8
3, 4
3, 2
1, 4
3, 8
3, 30
6, 37
13, 20
24, 6
17, 3
2, 2
6, 3
2, 3
3, 7
2, 1
7, 3
4, 3
8, 2
14, 3
7, 2
6, 2
0, 1
1, 4
4, 5
4, 4
3, 2
6, 3
6, 3
8, 3
4, 1
2, 1
0, 2
2, 0
3, 0
0, 2
2, 5
1, 3
3, 4
1, 0
2, 0
1, 1
0, 1
4, 2
2, 2
3, 2
3, 4
3, 2
9, 4
7, 1
2, 5
2, 1
2, 1
0, 3
2, 1
0, 2
0, 2
1, 2
1, 0
1, 3
1, 3
1, 0
1, 3
1, 1
0, 0
1, 2
2, 0
0, 0
0, 2
1, 0
0, 0
0, 0
3, 2
0, 1
0, 0
0, 0
1, 0
0, 0
1, 0
2, 0
0, 0
0, 1
2, 0
1, 1
1, 0
2, 0
0, 2
0, 0
0, 0
0, 0
2, 0
0, 0
0, 1
0, 0
0, 0
1, 0
0, 0
1, 0
0, 0
0, 0
0, 0
1, 1
0, 0
1, 0
0, 1
0, 0
0, 0
0, 0
0, 0
0, 1
1, 0
0, 0
0, 1
0, 0
0, 0
0, 0
0, 0
0, 0
0, 0
0, 0
0, 0
0, 0
0, 0
0, 0
0, 0
0, 0
1, 0
0, 0
0, 0
0, 0
0, 0
0, 0
0, 0
0, 0
0, 0
0, 0
0, 0
0, 0
0, 0
0, 0
0, 0
0, 0
0, 0
0, 0
0, 0
0, 0
0, 0
0, 0
0, 0
0, 0
0, 0
0, 0
0, 0
1, 0
0, 0
0, 0
0, 0
0, 0
0, 0
0, 0
0, 0
0, 0
0, 0
0, 0
0, 0
0, 0
0, 0
0, 0
0, 0
0, 0
0, 0
0, 0
0, 0
0, 0
0, 0
0, 0
0, 0
0, 0
0, 0
0, 0
0, 0
0, 0
0, 0
0, 0
0, 0
0, 0
0, 0
0, 0
0, 0
0, 0
0, 0
0, 0
0, 0
0, 0
0, 0
0, 0
0, 0
0, 0
0, 0
0, 0
0, 0
0, 0
0, 0
0, 0
0, 0
0, 0
0, 0
0, 0
0, 0
0, 0
0, 0
0, 0
0, 0
0, 0
0, 0
0, 0
0, 0
0, 0
0, 0
0, 0
0, 0
0, 0
0, 0
0, 0
0, 0
0, 0
#ENDOFDATA     end of spectrum data