File: host_upload/06-09-2024/ps_0852/dump3/ps__0852shot_2295.msa
#FORMAT      : EMSA/MAS spectral data file
#VERSION     : TC202v2.0 PIXL
#TITLE       : N/A
#DATE        :       Date in the format DD-MMM-YYYY, for example 07-JUL-2010
#TIME        :             The time of day at which the spectrum was recorded, in 24-hour format
#OWNER       : PIXL Flight Model       (PIXL will use this to indicate which instrument took the data.)
#NPOINTS     : 4096     Number of data points in the spectrum (This can be zero for configuration only files)
#NCOLUMNS    : 2     Number of data columns in the spectrum (This can be zero for configuration only files)
#XUNITS      : eV
#YUNITS      : COUNTS
#DATATYPE    : YY
#XPERCHAN    : 7.862, 7.881   eV per channel (separate by commas if more than one detector)
#OFFSET      : 18.5, -22.4         eV of first channel  (separate by commas if more than one detector
#SIGNALTYPE  : XRF
#YP_TEMP     : 2.075
#LIVETIME    : 8.57119, 8.37207   seconds (separate by commas if more than one detector)
#REALTIME    : 10, 10.0   seconds (separate by commas if more than one detector)
#SPECTRUM    : start of spectrum data
0, 0
0, 0
0, 0
0, 0
0, 0
0, 0
0, 0
0, 0
0, 0
2, 2
1, 3
50, 44
64, 53
5, 5
4, 2
110, 81
458, 390
101, 92
3, 4
3, 2
7, 7
29, 29
17, 3
9, 8
24, 17
35, 30
18, 19
12, 13
3, 4
2, 2
2, 1
1, 3
32, 1
63, 9
26, 14
4, 13
5, 7
8, 4
2, 15
4, 11
5, 4
13, 6
11, 26
8, 17
10, 9
7, 6
10, 9
19, 3
32, 13
58, 10
69, 19
14, 11
10, 15
39, 46
49, 55
34, 20
49, 43
481, 574
2211, 2213
1634, 1416
213, 127
36, 19
44, 20
120, 131
341, 375
250, 231
38, 43
9, 12
12, 16
8, 10
3, 12
4, 4
3, 5
4, 7
8, 4
3, 6
10, 6
8, 6
3, 2
6, 4
7, 5
6, 4
6, 5
5, 9
3, 9
5, 20
5, 8
0, 9
5, 3
7, 3
6, 7
6, 2
5, 0
2, 6
5, 3
3, 2
7, 1
3, 2
2, 1
5, 2
1, 5
0, 4
0, 2
1, 0
1, 1
1, 0
2, 2
0, 1
1, 1
3, 0
3, 1
4, 2
2, 1
1, 2
1, 1
3, 5
2, 5
4, 4
1, 1
2, 1
0, 2
4, 0
3, 2
0, 1
2, 2
1, 0
3, 1
2, 1
1, 2
1, 1
1, 1
1, 1
2, 0
1, 1
2, 0
2, 0
0, 0
1, 0
0, 0
2, 0
2, 2
0, 3
2, 1
2, 1
0, 0
0, 0
2, 0
0, 0
1, 1
0, 0
1, 1
0, 0
2, 1
0, 1
0, 0
0, 0
0, 0
0, 0
0, 0
0, 0
4, 0
0, 1
0, 0
0, 0
0, 0
0, 0
1, 0
0, 0
0, 0
0, 0
0, 2
0, 0
0, 0
0, 0
0, 0
0, 0
0, 0
0, 0
0, 0
0, 0
0, 0
0, 0
0, 0
0, 0
0, 0
0, 0
0, 0
1, 0
0, 0
0, 0
0, 0
0, 0
0, 0
0, 0
0, 0
0, 0
0, 0
0, 0
0, 0
0, 1
0, 0
0, 0
0, 0
0, 0
0, 0
0, 0
0, 0
0, 0
0, 0
0, 0
0, 0
0, 0
0, 0
0, 0
0, 0
0, 0
0, 0
0, 0
0, 0
0, 0
0, 0
0, 0
0, 0
0, 0
0, 0
0, 0
0, 0
0, 0
0, 0
0, 0
0, 0
0, 0
0, 0
0, 0
0, 0
0, 0
0, 0
0, 0
0, 0
0, 0
0, 0
0, 0
0, 0
0, 0
0, 0
0, 0
0, 0
0, 0
0, 0
0, 0
0, 0
0, 0
0, 0
0, 0
0, 0
0, 0
0, 0
0, 0
0, 0
0, 0
0, 0
0, 0
0, 0
0, 0
0, 0
0, 0
0, 0
0, 0
0, 0
0, 0
0, 0
0, 0
0, 0
0, 0
0, 0
0, 0
0, 0
0, 0
0, 0
0, 0
0, 0
0, 0
0, 0
0, 0
0, 0
0, 0
0, 0
0, 0
0, 0
0, 0
0, 0
0, 0
0, 0
0, 0
#ENDOFDATA     end of spectrum data