File: host_upload/06-09-2024/ps_0852/dump3/ps__0852shot_2407.msa
#FORMAT      : EMSA/MAS spectral data file
#VERSION     : TC202v2.0 PIXL
#TITLE       : N/A
#DATE        :       Date in the format DD-MMM-YYYY, for example 07-JUL-2010
#TIME        :             The time of day at which the spectrum was recorded, in 24-hour format
#OWNER       : PIXL Flight Model       (PIXL will use this to indicate which instrument took the data.)
#NPOINTS     : 4096     Number of data points in the spectrum (This can be zero for configuration only files)
#NCOLUMNS    : 2     Number of data columns in the spectrum (This can be zero for configuration only files)
#XUNITS      : eV
#YUNITS      : COUNTS
#DATATYPE    : YY
#XPERCHAN    : 7.862, 7.881   eV per channel (separate by commas if more than one detector)
#OFFSET      : 18.5, -22.4         eV of first channel  (separate by commas if more than one detector
#SIGNALTYPE  : XRF
#YP_TEMP     : 2.332
#LIVETIME    : 8.57049, 8.56641   seconds (separate by commas if more than one detector)
#REALTIME    : 10, 10.0   seconds (separate by commas if more than one detector)
#SPECTRUM    : start of spectrum data
0, 0
0, 0
0, 0
0, 0
0, 0
0, 0
0, 0
0, 0
0, 3
0, 6
3, 2
47, 48
52, 54
9, 4
1, 3
85, 115
413, 487
96, 108
6, 5
0, 3
1, 1
4, 7
1, 15
7, 44
35, 227
39, 279
21, 35
16, 14
3, 4
3, 3
2, 3
3, 1
1, 5
16, 12
14, 13
23, 5
27, 3
22, 5
8, 30
3, 62
7, 9
4, 12
11, 8
13, 16
12, 6
11, 17
5, 22
4, 2
8, 12
19, 15
36, 11
96, 10
58, 14
42, 46
57, 75
22, 25
29, 40
423, 635
2027, 2467
1438, 1450
137, 140
15, 13
23, 25
93, 126
320, 342
207, 219
42, 21
10, 10
12, 28
11, 12
8, 3
4, 6
7, 6
2, 8
6, 8
1, 9
3, 7
4, 1
3, 3
1, 5
3, 4
7, 11
7, 8
0, 7
2, 3
5, 3
10, 5
4, 3
4, 4
3, 4
2, 4
3, 4
4, 0
4, 2
0, 4
4, 4
5, 5
4, 3
14, 4
4, 3
6, 5
4, 4
4, 3
2, 1
1, 3
0, 1
0, 1
2, 1
2, 2
2, 2
2, 2
2, 2
3, 0
3, 0
5, 2
8, 6
4, 7
2, 3
1, 4
0, 3
1, 2
2, 3
5, 1
1, 0
1, 1
0, 0
1, 1
0, 2
0, 1
1, 2
1, 3
1, 0
1, 0
0, 2
3, 0
0, 0
1, 0
0, 2
0, 0
0, 0
0, 0
0, 0
0, 0
0, 2
3, 0
0, 0
0, 2
0, 0
1, 0
0, 0
1, 0
0, 2
0, 0
1, 0
0, 0
1, 1
0, 1
0, 1
0, 0
1, 2
1, 0
0, 0
2, 0
0, 0
0, 0
0, 0
0, 0
0, 0
1, 0
0, 0
0, 2
0, 0
0, 1
0, 0
0, 0
0, 0
0, 0
0, 0
0, 0
0, 0
0, 0
1, 0
0, 0
0, 0
0, 0
0, 0
0, 0
0, 0
0, 0
0, 0
0, 0
1, 1
0, 0
0, 0
0, 0
0, 0
0, 0
0, 0
0, 0
0, 0
0, 0
0, 0
0, 0
0, 0
0, 0
0, 0
0, 0
0, 0
0, 0
0, 1
0, 0
0, 0
0, 0
0, 0
0, 0
0, 0
0, 1
0, 0
0, 0
0, 0
0, 0
0, 0
0, 0
0, 0
0, 0
0, 0
0, 0
0, 0
0, 0
0, 0
0, 0
0, 0
0, 0
0, 0
0, 0
0, 0
0, 0
0, 0
0, 0
0, 0
0, 0
0, 0
0, 0
0, 0
0, 0
0, 0
0, 0
0, 0
0, 0
0, 0
0, 0
0, 0
0, 0
0, 0
0, 0
0, 0
0, 0
0, 0
0, 0
0, 0
0, 0
0, 0
0, 0
0, 0
0, 0
0, 0
0, 0
0, 0
0, 0
0, 0
0, 0
0, 0
0, 0
0, 0
0, 0
0, 0
0, 0
0, 0
0, 0
0, 0
0, 0
0, 0
0, 0
0, 0
0, 0
0, 0
0, 0
0, 0
0, 0
0, 0
0, 0
0, 0
0, 0
0, 0
#ENDOFDATA     end of spectrum data