File: host_upload/06-09-2024/ps_0852/dump3/ps__0852shot_2329.msa
#FORMAT      : EMSA/MAS spectral data file
#VERSION     : TC202v2.0 PIXL
#TITLE       : N/A
#DATE        :       Date in the format DD-MMM-YYYY, for example 07-JUL-2010
#TIME        :             The time of day at which the spectrum was recorded, in 24-hour format
#OWNER       : PIXL Flight Model       (PIXL will use this to indicate which instrument took the data.)
#NPOINTS     : 4096     Number of data points in the spectrum (This can be zero for configuration only files)
#NCOLUMNS    : 2     Number of data columns in the spectrum (This can be zero for configuration only files)
#XUNITS      : eV
#YUNITS      : COUNTS
#DATATYPE    : YY
#XPERCHAN    : 7.862, 7.881   eV per channel (separate by commas if more than one detector)
#OFFSET      : 18.5, -22.4         eV of first channel  (separate by commas if more than one detector
#SIGNALTYPE  : XRF
#YP_TEMP     : 2.364
#LIVETIME    : 8.56697, 8.55527   seconds (separate by commas if more than one detector)
#REALTIME    : 10, 10.0   seconds (separate by commas if more than one detector)
#SPECTRUM    : start of spectrum data
0, 0
0, 0
0, 0
0, 0
0, 0
0, 0
0, 0
0, 0
1, 0
2, 2
4, 0
41, 37
59, 53
6, 4
9, 3
88, 94
457, 388
95, 98
3, 7
3, 2
5, 6
32, 14
17, 7
8, 9
47, 43
98, 39
75, 28
21, 13
8, 4
4, 3
2, 2
3, 2
4, 1
18, 11
16, 12
9, 2
6, 2
9, 2
6, 5
11, 3
5, 4
9, 6
10, 12
5, 10
5, 4
7, 3
5, 5
6, 6
3, 6
15, 13
35, 13
52, 8
28, 11
40, 31
57, 69
27, 73
43, 63
442, 592
2302, 2262
1670, 1356
165, 133
28, 25
15, 27
107, 122
343, 373
234, 184
38, 30
7, 9
14, 18
9, 4
5, 7
3, 10
4, 6
4, 2
3, 5
7, 13
16, 29
9, 11
5, 7
3, 3
3, 1
8, 3
3, 7
4, 2
5, 1
4, 3
2, 3
4, 3
3, 4
4, 5
2, 4
2, 5
3, 4
4, 1
2, 1
3, 2
1, 0
3, 3
2, 6
4, 4
4, 1
2, 1
3, 3
0, 2
0, 3
3, 1
2, 3
4, 1
3, 1
2, 3
2, 5
0, 1
4, 2
1, 2
3, 5
0, 5
0, 1
0, 2
3, 2
2, 3
2, 0
0, 1
1, 4
5, 2
2, 3
1, 0
2, 1
1, 1
3, 0
1, 0
2, 0
0, 1
2, 2
0, 0
1, 0
1, 1
0, 1
0, 0
2, 1
0, 1
1, 0
1, 0
1, 0
0, 0
0, 0
3, 0
0, 3
0, 0
0, 0
0, 1
0, 2
0, 0
1, 0
0, 0
0, 0
0, 0
0, 0
0, 0
0, 0
0, 0
0, 0
0, 0
0, 0
1, 0
0, 0
1, 1
1, 0
1, 0
1, 0
0, 0
0, 0
1, 0
0, 0
1, 1
0, 0
0, 0
0, 0
0, 1
0, 0
1, 0
0, 0
0, 0
0, 1
0, 0
0, 0
0, 0
0, 0
1, 0
0, 0
1, 0
0, 0
0, 0
0, 0
0, 0
0, 0
0, 0
0, 0
0, 0
0, 0
0, 0
0, 0
0, 0
0, 0
0, 0
0, 0
0, 0
0, 0
0, 0
0, 0
0, 0
0, 0
1, 0
0, 0
0, 0
0, 0
0, 0
0, 0
0, 0
0, 0
0, 0
0, 0
0, 0
0, 0
0, 0
0, 0
0, 0
0, 0
0, 0
0, 0
0, 0
0, 0
0, 0
0, 0
0, 0
0, 0
0, 0
0, 0
0, 0
0, 0
0, 0
0, 0
0, 0
0, 0
0, 0
0, 0
0, 0
0, 0
0, 0
0, 0
0, 0
0, 0
0, 0
0, 0
0, 0
0, 0
0, 0
0, 0
0, 0
0, 0
0, 0
0, 0
0, 0
0, 0
0, 0
0, 0
0, 0
0, 0
0, 0
0, 0
0, 0
0, 0
0, 0
0, 0
0, 0
0, 0
0, 0
0, 0
0, 0
0, 0
0, 0
0, 0
0, 0
0, 0
0, 0
0, 0
0, 0
0, 0
0, 0
0, 0
0, 0
0, 0
0, 0
0, 0
0, 0
#ENDOFDATA     end of spectrum data