File: host_upload/06-09-2024/ps_0852/dump3/ps__0852shot_2300.msa
#FORMAT      : EMSA/MAS spectral data file
#VERSION     : TC202v2.0 PIXL
#TITLE       : N/A
#DATE        :       Date in the format DD-MMM-YYYY, for example 07-JUL-2010
#TIME        :             The time of day at which the spectrum was recorded, in 24-hour format
#OWNER       : PIXL Flight Model       (PIXL will use this to indicate which instrument took the data.)
#NPOINTS     : 4096     Number of data points in the spectrum (This can be zero for configuration only files)
#NCOLUMNS    : 2     Number of data columns in the spectrum (This can be zero for configuration only files)
#XUNITS      : eV
#YUNITS      : COUNTS
#DATATYPE    : YY
#XPERCHAN    : 7.862, 7.881   eV per channel (separate by commas if more than one detector)
#OFFSET      : 18.5, -22.4         eV of first channel  (separate by commas if more than one detector
#SIGNALTYPE  : XRF
#YP_TEMP     : 2.364
#LIVETIME    : 8.54446, 8.57026   seconds (separate by commas if more than one detector)
#REALTIME    : 10, 10.0   seconds (separate by commas if more than one detector)
#SPECTRUM    : start of spectrum data
0, 0
0, 0
0, 0
0, 0
0, 0
0, 0
0, 0
0, 0
3, 1
2, 0
4, 2
58, 49
58, 59
2, 5
6, 5
109, 93
452, 416
121, 94
13, 8
3, 4
1, 1
7, 6
5, 1
5, 4
29, 30
42, 30
22, 22
13, 16
2, 10
2, 0
3, 1
1, 4
6, 9
41, 27
75, 41
15, 10
6, 8
11, 16
6, 11
4, 8
11, 5
13, 11
19, 20
14, 18
9, 23
5, 16
6, 8
6, 7
13, 12
25, 15
35, 10
25, 6
20, 27
33, 46
70, 58
21, 27
21, 38
461, 555
2151, 2330
1588, 1258
196, 131
18, 18
21, 27
96, 129
335, 353
248, 198
35, 30
13, 7
18, 7
10, 5
5, 10
4, 2
2, 5
5, 7
5, 6
5, 7
5, 7
5, 4
7, 6
8, 7
5, 0
7, 4
6, 3
8, 12
8, 13
2, 7
5, 11
1, 4
2, 4
3, 2
3, 0
2, 2
10, 2
1, 5
2, 6
7, 1
3, 0
3, 1
3, 6
5, 1
4, 4
5, 5
5, 2
2, 7
3, 4
4, 2
1, 2
1, 2
2, 2
1, 1
2, 0
2, 2
4, 2
4, 3
3, 3
3, 2
5, 4
4, 6
1, 2
1, 2
1, 0
1, 2
1, 0
1, 2
2, 0
1, 2
1, 1
3, 0
0, 0
2, 0
0, 0
1, 0
0, 0
0, 1
0, 0
1, 1
1, 0
1, 2
1, 2
1, 1
0, 1
1, 0
0, 0
0, 2
1, 0
0, 1
1, 0
0, 0
0, 0
1, 0
0, 1
0, 0
0, 0
1, 0
1, 0
0, 0
1, 1
0, 0
0, 0
0, 0
0, 0
0, 0
0, 1
0, 1
0, 0
0, 0
0, 0
0, 1
0, 0
0, 0
1, 1
0, 1
1, 0
0, 0
0, 0
0, 0
0, 0
0, 0
0, 1
0, 1
0, 0
0, 0
0, 0
0, 1
1, 0
0, 0
0, 0
0, 0
0, 0
0, 0
0, 0
0, 0
1, 0
0, 0
0, 0
0, 0
0, 0
0, 0
0, 0
0, 0
0, 0
0, 0
0, 0
0, 0
0, 0
0, 0
0, 0
0, 0
0, 0
0, 0
0, 0
0, 0
0, 0
0, 0
0, 0
0, 0
0, 0
0, 0
0, 0
0, 0
0, 0
0, 0
0, 0
0, 0
0, 0
0, 0
0, 0
0, 0
0, 0
0, 0
0, 0
0, 0
0, 0
0, 0
0, 0
0, 0
0, 0
0, 0
0, 0
0, 0
0, 0
0, 0
0, 0
0, 0
0, 0
0, 0
0, 0
0, 0
0, 0
0, 0
0, 0
0, 0
0, 0
0, 0
0, 0
0, 0
0, 0
0, 0
0, 0
0, 0
0, 0
0, 0
0, 0
0, 0
0, 0
0, 0
0, 0
0, 0
0, 0
0, 0
0, 0
0, 0
0, 0
0, 0
0, 0
0, 0
0, 0
0, 0
0, 0
0, 0
0, 0
0, 0
0, 0
0, 0
0, 0
0, 0
0, 0
0, 0
0, 0
0, 0
0, 0
0, 0
0, 0
0, 0
#ENDOFDATA     end of spectrum data