File: host_upload/06-09-2024/ps_0852/dump3/ps__0852shot_2454.msa
#FORMAT      : EMSA/MAS spectral data file
#VERSION     : TC202v2.0 PIXL
#TITLE       : N/A
#DATE        :       Date in the format DD-MMM-YYYY, for example 07-JUL-2010
#TIME        :             The time of day at which the spectrum was recorded, in 24-hour format
#OWNER       : PIXL Flight Model       (PIXL will use this to indicate which instrument took the data.)
#NPOINTS     : 4096     Number of data points in the spectrum (This can be zero for configuration only files)
#NCOLUMNS    : 2     Number of data columns in the spectrum (This can be zero for configuration only files)
#XUNITS      : eV
#YUNITS      : COUNTS
#DATATYPE    : YY
#XPERCHAN    : 7.862, 7.881   eV per channel (separate by commas if more than one detector)
#OFFSET      : 18.5, -22.4         eV of first channel  (separate by commas if more than one detector
#SIGNALTYPE  : XRF
#YP_TEMP     : 2.492
#LIVETIME    : 8.57046, 8.57318   seconds (separate by commas if more than one detector)
#REALTIME    : 10, 10.0   seconds (separate by commas if more than one detector)
#SPECTRUM    : start of spectrum data
0, 0
0, 0
0, 0
0, 0
0, 0
0, 0
0, 0
0, 2
0, 1
1, 1
3, 5
39, 49
46, 56
5, 9
6, 7
94, 94
389, 414
87, 87
2, 4
2, 2
4, 6
38, 31
20, 16
16, 13
36, 46
49, 35
21, 18
12, 17
6, 4
2, 3
4, 3
6, 5
5, 4
19, 26
47, 30
4, 11
15, 12
8, 13
5, 8
4, 3
3, 6
14, 10
14, 16
15, 16
5, 10
5, 6
3, 6
8, 7
9, 7
21, 24
20, 11
14, 14
23, 15
47, 54
47, 48
19, 26
31, 51
459, 633
1998, 2383
1452, 1371
179, 136
14, 25
15, 37
108, 129
310, 346
231, 186
35, 22
4, 32
13, 45
2, 29
5, 6
4, 3
3, 7
11, 7
28, 10
16, 2
3, 2
6, 4
2, 10
4, 8
5, 8
6, 2
6, 7
7, 4
7, 7
4, 3
3, 5
4, 5
5, 3
3, 4
5, 3
10, 4
5, 4
5, 2
4, 4
7, 2
3, 2
4, 0
3, 1
1, 1
0, 4
0, 3
2, 6
2, 6
1, 0
1, 0
3, 5
1, 3
3, 1
3, 4
5, 1
1, 2
2, 1
1, 1
3, 1
4, 3
8, 1
5, 2
2, 1
1, 2
1, 0
2, 2
0, 0
2, 0
1, 3
1, 1
1, 2
1, 1
1, 1
0, 1
3, 1
1, 0
1, 1
1, 1
0, 1
0, 2
0, 2
0, 0
1, 0
0, 0
1, 0
1, 0
1, 0
1, 0
0, 2
0, 1
1, 1
0, 1
0, 0
0, 1
0, 0
0, 1
1, 0
0, 0
1, 0
0, 1
0, 0
1, 0
1, 0
0, 0
0, 0
0, 0
0, 1
0, 0
0, 0
0, 0
0, 1
0, 0
0, 0
1, 0
1, 2
0, 0
0, 0
0, 0
0, 1
0, 0
0, 1
0, 0
0, 0
0, 0
0, 1
0, 0
0, 0
0, 0
0, 0
0, 0
1, 1
0, 0
0, 0
0, 0
0, 0
0, 0
0, 0
0, 0
0, 0
0, 0
0, 0
0, 0
0, 1
0, 0
0, 0
0, 0
0, 0
0, 0
0, 0
1, 0
0, 0
0, 0
0, 0
0, 0
0, 0
0, 0
0, 0
0, 0
0, 0
0, 0
0, 0
0, 0
0, 0
0, 0
0, 0
0, 0
0, 0
0, 0
0, 0
0, 0
0, 0
0, 0
0, 0
0, 0
0, 0
0, 0
0, 0
0, 0
0, 0
0, 0
0, 0
0, 0
0, 0
0, 0
0, 0
0, 0
0, 0
0, 0
0, 0
0, 0
0, 0
0, 0
0, 0
0, 0
0, 0
0, 0
0, 0
0, 0
0, 0
0, 0
0, 0
0, 0
0, 0
0, 0
0, 0
0, 0
0, 0
0, 0
0, 0
0, 0
0, 0
0, 0
0, 0
0, 0
0, 0
0, 0
0, 0
0, 0
0, 0
0, 0
0, 0
0, 0
0, 0
0, 0
0, 0
0, 0
0, 0
0, 0
0, 0
0, 0
0, 0
0, 0
0, 0
0, 0
0, 0
0, 0
0, 0
0, 0
#ENDOFDATA     end of spectrum data