File: host_upload/06-09-2024/ps_0852/dump3/ps__0852shot_2363.msa
#FORMAT      : EMSA/MAS spectral data file
#VERSION     : TC202v2.0 PIXL
#TITLE       : N/A
#DATE        :       Date in the format DD-MMM-YYYY, for example 07-JUL-2010
#TIME        :             The time of day at which the spectrum was recorded, in 24-hour format
#OWNER       : PIXL Flight Model       (PIXL will use this to indicate which instrument took the data.)
#NPOINTS     : 4096     Number of data points in the spectrum (This can be zero for configuration only files)
#NCOLUMNS    : 2     Number of data columns in the spectrum (This can be zero for configuration only files)
#XUNITS      : eV
#YUNITS      : COUNTS
#DATATYPE    : YY
#XPERCHAN    : 7.862, 7.881   eV per channel (separate by commas if more than one detector)
#OFFSET      : 18.5, -22.4         eV of first channel  (separate by commas if more than one detector
#SIGNALTYPE  : XRF
#YP_TEMP     : 2.011
#LIVETIME    : 8.56577, 8.55665   seconds (separate by commas if more than one detector)
#REALTIME    : 10, 10.0   seconds (separate by commas if more than one detector)
#SPECTRUM    : start of spectrum data
0, 0
0, 0
0, 0
0, 0
0, 0
0, 0
0, 0
0, 0
0, 5
2, 13
1, 3
56, 47
68, 75
5, 11
6, 2
90, 109
432, 430
113, 111
6, 8
1, 1
2, 6
2, 4
2, 5
8, 58
39, 740
52, 1016
27, 118
12, 20
3, 6
1, 2
0, 1
1, 1
1, 2
6, 14
13, 11
7, 12
3, 52
8, 51
6, 11
5, 3
1, 5
8, 9
10, 11
9, 16
4, 13
8, 13
4, 3
7, 8
6, 13
7, 13
14, 8
12, 4
18, 12
28, 37
58, 57
18, 20
30, 41
454, 626
2063, 2460
1510, 1451
180, 150
27, 45
30, 42
113, 132
322, 393
202, 196
35, 19
5, 9
11, 12
8, 14
4, 2
3, 6
8, 6
19, 6
24, 6
21, 9
4, 4
4, 2
9, 2
5, 1
1, 3
2, 0
0, 4
6, 5
7, 5
8, 4
9, 5
2, 4
3, 3
1, 4
3, 3
4, 2
5, 1
2, 1
3, 2
5, 4
3, 6
6, 3
4, 7
3, 3
2, 5
0, 3
1, 3
5, 2
3, 0
1, 1
2, 2
1, 3
2, 3
2, 2
2, 5
1, 1
5, 6
1, 0
0, 4
2, 3
3, 1
2, 4
0, 0
0, 1
2, 2
2, 2
2, 4
0, 4
2, 1
0, 1
0, 0
0, 3
1, 2
1, 3
0, 1
0, 0
0, 1
1, 0
0, 0
3, 4
0, 0
1, 0
0, 1
0, 0
1, 0
0, 0
0, 1
1, 0
2, 1
1, 2
1, 0
0, 0
0, 0
0, 0
0, 0
1, 0
2, 1
0, 0
0, 0
1, 0
1, 0
0, 0
0, 0
0, 0
0, 0
0, 1
0, 0
0, 0
1, 0
0, 0
0, 1
0, 0
0, 0
0, 0
1, 0
0, 0
0, 0
0, 0
0, 0
0, 0
0, 0
0, 0
0, 0
0, 0
0, 0
0, 0
0, 0
2, 0
0, 1
0, 0
0, 0
0, 0
0, 0
0, 0
1, 0
0, 0
0, 0
0, 0
0, 0
0, 0
0, 0
0, 0
0, 0
0, 0
0, 0
0, 0
0, 0
0, 0
0, 0
0, 0
0, 0
0, 0
0, 0
0, 0
0, 0
0, 0
0, 0
0, 0
0, 0
0, 0
0, 0
0, 0
0, 0
0, 0
0, 0
0, 0
0, 0
0, 0
0, 0
0, 0
0, 0
0, 0
0, 0
0, 0
0, 0
0, 0
0, 0
0, 0
0, 0
0, 0
0, 0
0, 0
0, 0
0, 0
0, 0
0, 0
0, 0
0, 0
0, 0
0, 0
0, 0
0, 0
0, 0
0, 0
0, 0
0, 0
0, 0
0, 0
0, 0
0, 0
0, 0
0, 0
0, 0
0, 0
0, 0
0, 0
0, 0
0, 0
0, 0
0, 0
0, 0
0, 0
0, 0
0, 0
0, 0
0, 0
0, 0
0, 0
0, 0
0, 0
0, 0
0, 0
0, 0
0, 0
0, 0
0, 0
0, 0
0, 0
0, 0
0, 0
0, 0
0, 0
0, 0
0, 0
0, 0
0, 0
0, 0
0, 0
#ENDOFDATA     end of spectrum data