File: host_upload/06-09-2024/ps_0852/dump3/ps__0852shot_2210.msa
#FORMAT      : EMSA/MAS spectral data file
#VERSION     : TC202v2.0 PIXL
#TITLE       : N/A
#DATE        :       Date in the format DD-MMM-YYYY, for example 07-JUL-2010
#TIME        :             The time of day at which the spectrum was recorded, in 24-hour format
#OWNER       : PIXL Flight Model       (PIXL will use this to indicate which instrument took the data.)
#NPOINTS     : 4096     Number of data points in the spectrum (This can be zero for configuration only files)
#NCOLUMNS    : 2     Number of data columns in the spectrum (This can be zero for configuration only files)
#XUNITS      : eV
#YUNITS      : COUNTS
#DATATYPE    : YY
#XPERCHAN    : 7.862, 7.881   eV per channel (separate by commas if more than one detector)
#OFFSET      : 18.5, -22.4         eV of first channel  (separate by commas if more than one detector
#SIGNALTYPE  : XRF
#YP_TEMP     : 2.492
#LIVETIME    : 8.54746, 8.37207   seconds (separate by commas if more than one detector)
#REALTIME    : 10, 10.0   seconds (separate by commas if more than one detector)
#SPECTRUM    : start of spectrum data
0, 0
0, 0
0, 0
0, 0
0, 0
0, 0
0, 0
0, 0
1, 0
0, 1
2, 3
44, 45
67, 51
3, 3
2, 3
118, 90
429, 436
118, 89
5, 6
2, 2
1, 1
5, 4
3, 4
3, 5
11, 13
31, 20
13, 14
8, 11
1, 5
1, 3
0, 2
1, 3
3, 22
7, 51
19, 20
3, 6
2, 3
6, 6
4, 1
13, 3
20, 7
32, 12
19, 13
26, 7
11, 4
7, 4
4, 3
4, 6
6, 2
14, 18
14, 21
5, 12
26, 16
68, 46
75, 52
24, 32
70, 40
579, 573
2207, 2345
1646, 1355
184, 127
20, 14
10, 25
111, 136
328, 358
202, 207
41, 15
12, 7
21, 6
16, 7
8, 3
3, 4
3, 2
4, 2
5, 4
4, 5
9, 4
3, 1
8, 6
7, 4
8, 5
4, 7
1, 6
2, 4
2, 4
6, 9
3, 8
2, 2
3, 3
2, 2
4, 1
6, 0
7, 1
9, 8
3, 6
5, 1
4, 0
4, 4
2, 0
4, 2
3, 4
2, 4
2, 1
3, 1
2, 3
2, 1
2, 1
2, 3
3, 1
2, 2
3, 5
2, 1
4, 5
5, 4
3, 5
2, 2
6, 4
7, 6
4, 3
2, 1
0, 0
3, 1
2, 4
2, 2
0, 0
0, 0
3, 2
1, 0
2, 3
3, 0
0, 3
1, 1
2, 0
1, 2
0, 1
2, 1
0, 1
0, 2
1, 1
0, 0
0, 0
0, 0
1, 0
0, 1
0, 2
1, 2
0, 1
0, 2
0, 1
1, 0
0, 0
0, 0
1, 0
0, 1
1, 0
0, 0
0, 0
0, 0
0, 1
0, 0
0, 0
0, 0
0, 2
1, 0
1, 0
1, 0
0, 1
0, 0
0, 0
1, 0
1, 0
0, 0
0, 0
1, 0
0, 0
0, 0
0, 0
0, 0
0, 0
0, 1
0, 0
0, 0
0, 0
0, 0
0, 0
0, 0
0, 0
0, 0
0, 0
0, 0
1, 0
0, 0
0, 0
0, 0
0, 0
0, 0
0, 0
0, 0
0, 0
0, 0
0, 0
0, 0
0, 0
0, 0
0, 0
0, 0
0, 0
0, 0
0, 0
0, 0
0, 0
0, 0
0, 0
0, 0
0, 0
0, 0
0, 0
0, 0
0, 0
0, 0
0, 0
0, 0
0, 0
0, 0
0, 0
0, 0
0, 0
0, 0
0, 0
0, 0
0, 0
0, 0
0, 0
0, 0
0, 0
0, 0
0, 0
0, 0
0, 0
0, 0
0, 0
0, 0
0, 0
0, 0
0, 0
0, 0
0, 0
0, 0
0, 0
0, 0
0, 0
0, 0
0, 0
0, 0
0, 0
0, 0
0, 0
0, 0
0, 0
0, 0
0, 0
0, 0
0, 0
0, 0
0, 0
0, 0
0, 0
0, 0
0, 0
0, 0
0, 0
0, 0
0, 0
0, 0
0, 0
0, 0
0, 0
0, 0
0, 0
0, 0
0, 0
0, 0
0, 0
0, 0
0, 0
0, 0
0, 0
0, 0
0, 0
0, 0
0, 0
0, 0
0, 0
0, 0
#ENDOFDATA     end of spectrum data