File: host_upload/06-09-2024/ps_0852/dump3/ps__0852shot_2509.msa
#FORMAT      : EMSA/MAS spectral data file
#VERSION     : TC202v2.0 PIXL
#TITLE       : N/A
#DATE        :       Date in the format DD-MMM-YYYY, for example 07-JUL-2010
#TIME        :             The time of day at which the spectrum was recorded, in 24-hour format
#OWNER       : PIXL Flight Model       (PIXL will use this to indicate which instrument took the data.)
#NPOINTS     : 4096     Number of data points in the spectrum (This can be zero for configuration only files)
#NCOLUMNS    : 2     Number of data columns in the spectrum (This can be zero for configuration only files)
#XUNITS      : eV
#YUNITS      : COUNTS
#DATATYPE    : YY
#XPERCHAN    : 7.862, 7.881   eV per channel (separate by commas if more than one detector)
#OFFSET      : 18.5, -22.4         eV of first channel  (separate by commas if more than one detector
#SIGNALTYPE  : XRF
#YP_TEMP     : 2.171
#LIVETIME    : 8.59741, 8.59159   seconds (separate by commas if more than one detector)
#REALTIME    : 10, 10.0   seconds (separate by commas if more than one detector)
#SPECTRUM    : start of spectrum data
0, 0
0, 0
0, 0
0, 0
0, 0
0, 0
0, 0
0, 1
0, 2
0, 1
0, 3
41, 41
51, 61
8, 6
1, 6
81, 99
406, 401
103, 110
18, 18
6, 21
44, 47
280, 243
94, 96
32, 26
56, 59
55, 47
40, 24
19, 16
2, 3
2, 2
6, 2
3, 8
7, 7
85, 97
126, 130
26, 19
33, 21
30, 29
5, 4
4, 4
4, 7
10, 12
11, 17
9, 18
3, 11
7, 8
4, 4
5, 8
10, 26
26, 49
22, 17
7, 10
6, 26
37, 51
67, 51
34, 11
35, 44
381, 541
1890, 2089
1398, 1212
157, 118
15, 18
24, 20
71, 104
303, 318
195, 194
38, 18
5, 10
19, 21
8, 6
10, 9
15, 5
21, 7
7, 5
8, 6
5, 7
7, 1
12, 3
8, 7
6, 5
2, 5
5, 6
2, 3
5, 10
2, 8
5, 9
3, 4
0, 4
1, 9
6, 5
3, 2
4, 3
2, 6
3, 3
5, 2
4, 0
8, 4
4, 8
2, 7
3, 0
2, 1
0, 3
0, 1
5, 2
2, 2
4, 5
4, 1
1, 3
2, 3
1, 3
3, 4
2, 3
1, 4
2, 2
2, 0
1, 2
6, 1
2, 6
1, 1
0, 1
0, 2
0, 2
4, 3
1, 2
1, 3
1, 2
2, 1
0, 2
1, 1
2, 0
1, 1
1, 2
1, 0
0, 0
0, 1
2, 1
2, 1
1, 1
0, 0
0, 1
1, 0
1, 0
0, 2
0, 0
0, 0
2, 0
1, 0
0, 0
1, 0
0, 0
0, 0
0, 0
0, 0
0, 0
0, 0
0, 0
0, 0
0, 0
0, 0
0, 1
0, 0
0, 0
1, 0
0, 0
0, 0
0, 0
0, 0
0, 0
0, 0
0, 0
0, 0
0, 0
1, 0
0, 0
0, 2
1, 3
0, 0
0, 0
0, 0
0, 0
0, 0
0, 0
0, 0
0, 0
0, 1
0, 0
0, 1
0, 0
0, 0
1, 0
0, 0
0, 0
0, 0
0, 0
0, 0
0, 0
0, 0
0, 0
0, 0
0, 0
0, 0
0, 0
0, 0
0, 0
0, 0
0, 0
0, 0
0, 0
0, 0
0, 0
0, 0
0, 0
0, 0
0, 0
0, 0
0, 0
0, 0
0, 0
0, 0
0, 0
0, 0
0, 0
0, 0
0, 0
0, 0
0, 0
0, 0
0, 0
0, 0
0, 0
0, 0
0, 0
0, 0
0, 0
0, 0
0, 0
0, 0
0, 0
0, 0
0, 0
0, 0
0, 0
0, 0
0, 0
0, 0
0, 0
0, 0
0, 0
0, 0
0, 0
0, 0
0, 0
0, 0
0, 0
0, 0
0, 0
0, 0
0, 0
0, 0
0, 0
0, 0
0, 0
0, 0
0, 0
0, 0
0, 0
0, 0
0, 0
0, 0
0, 0
0, 0
0, 0
0, 0
0, 0
0, 0
0, 0
0, 0
0, 0
0, 0
0, 0
0, 0
0, 0
0, 0
0, 0
0, 0
0, 0
0, 0
0, 0
0, 0
0, 0
0, 0
0, 0
0, 0
0, 0
#ENDOFDATA     end of spectrum data