File: host_upload/06-09-2024/ps_0852/dump3/ps__0852shot_2046.msa
#FORMAT      : EMSA/MAS spectral data file
#VERSION     : TC202v2.0 PIXL
#TITLE       : N/A
#DATE        :       Date in the format DD-MMM-YYYY, for example 07-JUL-2010
#TIME        :             The time of day at which the spectrum was recorded, in 24-hour format
#OWNER       : PIXL Flight Model       (PIXL will use this to indicate which instrument took the data.)
#NPOINTS     : 4096     Number of data points in the spectrum (This can be zero for configuration only files)
#NCOLUMNS    : 2     Number of data columns in the spectrum (This can be zero for configuration only files)
#XUNITS      : eV
#YUNITS      : COUNTS
#DATATYPE    : YY
#XPERCHAN    : 7.862, 7.881   eV per channel (separate by commas if more than one detector)
#OFFSET      : 18.5, -22.4         eV of first channel  (separate by commas if more than one detector
#SIGNALTYPE  : XRF
#YP_TEMP     : 2.46
#LIVETIME    : 8.5615, 8.5369   seconds (separate by commas if more than one detector)
#REALTIME    : 10, 10.0   seconds (separate by commas if more than one detector)
#SPECTRUM    : start of spectrum data
0, 0
0, 0
0, 0
0, 0
0, 0
0, 0
0, 0
0, 0
0, 0
0, 4
1, 1
52, 51
78, 47
8, 7
5, 6
94, 100
428, 452
99, 101
4, 5
0, 1
1, 2
3, 5
1, 20
9, 16
45, 25
50, 31
24, 42
14, 27
2, 3
4, 2
0, 1
4, 3
2, 3
10, 17
12, 14
4, 3
11, 14
1, 24
6, 7
1, 1
4, 3
13, 11
23, 16
15, 20
6, 30
5, 29
4, 8
9, 6
30, 12
79, 13
49, 15
9, 11
11, 19
40, 44
62, 65
20, 23
31, 42
496, 668
2198, 2389
1627, 1504
215, 156
13, 20
23, 26
95, 117
306, 366
203, 248
44, 110
11, 81
17, 31
5, 7
5, 4
4, 3
6, 5
8, 4
5, 5
3, 9
6, 7
8, 4
5, 4
4, 10
1, 9
4, 7
2, 3
6, 6
2, 3
3, 1
4, 4
6, 7
7, 7
3, 9
2, 5
0, 3
1, 1
5, 2
3, 5
2, 2
4, 3
4, 2
3, 4
2, 2
3, 4
2, 6
6, 2
2, 4
1, 4
4, 4
5, 0
5, 3
1, 1
6, 1
1, 0
1, 4
3, 2
3, 2
1, 3
7, 3
6, 5
3, 3
5, 1
0, 2
0, 0
2, 2
3, 2
2, 1
0, 3
2, 0
1, 2
1, 4
1, 0
1, 1
1, 1
1, 0
0, 0
0, 1
1, 1
1, 0
2, 0
0, 0
0, 1
1, 0
0, 3
1, 0
0, 1
0, 1
1, 0
1, 0
0, 1
0, 3
0, 0
0, 0
0, 0
0, 1
0, 0
0, 2
1, 0
1, 1
0, 2
0, 0
0, 0
0, 0
1, 1
0, 1
1, 0
1, 0
0, 0
1, 0
0, 0
0, 0
0, 0
0, 0
0, 0
1, 0
0, 0
0, 0
0, 0
1, 0
0, 0
0, 0
0, 0
0, 0
0, 0
0, 0
0, 0
0, 0
2, 1
0, 0
0, 0
0, 0
0, 0
0, 0
0, 0
0, 0
0, 0
0, 0
0, 0
0, 0
0, 1
0, 0
0, 0
0, 0
0, 0
0, 0
0, 0
0, 0
0, 0
0, 0
0, 0
0, 0
0, 0
0, 0
0, 0
0, 0
0, 0
0, 0
0, 0
0, 0
0, 0
0, 0
0, 0
0, 0
0, 0
0, 0
0, 0
0, 0
0, 0
0, 0
0, 0
0, 0
0, 0
0, 0
0, 0
0, 0
0, 0
0, 0
0, 0
0, 0
0, 0
0, 0
0, 0
0, 0
0, 0
0, 0
0, 0
0, 0
0, 0
0, 0
0, 0
0, 0
0, 0
0, 0
0, 0
0, 0
0, 0
0, 0
0, 0
0, 0
0, 0
0, 0
0, 0
0, 0
0, 0
0, 0
0, 0
0, 0
0, 0
0, 0
0, 0
0, 0
0, 0
0, 0
0, 0
0, 0
0, 0
0, 0
0, 0
0, 0
0, 0
0, 0
0, 0
0, 0
0, 0
0, 0
0, 0
0, 0
0, 0
0, 0
0, 0
0, 0
0, 0
0, 0
0, 0
0, 0
0, 0
0, 0
#ENDOFDATA     end of spectrum data