File: host_upload/06-09-2024/ps_0852/dump3/ps__0852shot_2413.msa
#FORMAT      : EMSA/MAS spectral data file
#VERSION     : TC202v2.0 PIXL
#TITLE       : N/A
#DATE        :       Date in the format DD-MMM-YYYY, for example 07-JUL-2010
#TIME        :             The time of day at which the spectrum was recorded, in 24-hour format
#OWNER       : PIXL Flight Model       (PIXL will use this to indicate which instrument took the data.)
#NPOINTS     : 4096     Number of data points in the spectrum (This can be zero for configuration only files)
#NCOLUMNS    : 2     Number of data columns in the spectrum (This can be zero for configuration only files)
#XUNITS      : eV
#YUNITS      : COUNTS
#DATATYPE    : YY
#XPERCHAN    : 7.862, 7.881   eV per channel (separate by commas if more than one detector)
#OFFSET      : 18.5, -22.4         eV of first channel  (separate by commas if more than one detector
#SIGNALTYPE  : XRF
#YP_TEMP     : 2.267
#LIVETIME    : 8.53558, 8.52578   seconds (separate by commas if more than one detector)
#REALTIME    : 10, 10.0   seconds (separate by commas if more than one detector)
#SPECTRUM    : start of spectrum data
0, 0
0, 0
0, 0
0, 0
0, 0
0, 0
0, 0
1, 0
1, 2
0, 0
9, 3
29, 41
70, 54
6, 6
5, 6
109, 78
504, 348
117, 85
13, 7
6, 1
5, 5
10, 7
7, 4
10, 11
54, 53
47, 48
20, 20
15, 26
4, 2
4, 0
2, 3
3, 0
5, 1
18, 10
34, 20
6, 5
0, 4
3, 11
4, 3
1, 3
3, 3
7, 11
17, 15
13, 14
3, 8
7, 9
3, 26
6, 34
18, 13
26, 8
43, 11
12, 15
12, 7
35, 43
69, 47
40, 11
38, 31
520, 558
2335, 2179
1712, 1294
213, 134
13, 17
20, 35
73, 89
388, 318
235, 192
39, 33
13, 10
16, 13
11, 12
11, 3
7, 5
9, 3
5, 7
7, 5
5, 4
7, 9
5, 7
5, 11
16, 1
13, 3
8, 1
6, 2
5, 7
4, 1
4, 2
4, 13
5, 23
4, 13
12, 6
7, 0
7, 1
5, 1
3, 4
5, 3
0, 4
1, 0
3, 3
5, 2
2, 1
6, 1
1, 3
2, 3
4, 2
0, 0
0, 3
2, 0
2, 1
4, 3
6, 3
0, 4
0, 1
3, 0
2, 0
2, 1
4, 5
4, 2
5, 2
2, 2
2, 0
1, 3
2, 2
0, 0
1, 2
2, 1
0, 0
1, 2
1, 1
3, 0
1, 0
1, 2
0, 2
2, 0
1, 1
1, 0
3, 2
2, 1
0, 0
0, 1
0, 1
0, 1
1, 0
0, 0
0, 0
1, 0
0, 0
0, 0
0, 0
1, 0
0, 1
0, 2
0, 0
0, 0
1, 1
0, 0
0, 0
0, 0
2, 1
0, 1
0, 1
0, 0
1, 0
0, 0
0, 0
0, 1
1, 1
0, 1
0, 0
0, 0
0, 0
0, 0
0, 1
0, 0
0, 0
1, 0
0, 0
0, 0
1, 0
0, 0
1, 0
0, 0
0, 1
0, 0
0, 0
1, 0
0, 0
0, 1
0, 0
0, 0
0, 0
0, 0
0, 0
0, 0
0, 1
0, 0
0, 0
0, 0
0, 0
0, 0
0, 0
0, 0
0, 0
0, 0
0, 0
0, 0
0, 0
0, 0
0, 0
0, 0
0, 0
0, 0
0, 0
0, 0
0, 0
0, 0
0, 0
0, 0
0, 0
0, 0
0, 0
0, 0
0, 0
0, 0
0, 0
0, 0
0, 0
0, 0
0, 0
0, 0
0, 0
0, 0
0, 0
0, 0
0, 0
0, 0
1, 0
0, 0
0, 0
0, 0
0, 1
0, 0
0, 0
0, 0
0, 0
0, 0
0, 0
0, 0
0, 0
0, 0
0, 0
0, 0
0, 0
0, 0
0, 0
0, 0
0, 0
0, 0
0, 0
0, 0
0, 0
0, 0
0, 0
0, 0
0, 0
0, 0
0, 0
0, 0
0, 0
0, 0
0, 0
0, 0
0, 0
0, 0
0, 0
0, 0
0, 0
0, 0
0, 0
0, 0
0, 0
0, 0
0, 0
0, 0
0, 0
0, 0
0, 0
0, 0
0, 0
0, 0
0, 0
0, 0
0, 0
0, 0
0, 0
#ENDOFDATA     end of spectrum data