File: host_upload/06-09-2024/ps_0852/dump3/ps__0852shot_2423.msa
#FORMAT      : EMSA/MAS spectral data file
#VERSION     : TC202v2.0 PIXL
#TITLE       : N/A
#DATE        :       Date in the format DD-MMM-YYYY, for example 07-JUL-2010
#TIME        :             The time of day at which the spectrum was recorded, in 24-hour format
#OWNER       : PIXL Flight Model       (PIXL will use this to indicate which instrument took the data.)
#NPOINTS     : 4096     Number of data points in the spectrum (This can be zero for configuration only files)
#NCOLUMNS    : 2     Number of data columns in the spectrum (This can be zero for configuration only files)
#XUNITS      : eV
#YUNITS      : COUNTS
#DATATYPE    : YY
#XPERCHAN    : 7.862, 7.881   eV per channel (separate by commas if more than one detector)
#OFFSET      : 18.5, -22.4         eV of first channel  (separate by commas if more than one detector
#SIGNALTYPE  : XRF
#YP_TEMP     : 2.492
#LIVETIME    : 8.55478, 8.56186   seconds (separate by commas if more than one detector)
#REALTIME    : 10, 10.0   seconds (separate by commas if more than one detector)
#SPECTRUM    : start of spectrum data
0, 0
0, 0
0, 0
0, 0
0, 0
0, 0
0, 0
0, 0
1, 1
2, 4
1, 4
51, 45
65, 47
4, 9
5, 1
89, 86
431, 392
98, 93
4, 17
7, 5
3, 1
3, 0
5, 4
11, 16
127, 38
150, 20
44, 21
20, 13
2, 2
5, 0
1, 0
2, 1
14, 7
33, 20
47, 22
67, 6
26, 7
2, 9
6, 4
6, 2
4, 9
10, 18
5, 18
4, 13
9, 11
6, 9
5, 13
8, 5
14, 6
22, 14
14, 13
14, 6
8, 21
36, 44
45, 55
20, 34
52, 40
537, 565
2211, 2320
1611, 1394
222, 126
22, 18
20, 25
108, 140
320, 334
236, 177
30, 26
15, 10
11, 17
9, 5
13, 4
9, 4
7, 9
9, 9
15, 7
12, 11
5, 5
5, 5
4, 1
3, 5
9, 2
6, 5
2, 7
4, 2
5, 7
3, 1
8, 4
8, 8
10, 4
10, 3
2, 4
3, 0
5, 3
1, 3
5, 4
6, 4
4, 6
3, 4
3, 0
5, 3
2, 2
4, 1
1, 2
2, 3
1, 2
3, 1
1, 4
1, 2
4, 3
1, 2
2, 4
1, 2
3, 1
3, 1
3, 2
4, 3
1, 2
0, 4
2, 2
3, 2
2, 3
2, 3
4, 2
0, 2
2, 3
1, 1
0, 0
0, 0
0, 2
2, 2
1, 1
1, 0
0, 1
0, 1
1, 0
3, 0
0, 0
1, 1
0, 1
1, 2
1, 0
2, 0
1, 1
1, 1
2, 1
2, 0
0, 0
1, 2
0, 1
1, 0
0, 1
1, 0
0, 0
0, 0
1, 0
0, 0
0, 1
0, 0
0, 0
1, 0
0, 0
0, 1
0, 0
0, 1
1, 0
0, 0
0, 0
0, 1
0, 0
2, 0
1, 0
0, 1
0, 0
0, 0
0, 0
0, 0
1, 0
0, 0
0, 0
0, 0
0, 1
0, 0
0, 0
0, 0
0, 1
1, 1
0, 0
0, 0
0, 0
0, 0
0, 0
0, 0
0, 0
0, 0
0, 0
0, 0
0, 0
0, 0
0, 0
0, 0
0, 0
0, 0
0, 0
0, 0
0, 0
0, 0
0, 0
0, 0
0, 0
0, 0
0, 0
0, 0
2, 0
0, 0
0, 0
0, 0
0, 0
0, 0
0, 0
0, 0
0, 0
0, 0
0, 0
0, 0
0, 0
0, 0
0, 0
0, 0
0, 0
0, 0
0, 0
0, 0
0, 0
0, 0
0, 0
0, 0
0, 0
0, 0
0, 0
0, 0
0, 0
0, 0
0, 0
0, 0
0, 0
0, 0
0, 0
0, 0
0, 0
0, 0
0, 0
0, 0
0, 0
0, 0
0, 0
0, 0
0, 0
0, 0
0, 0
0, 0
0, 0
0, 0
0, 0
0, 0
0, 0
0, 0
0, 0
0, 0
0, 0
0, 0
0, 0
0, 0
0, 0
0, 0
0, 0
0, 0
0, 0
0, 0
0, 0
0, 0
0, 0
0, 0
0, 0
0, 0
0, 0
0, 0
0, 0
0, 0
0, 0
0, 0
0, 0
0, 0
0, 0
0, 0
#ENDOFDATA     end of spectrum data