File: host_upload/06-09-2024/ps_0852/dump3/ps__0852shot_2177.msa
#FORMAT      : EMSA/MAS spectral data file
#VERSION     : TC202v2.0 PIXL
#TITLE       : N/A
#DATE        :       Date in the format DD-MMM-YYYY, for example 07-JUL-2010
#TIME        :             The time of day at which the spectrum was recorded, in 24-hour format
#OWNER       : PIXL Flight Model       (PIXL will use this to indicate which instrument took the data.)
#NPOINTS     : 4096     Number of data points in the spectrum (This can be zero for configuration only files)
#NCOLUMNS    : 2     Number of data columns in the spectrum (This can be zero for configuration only files)
#XUNITS      : eV
#YUNITS      : COUNTS
#DATATYPE    : YY
#XPERCHAN    : 7.862, 7.881   eV per channel (separate by commas if more than one detector)
#OFFSET      : 18.5, -22.4         eV of first channel  (separate by commas if more than one detector
#SIGNALTYPE  : XRF
#YP_TEMP     : 2.235
#LIVETIME    : 8.56004, 8.58436   seconds (separate by commas if more than one detector)
#REALTIME    : 10, 10.0   seconds (separate by commas if more than one detector)
#SPECTRUM    : start of spectrum data
0, 0
0, 0
0, 0
0, 0
0, 0
0, 0
0, 0
0, 0
2, 1
1, 0
0, 2
45, 38
50, 44
7, 2
4, 4
90, 77
478, 329
125, 61
5, 4
1, 2
12, 9
57, 46
20, 20
13, 14
39, 26
57, 22
20, 19
10, 12
8, 6
5, 1
2, 3
3, 0
3, 2
13, 7
11, 15
23, 29
28, 24
10, 9
5, 5
7, 2
6, 8
7, 4
14, 10
10, 10
8, 16
13, 7
15, 5
8, 8
8, 7
12, 14
20, 5
5, 3
11, 9
31, 31
83, 36
48, 16
53, 26
525, 457
2358, 1912
1802, 1125
223, 105
12, 10
27, 22
110, 106
328, 292
247, 163
33, 28
6, 3
16, 15
9, 6
2, 5
3, 8
4, 4
8, 7
5, 6
4, 7
9, 0
12, 8
8, 2
5, 5
6, 4
4, 1
4, 3
3, 3
2, 1
2, 0
4, 4
10, 0
9, 6
10, 0
3, 2
5, 5
2, 4
2, 4
3, 3
3, 0
5, 0
3, 1
1, 2
1, 4
5, 3
0, 2
2, 3
5, 1
2, 0
1, 1
2, 0
2, 2
1, 3
5, 0
5, 0
2, 4
4, 0
2, 0
3, 3
4, 3
3, 1
3, 2
5, 1
3, 0
0, 0
2, 1
3, 1
0, 2
0, 1
2, 1
2, 1
2, 1
1, 2
4, 1
2, 1
0, 1
1, 0
0, 1
2, 1
0, 1
1, 0
0, 0
1, 2
0, 0
0, 0
0, 1
1, 1
1, 0
0, 2
0, 0
0, 0
2, 0
1, 0
0, 1
0, 0
0, 0
0, 0
0, 0
1, 0
0, 0
0, 0
1, 0
1, 0
1, 0
3, 0
0, 1
0, 0
0, 0
0, 1
1, 0
0, 0
0, 0
0, 1
0, 0
0, 0
0, 0
0, 0
0, 0
0, 0
0, 0
0, 1
0, 0
0, 0
0, 0
0, 0
0, 0
0, 1
0, 0
1, 0
1, 0
0, 0
0, 0
0, 0
0, 0
0, 0
0, 0
0, 0
0, 0
0, 0
0, 0
0, 0
0, 0
0, 0
0, 0
0, 0
0, 0
0, 0
0, 0
0, 0
0, 0
0, 0
0, 0
0, 0
1, 0
0, 0
0, 0
0, 0
0, 0
0, 0
0, 0
0, 0
0, 0
0, 0
0, 0
0, 0
0, 0
0, 0
0, 0
0, 0
0, 0
0, 0
0, 0
0, 0
0, 0
0, 0
0, 0
0, 0
0, 0
0, 0
0, 0
0, 0
0, 0
0, 0
0, 0
0, 0
0, 0
0, 0
0, 0
0, 0
0, 0
0, 0
0, 0
0, 0
0, 0
0, 0
0, 0
0, 0
0, 0
0, 0
0, 0
0, 0
0, 0
0, 0
0, 0
0, 0
0, 0
0, 0
0, 0
0, 0
0, 0
0, 0
0, 0
0, 0
0, 0
0, 0
0, 0
0, 0
0, 0
0, 0
0, 0
0, 0
0, 0
0, 0
0, 0
0, 0
0, 0
0, 0
0, 0
0, 0
0, 0
0, 0
0, 0
0, 0
0, 0
0, 0
0, 0
0, 0
0, 0
#ENDOFDATA     end of spectrum data