File: host_upload/06-09-2024/ps_0852/dump3/ps__0852shot_2320.msa
#FORMAT      : EMSA/MAS spectral data file
#VERSION     : TC202v2.0 PIXL
#TITLE       : N/A
#DATE        :       Date in the format DD-MMM-YYYY, for example 07-JUL-2010
#TIME        :             The time of day at which the spectrum was recorded, in 24-hour format
#OWNER       : PIXL Flight Model       (PIXL will use this to indicate which instrument took the data.)
#NPOINTS     : 4096     Number of data points in the spectrum (This can be zero for configuration only files)
#NCOLUMNS    : 2     Number of data columns in the spectrum (This can be zero for configuration only files)
#XUNITS      : eV
#YUNITS      : COUNTS
#DATATYPE    : YY
#XPERCHAN    : 7.862, 7.881   eV per channel (separate by commas if more than one detector)
#OFFSET      : 18.5, -22.4         eV of first channel  (separate by commas if more than one detector
#SIGNALTYPE  : XRF
#YP_TEMP     : 2.46
#LIVETIME    : 8.55963, 8.54408   seconds (separate by commas if more than one detector)
#REALTIME    : 10, 10.0   seconds (separate by commas if more than one detector)
#SPECTRUM    : start of spectrum data
0, 0
0, 0
0, 0
0, 0
0, 0
0, 0
0, 0
0, 0
1, 2
1, 0
5, 2
33, 46
54, 39
6, 7
4, 2
93, 103
414, 435
116, 81
2, 8
3, 1
4, 3
9, 4
8, 0
17, 14
64, 64
52, 42
21, 27
19, 22
4, 4
4, 3
6, 2
3, 2
4, 3
35, 26
56, 40
19, 6
60, 5
64, 10
2, 5
6, 12
6, 4
8, 10
11, 13
32, 13
58, 6
27, 8
11, 6
3, 10
8, 7
18, 23
18, 10
21, 7
8, 12
40, 41
82, 68
26, 11
31, 39
513, 585
2196, 2121
1604, 1307
207, 150
23, 16
20, 13
108, 144
329, 349
262, 183
36, 26
7, 2
22, 19
13, 12
7, 3
11, 5
29, 6
23, 8
30, 4
7, 9
6, 6
2, 8
1, 4
5, 4
2, 5
4, 4
3, 1
3, 5
10, 2
1, 3
3, 5
3, 3
4, 6
6, 4
2, 5
6, 5
4, 2
3, 4
4, 3
1, 4
4, 5
3, 7
2, 3
2, 3
2, 6
0, 4
2, 6
3, 2
2, 4
2, 1
5, 5
0, 1
2, 6
3, 1
0, 1
2, 2
3, 4
1, 2
2, 3
1, 2
5, 6
7, 5
2, 3
1, 2
2, 4
1, 0
3, 5
1, 0
3, 1
0, 5
1, 1
1, 1
0, 1
0, 1
1, 1
0, 1
1, 0
1, 1
2, 2
1, 2
0, 0
0, 1
0, 1
1, 0
1, 2
1, 0
1, 0
0, 0
1, 1
1, 0
0, 0
1, 0
1, 0
0, 0
0, 0
0, 0
0, 3
0, 1
0, 0
0, 1
0, 1
0, 2
0, 0
0, 0
1, 0
1, 1
0, 0
2, 1
1, 0
2, 0
0, 0
0, 1
1, 0
0, 0
0, 0
0, 0
1, 2
1, 0
0, 0
0, 0
0, 0
0, 1
0, 0
0, 0
0, 0
0, 0
1, 1
0, 0
0, 0
0, 0
1, 0
0, 0
0, 0
0, 0
0, 0
0, 0
0, 0
0, 0
0, 0
0, 0
0, 0
0, 0
1, 0
0, 0
0, 0
0, 0
0, 0
0, 0
0, 0
0, 0
0, 0
0, 0
0, 0
0, 0
0, 0
0, 0
0, 0
0, 0
0, 0
0, 0
0, 0
0, 0
0, 0
0, 0
0, 0
0, 0
0, 0
0, 0
0, 0
0, 0
0, 0
0, 0
0, 0
0, 0
0, 0
0, 0
0, 0
0, 0
0, 0
0, 0
0, 0
0, 0
0, 0
0, 0
0, 0
0, 0
0, 0
0, 0
0, 0
0, 0
0, 0
0, 0
0, 0
0, 0
0, 0
0, 0
0, 0
0, 0
0, 0
0, 0
0, 0
0, 0
0, 0
0, 0
0, 0
0, 0
0, 0
0, 0
0, 0
0, 0
0, 0
0, 0
0, 0
0, 0
0, 0
0, 0
0, 0
0, 0
0, 0
0, 0
0, 0
0, 0
0, 0
0, 0
0, 0
0, 0
0, 0
0, 0
0, 0
0, 0
0, 0
0, 0
0, 0
0, 0
0, 0
0, 0
0, 0
0, 0
#ENDOFDATA     end of spectrum data