File: host_upload/06-09-2024/ps_0852/dump3/ps__0852shot_2180.msa
#FORMAT      : EMSA/MAS spectral data file
#VERSION     : TC202v2.0 PIXL
#TITLE       : N/A
#DATE        :       Date in the format DD-MMM-YYYY, for example 07-JUL-2010
#TIME        :             The time of day at which the spectrum was recorded, in 24-hour format
#OWNER       : PIXL Flight Model       (PIXL will use this to indicate which instrument took the data.)
#NPOINTS     : 4096     Number of data points in the spectrum (This can be zero for configuration only files)
#NCOLUMNS    : 2     Number of data columns in the spectrum (This can be zero for configuration only files)
#XUNITS      : eV
#YUNITS      : COUNTS
#DATATYPE    : YY
#XPERCHAN    : 7.862, 7.881   eV per channel (separate by commas if more than one detector)
#OFFSET      : 18.5, -22.4         eV of first channel  (separate by commas if more than one detector
#SIGNALTYPE  : XRF
#YP_TEMP     : 2.107
#LIVETIME    : 8.54938, 8.5515   seconds (separate by commas if more than one detector)
#REALTIME    : 10, 10.0   seconds (separate by commas if more than one detector)
#SPECTRUM    : start of spectrum data
0, 0
0, 0
0, 0
0, 0
0, 0
0, 0
0, 0
0, 0
1, 0
0, 0
2, 1
50, 55
73, 51
6, 4
4, 2
101, 85
439, 406
112, 106
9, 5
0, 0
1, 0
4, 2
2, 2
4, 5
41, 44
58, 57
16, 23
9, 11
4, 3
2, 7
3, 5
4, 0
3, 4
12, 13
23, 11
7, 8
9, 2
13, 9
8, 14
9, 27
8, 10
11, 13
8, 13
12, 20
13, 107
9, 42
6, 16
6, 5
11, 8
47, 16
16, 12
8, 6
12, 14
37, 42
52, 67
20, 36
43, 30
500, 628
2208, 2193
1712, 1303
219, 114
18, 19
21, 32
116, 128
362, 373
230, 203
36, 28
5, 10
12, 16
10, 10
5, 5
6, 0
6, 10
6, 14
8, 13
6, 8
8, 3
6, 5
7, 4
4, 1
4, 4
2, 6
6, 4
6, 6
7, 5
3, 6
2, 4
2, 4
2, 9
5, 4
5, 3
2, 1
6, 2
5, 3
4, 3
3, 4
1, 3
4, 0
3, 6
2, 7
2, 4
1, 1
4, 3
4, 1
2, 1
2, 6
0, 5
4, 2
3, 1
2, 1
0, 1
2, 2
0, 4
5, 3
5, 5
3, 1
4, 4
4, 3
1, 2
2, 1
1, 1
2, 2
0, 1
2, 0
1, 1
0, 0
2, 0
1, 1
1, 2
0, 2
0, 1
2, 2
0, 1
3, 1
0, 0
0, 0
0, 0
0, 1
1, 0
0, 0
0, 1
1, 0
1, 0
0, 1
0, 0
2, 0
0, 0
0, 0
1, 0
0, 0
0, 0
0, 0
0, 1
0, 0
0, 0
0, 0
0, 0
1, 0
1, 0
0, 2
1, 0
0, 1
0, 0
0, 0
1, 2
0, 0
0, 1
0, 0
1, 1
1, 0
0, 0
1, 0
1, 0
1, 0
1, 0
1, 0
0, 0
0, 0
0, 0
0, 0
0, 0
0, 0
1, 1
1, 0
0, 0
0, 0
0, 0
0, 0
0, 0
0, 0
0, 0
0, 0
0, 0
0, 0
0, 0
0, 0
0, 0
0, 0
0, 0
0, 0
0, 0
0, 0
0, 0
0, 0
0, 0
0, 0
0, 0
0, 0
0, 0
0, 0
0, 0
0, 0
0, 0
0, 0
0, 0
0, 0
0, 0
0, 0
0, 0
0, 0
0, 0
0, 0
0, 0
0, 0
0, 0
0, 0
0, 0
0, 0
0, 0
0, 0
0, 0
0, 0
0, 0
0, 0
0, 0
0, 0
0, 0
0, 0
0, 0
0, 0
0, 0
0, 0
0, 0
0, 0
0, 0
0, 0
0, 0
0, 0
0, 0
0, 0
0, 0
0, 0
0, 0
0, 0
0, 0
0, 0
0, 0
0, 0
0, 0
0, 0
0, 0
0, 0
0, 0
0, 0
0, 0
0, 0
0, 0
0, 0
0, 0
0, 0
0, 0
0, 0
0, 0
0, 0
0, 0
0, 0
0, 0
0, 0
0, 0
0, 0
0, 0
0, 0
0, 0
0, 0
0, 0
0, 0
0, 0
0, 0
0, 0
0, 0
0, 0
0, 0
0, 0
0, 0
#ENDOFDATA     end of spectrum data