File: host_upload/06-09-2024/ps_0852/dump3/ps__0852shot_2386.msa
#FORMAT      : EMSA/MAS spectral data file
#VERSION     : TC202v2.0 PIXL
#TITLE       : N/A
#DATE        :       Date in the format DD-MMM-YYYY, for example 07-JUL-2010
#TIME        :             The time of day at which the spectrum was recorded, in 24-hour format
#OWNER       : PIXL Flight Model       (PIXL will use this to indicate which instrument took the data.)
#NPOINTS     : 4096     Number of data points in the spectrum (This can be zero for configuration only files)
#NCOLUMNS    : 2     Number of data columns in the spectrum (This can be zero for configuration only files)
#XUNITS      : eV
#YUNITS      : COUNTS
#DATATYPE    : YY
#XPERCHAN    : 7.862, 7.881   eV per channel (separate by commas if more than one detector)
#OFFSET      : 18.5, -22.4         eV of first channel  (separate by commas if more than one detector
#SIGNALTYPE  : XRF
#YP_TEMP     : 2.011
#LIVETIME    : 8.56261, 8.55379   seconds (separate by commas if more than one detector)
#REALTIME    : 10, 10.0   seconds (separate by commas if more than one detector)
#SPECTRUM    : start of spectrum data
0, 0
0, 0
0, 0
0, 0
0, 0
0, 0
0, 0
0, 0
1, 1
2, 2
2, 3
48, 34
53, 57
12, 9
10, 16
98, 103
401, 408
118, 116
16, 14
16, 11
5, 2
16, 6
8, 6
17, 10
92, 76
56, 58
43, 29
33, 15
10, 2
4, 3
16, 25
8, 10
3, 6
30, 39
66, 37
6, 12
7, 15
11, 19
7, 3
33, 5
63, 4
41, 22
33, 15
17, 9
8, 8
7, 9
5, 6
8, 5
6, 12
16, 20
28, 12
16, 14
56, 17
106, 47
81, 58
25, 21
36, 37
482, 499
2082, 2080
1496, 1198
173, 138
18, 14
22, 28
95, 93
313, 314
228, 179
37, 17
17, 4
24, 16
16, 6
5, 3
5, 4
8, 3
7, 6
4, 6
9, 8
5, 7
9, 9
10, 7
8, 6
9, 13
4, 19
12, 9
3, 3
2, 3
3, 5
3, 3
5, 1
4, 3
3, 5
3, 2
10, 3
13, 8
7, 14
5, 7
3, 6
4, 7
3, 3
1, 4
4, 2
4, 3
3, 0
2, 3
6, 4
1, 2
1, 3
3, 1
5, 2
4, 3
4, 2
1, 3
4, 3
3, 2
1, 0
3, 2
2, 5
4, 4
4, 3
1, 2
3, 1
2, 1
2, 3
1, 2
0, 3
0, 2
1, 1
0, 2
2, 2
1, 0
2, 4
1, 2
0, 0
2, 2
0, 1
0, 1
0, 1
1, 1
0, 0
0, 3
2, 2
0, 0
0, 0
1, 1
0, 1
1, 2
1, 2
1, 0
0, 1
0, 0
0, 0
0, 0
0, 0
0, 0
0, 1
0, 1
0, 0
0, 0
0, 0
0, 0
0, 0
0, 0
0, 3
0, 0
0, 0
0, 0
0, 0
1, 0
0, 1
0, 0
0, 0
0, 1
0, 0
0, 0
0, 0
1, 1
1, 0
1, 0
0, 0
0, 0
0, 0
0, 0
0, 0
1, 0
0, 0
0, 1
0, 0
0, 1
0, 0
0, 0
0, 0
1, 0
0, 0
0, 0
0, 0
0, 0
0, 0
0, 0
0, 0
0, 0
0, 0
0, 0
0, 0
0, 0
0, 0
0, 0
0, 0
0, 0
0, 0
0, 0
0, 0
0, 0
0, 0
0, 0
0, 0
0, 0
0, 0
0, 0
0, 0
0, 0
0, 0
0, 0
0, 0
0, 0
0, 0
0, 0
0, 0
0, 0
0, 0
0, 0
0, 0
0, 0
0, 0
0, 0
0, 0
0, 0
0, 0
0, 0
0, 0
0, 0
0, 0
0, 0
0, 0
0, 0
0, 0
0, 0
0, 0
0, 0
0, 0
0, 0
0, 0
0, 0
0, 0
0, 0
0, 0
0, 0
0, 0
0, 0
0, 0
0, 0
0, 0
0, 0
0, 0
0, 0
0, 0
0, 0
0, 0
0, 0
0, 0
0, 0
0, 0
0, 0
0, 0
0, 0
0, 0
0, 0
0, 0
0, 0
0, 0
0, 0
0, 0
0, 0
0, 0
0, 0
0, 0
0, 0
0, 0
0, 0
0, 0
0, 0
0, 0
0, 0
0, 0
0, 0
0, 0
#ENDOFDATA     end of spectrum data