File: host_upload/06-09-2024/ps_0852/dump3/ps__0852shot_2553.msa
#FORMAT      : EMSA/MAS spectral data file
#VERSION     : TC202v2.0 PIXL
#TITLE       : N/A
#DATE        :       Date in the format DD-MMM-YYYY, for example 07-JUL-2010
#TIME        :             The time of day at which the spectrum was recorded, in 24-hour format
#OWNER       : PIXL Flight Model       (PIXL will use this to indicate which instrument took the data.)
#NPOINTS     : 4096     Number of data points in the spectrum (This can be zero for configuration only files)
#NCOLUMNS    : 2     Number of data columns in the spectrum (This can be zero for configuration only files)
#XUNITS      : eV
#YUNITS      : COUNTS
#DATATYPE    : YY
#XPERCHAN    : 7.862, 7.881   eV per channel (separate by commas if more than one detector)
#OFFSET      : 18.5, -22.4         eV of first channel  (separate by commas if more than one detector
#SIGNALTYPE  : XRF
#YP_TEMP     : 2.46
#LIVETIME    : 8.54855, 8.54767   seconds (separate by commas if more than one detector)
#REALTIME    : 10, 10.0   seconds (separate by commas if more than one detector)
#SPECTRUM    : start of spectrum data
0, 0
0, 0
0, 0
0, 0
0, 0
0, 0
0, 0
1, 0
0, 3
1, 0
1, 1
45, 38
54, 44
5, 9
5, 1
98, 89
424, 426
97, 93
9, 9
5, 0
1, 1
10, 7
12, 3
14, 9
45, 59
50, 43
31, 19
17, 15
9, 7
2, 3
4, 5
5, 2
6, 2
31, 30
42, 48
11, 8
8, 3
7, 8
6, 2
5, 4
6, 5
9, 13
10, 18
12, 12
3, 2
10, 0
4, 2
5, 1
8, 11
30, 41
27, 28
9, 9
10, 13
36, 42
60, 66
36, 14
34, 46
518, 601
2286, 2411
1626, 1414
208, 162
13, 10
19, 21
86, 116
346, 342
241, 166
33, 16
9, 8
14, 18
5, 7
7, 5
5, 4
3, 4
3, 9
5, 8
7, 9
5, 5
2, 6
5, 3
7, 1
2, 3
6, 1
10, 3
1, 1
9, 4
4, 4
11, 3
14, 2
4, 3
4, 4
3, 6
5, 2
6, 3
4, 2
6, 3
3, 1
15, 2
7, 4
1, 4
3, 3
3, 6
1, 1
1, 3
0, 7
3, 3
4, 2
4, 1
2, 2
3, 1
2, 2
1, 1
0, 1
3, 1
0, 0
1, 5
2, 3
6, 5
4, 5
2, 2
2, 1
0, 3
2, 1
0, 2
2, 2
4, 2
1, 0
2, 1
1, 1
0, 3
0, 0
0, 1
2, 0
1, 0
2, 3
1, 2
0, 0
0, 1
0, 3
2, 0
0, 1
3, 0
1, 0
2, 0
1, 0
0, 0
0, 0
0, 0
0, 0
1, 1
0, 0
0, 1
1, 0
0, 0
0, 0
0, 0
0, 0
0, 0
0, 0
0, 0
0, 1
0, 0
0, 0
0, 0
0, 0
0, 0
0, 0
0, 1
0, 0
0, 0
1, 0
0, 0
0, 0
0, 0
0, 1
0, 0
0, 0
1, 0
0, 0
0, 0
0, 1
0, 0
0, 0
0, 0
0, 0
0, 0
0, 1
0, 0
0, 0
0, 0
0, 0
0, 0
0, 0
0, 0
0, 0
0, 0
0, 0
0, 0
0, 0
2, 0
0, 0
0, 0
0, 0
0, 0
0, 0
0, 0
0, 0
0, 0
0, 0
0, 0
0, 0
0, 0
0, 0
0, 0
0, 0
0, 0
0, 0
0, 0
0, 0
0, 0
0, 0
0, 0
0, 0
0, 0
0, 0
0, 0
0, 0
0, 0
0, 0
0, 0
0, 0
0, 0
0, 0
0, 0
0, 0
0, 0
0, 0
0, 0
0, 0
0, 0
0, 0
0, 0
0, 0
0, 0
0, 0
0, 0
0, 0
0, 0
0, 0
0, 0
0, 0
0, 0
0, 0
0, 0
0, 0
0, 0
0, 0
0, 0
0, 0
0, 0
0, 0
0, 0
0, 0
0, 0
0, 0
0, 0
0, 0
0, 0
0, 0
0, 0
0, 0
0, 0
0, 0
0, 0
0, 0
0, 0
0, 0
0, 0
0, 0
0, 0
0, 0
0, 0
0, 0
0, 0
0, 0
0, 0
0, 0
0, 0
0, 0
0, 0
0, 0
0, 0
0, 0
0, 0
0, 0
#ENDOFDATA     end of spectrum data