File: host_upload/06-09-2024/ps_0852/dump3/ps__0852shot_2578.msa
#FORMAT      : EMSA/MAS spectral data file
#VERSION     : TC202v2.0 PIXL
#TITLE       : N/A
#DATE        :       Date in the format DD-MMM-YYYY, for example 07-JUL-2010
#TIME        :             The time of day at which the spectrum was recorded, in 24-hour format
#OWNER       : PIXL Flight Model       (PIXL will use this to indicate which instrument took the data.)
#NPOINTS     : 4096     Number of data points in the spectrum (This can be zero for configuration only files)
#NCOLUMNS    : 2     Number of data columns in the spectrum (This can be zero for configuration only files)
#XUNITS      : eV
#YUNITS      : COUNTS
#DATATYPE    : YY
#XPERCHAN    : 7.862, 7.881   eV per channel (separate by commas if more than one detector)
#OFFSET      : 18.5, -22.4         eV of first channel  (separate by commas if more than one detector
#SIGNALTYPE  : XRF
#YP_TEMP     : 2.332
#LIVETIME    : 8.56346, 8.56462   seconds (separate by commas if more than one detector)
#REALTIME    : 10, 10.0   seconds (separate by commas if more than one detector)
#SPECTRUM    : start of spectrum data
0, 0
0, 0
0, 0
0, 0
0, 0
0, 0
0, 0
0, 0
0, 1
0, 5
2, 3
53, 41
69, 61
6, 5
4, 2
99, 98
444, 389
114, 85
6, 3
2, 0
2, 3
3, 7
1, 5
4, 15
27, 214
31, 301
25, 43
14, 8
6, 3
2, 0
0, 3
4, 2
8, 0
19, 3
17, 15
12, 6
40, 1
43, 2
14, 45
11, 84
2, 26
11, 2
23, 12
14, 13
5, 6
7, 13
5, 20
7, 15
14, 7
12, 14
32, 13
70, 13
68, 29
40, 68
73, 72
25, 16
36, 45
517, 591
2408, 2400
1611, 1358
179, 154
15, 26
21, 30
101, 132
360, 365
229, 179
35, 28
10, 32
18, 31
14, 10
3, 4
5, 4
7, 4
7, 7
9, 13
10, 23
5, 11
9, 12
7, 12
4, 5
3, 6
4, 6
3, 13
3, 6
5, 3
5, 3
11, 2
10, 4
9, 1
4, 3
3, 2
3, 6
5, 15
3, 8
2, 5
8, 1
4, 4
6, 2
3, 3
4, 1
2, 3
2, 0
1, 4
2, 1
2, 2
2, 1
2, 7
5, 3
5, 1
4, 2
1, 0
2, 1
3, 0
2, 3
2, 3
2, 2
4, 2
4, 4
4, 0
1, 2
0, 0
0, 3
2, 2
0, 3
0, 2
0, 3
1, 1
0, 0
0, 2
0, 2
1, 2
0, 2
2, 1
0, 0
1, 2
3, 0
0, 0
1, 1
1, 0
0, 2
3, 0
0, 1
0, 0
0, 1
0, 1
1, 0
0, 0
3, 1
0, 0
0, 0
1, 0
2, 0
1, 0
1, 0
0, 0
1, 0
0, 0
1, 0
0, 1
1, 0
0, 0
1, 0
1, 0
0, 0
0, 1
0, 0
0, 1
1, 0
0, 0
0, 0
1, 0
0, 0
0, 0
1, 0
1, 0
1, 0
0, 0
0, 0
0, 0
0, 0
0, 0
0, 1
0, 0
0, 0
0, 0
0, 0
0, 0
0, 0
0, 0
0, 0
1, 0
1, 0
0, 0
0, 0
0, 0
0, 0
0, 0
0, 0
1, 0
0, 0
0, 0
0, 0
0, 0
0, 0
0, 0
0, 0
0, 0
0, 0
0, 0
0, 0
0, 0
0, 0
0, 0
0, 0
0, 0
0, 0
0, 0
0, 0
0, 0
0, 0
0, 0
0, 0
0, 0
0, 0
0, 0
0, 0
0, 0
0, 0
0, 0
0, 0
0, 0
0, 0
0, 0
0, 0
0, 0
0, 0
0, 0
0, 0
0, 0
0, 0
0, 0
0, 0
0, 0
0, 0
0, 0
0, 0
0, 0
0, 0
0, 0
0, 0
0, 0
0, 0
0, 0
0, 0
0, 0
0, 0
0, 0
0, 0
0, 0
0, 0
0, 0
0, 0
0, 0
0, 0
0, 0
0, 0
0, 0
0, 0
0, 0
0, 0
0, 0
0, 0
0, 0
0, 0
0, 0
0, 0
0, 0
0, 0
0, 0
0, 0
0, 0
0, 0
0, 0
0, 0
0, 0
0, 0
0, 0
0, 0
0, 0
0, 0
0, 0
0, 0
0, 0
0, 0
#ENDOFDATA     end of spectrum data