File: host_upload/06-09-2024/ps_0852/dump3/ps__0852shot_2430.msa
#FORMAT      : EMSA/MAS spectral data file
#VERSION     : TC202v2.0 PIXL
#TITLE       : N/A
#DATE        :       Date in the format DD-MMM-YYYY, for example 07-JUL-2010
#TIME        :             The time of day at which the spectrum was recorded, in 24-hour format
#OWNER       : PIXL Flight Model       (PIXL will use this to indicate which instrument took the data.)
#NPOINTS     : 4096     Number of data points in the spectrum (This can be zero for configuration only files)
#NCOLUMNS    : 2     Number of data columns in the spectrum (This can be zero for configuration only files)
#XUNITS      : eV
#YUNITS      : COUNTS
#DATATYPE    : YY
#XPERCHAN    : 7.862, 7.881   eV per channel (separate by commas if more than one detector)
#OFFSET      : 18.5, -22.4         eV of first channel  (separate by commas if more than one detector
#SIGNALTYPE  : XRF
#YP_TEMP     : 2.556
#LIVETIME    : 8.55339, 8.56113   seconds (separate by commas if more than one detector)
#REALTIME    : 10, 10.0   seconds (separate by commas if more than one detector)
#SPECTRUM    : start of spectrum data
0, 0
0, 0
0, 0
0, 0
0, 0
0, 0
0, 0
0, 0
0, 1
3, 1
1, 1
30, 35
60, 41
3, 5
4, 7
104, 112
487, 405
103, 94
9, 4
2, 6
2, 2
9, 11
2, 4
15, 17
53, 72
65, 62
27, 23
15, 12
11, 11
3, 2
2, 3
2, 5
7, 9
56, 55
93, 83
17, 14
16, 15
20, 16
8, 5
5, 7
1, 16
13, 62
14, 34
15, 19
3, 4
6, 4
3, 4
6, 7
5, 10
21, 32
24, 23
10, 6
11, 13
38, 68
60, 68
22, 14
34, 31
465, 592
2115, 2312
1585, 1445
205, 164
23, 8
21, 19
96, 113
296, 333
217, 191
20, 26
4, 8
12, 17
6, 17
4, 11
4, 6
5, 0
5, 5
7, 3
7, 6
5, 6
3, 5
2, 1
4, 2
3, 7
4, 2
5, 1
5, 5
2, 5
4, 3
7, 7
7, 4
4, 3
0, 5
0, 3
5, 3
2, 2
4, 1
3, 3
5, 1
15, 1
11, 4
5, 6
1, 3
1, 3
2, 3
1, 3
3, 4
5, 2
1, 1
2, 1
4, 2
3, 4
2, 0
2, 2
0, 1
1, 3
3, 1
2, 2
5, 8
3, 9
7, 5
2, 0
3, 2
1, 1
0, 1
1, 2
1, 0
1, 1
0, 1
2, 1
2, 3
0, 1
2, 0
0, 1
1, 0
1, 1
4, 2
0, 1
1, 1
1, 1
0, 0
0, 0
3, 0
1, 1
1, 1
0, 0
0, 0
2, 1
0, 2
0, 0
0, 0
0, 2
0, 1
0, 0
0, 0
1, 0
0, 0
0, 0
1, 0
0, 1
0, 1
0, 0
0, 0
1, 0
0, 0
0, 0
0, 0
0, 0
0, 0
0, 0
0, 0
0, 0
0, 0
0, 0
0, 0
0, 1
1, 0
0, 1
0, 0
0, 0
0, 0
0, 0
0, 0
0, 0
0, 0
0, 0
1, 0
0, 0
0, 0
0, 0
0, 0
0, 0
0, 0
0, 0
0, 0
0, 0
0, 0
0, 1
0, 0
0, 0
0, 0
0, 0
0, 0
0, 0
0, 0
0, 0
0, 0
0, 0
0, 0
0, 0
0, 0
0, 0
0, 0
0, 0
0, 0
0, 0
0, 0
0, 0
0, 0
0, 0
0, 0
0, 0
0, 0
0, 0
1, 0
0, 0
0, 0
0, 0
0, 0
0, 0
0, 0
0, 0
0, 0
0, 0
0, 0
0, 0
0, 0
0, 0
0, 0
0, 0
0, 0
0, 0
0, 0
0, 0
0, 0
0, 0
0, 0
0, 0
0, 0
0, 0
0, 0
0, 0
0, 0
0, 0
0, 0
0, 0
0, 0
0, 0
0, 0
0, 0
0, 0
0, 0
0, 0
0, 0
0, 0
0, 0
0, 0
0, 0
0, 0
0, 0
0, 0
0, 0
0, 0
0, 0
0, 0
0, 0
0, 0
0, 0
0, 0
0, 0
0, 0
0, 0
0, 0
0, 0
0, 0
0, 0
0, 0
0, 0
0, 0
0, 0
0, 0
0, 0
0, 0
0, 0
0, 0
0, 0
0, 0
#ENDOFDATA     end of spectrum data