File: host_upload/06-09-2024/ps_0852/dump3/ps__0852shot_2281.msa
#FORMAT      : EMSA/MAS spectral data file
#VERSION     : TC202v2.0 PIXL
#TITLE       : N/A
#DATE        :       Date in the format DD-MMM-YYYY, for example 07-JUL-2010
#TIME        :             The time of day at which the spectrum was recorded, in 24-hour format
#OWNER       : PIXL Flight Model       (PIXL will use this to indicate which instrument took the data.)
#NPOINTS     : 4096     Number of data points in the spectrum (This can be zero for configuration only files)
#NCOLUMNS    : 2     Number of data columns in the spectrum (This can be zero for configuration only files)
#XUNITS      : eV
#YUNITS      : COUNTS
#DATATYPE    : YY
#XPERCHAN    : 7.862, 7.881   eV per channel (separate by commas if more than one detector)
#OFFSET      : 18.5, -22.4         eV of first channel  (separate by commas if more than one detector
#SIGNALTYPE  : XRF
#YP_TEMP     : 2.171
#LIVETIME    : 8.56278, 8.5478   seconds (separate by commas if more than one detector)
#REALTIME    : 10, 10.0   seconds (separate by commas if more than one detector)
#SPECTRUM    : start of spectrum data
0, 0
0, 0
0, 0
0, 0
0, 0
0, 0
0, 0
0, 0
0, 0
0, 1
7, 5
35, 49
60, 82
8, 6
3, 8
91, 95
404, 526
81, 104
1, 4
0, 2
3, 0
3, 3
5, 3
5, 2
18, 36
17, 34
20, 24
7, 9
3, 2
0, 0
3, 2
0, 1
2, 1
7, 10
14, 17
5, 6
1, 5
7, 6
2, 5
4, 4
3, 7
2, 13
8, 12
10, 11
3, 2
6, 2
3, 4
9, 5
13, 5
56, 7
123, 15
53, 8
19, 8
52, 51
76, 58
31, 21
24, 31
436, 622
1981, 2357
1465, 1490
175, 160
19, 12
16, 12
85, 152
322, 364
222, 201
31, 21
5, 3
14, 18
7, 8
6, 10
5, 13
8, 10
13, 4
10, 13
2, 4
1, 4
13, 4
5, 6
4, 5
11, 4
20, 6
10, 8
2, 10
1, 10
5, 2
1, 1
2, 6
2, 8
1, 7
1, 3
2, 3
2, 3
2, 0
3, 4
1, 2
2, 3
1, 1
5, 1
5, 1
7, 4
2, 3
3, 2
0, 2
3, 3
0, 1
1, 6
0, 6
1, 3
2, 0
1, 1
2, 2
2, 2
2, 3
1, 2
1, 2
2, 2
2, 0
2, 4
0, 1
1, 0
2, 1
1, 4
4, 2
1, 0
1, 0
0, 2
3, 2
0, 2
0, 1
1, 0
1, 3
1, 1
1, 1
1, 0
0, 3
3, 1
1, 0
1, 0
1, 0
1, 2
0, 0
0, 1
0, 1
0, 2
0, 1
1, 0
0, 1
0, 2
1, 1
0, 1
1, 0
1, 0
2, 0
1, 0
0, 0
3, 0
0, 0
0, 0
0, 0
0, 0
0, 0
0, 0
0, 0
0, 1
0, 0
0, 0
1, 2
0, 0
0, 0
0, 0
1, 0
0, 0
1, 0
0, 0
0, 0
2, 0
0, 0
0, 0
0, 0
0, 0
0, 0
0, 0
0, 0
0, 0
0, 0
0, 0
0, 0
0, 0
0, 0
0, 0
0, 0
0, 0
0, 0
0, 0
0, 0
0, 0
0, 0
0, 0
0, 0
0, 0
0, 0
1, 0
0, 0
0, 0
0, 0
0, 1
0, 0
0, 0
0, 0
0, 0
0, 0
0, 0
0, 0
0, 0
0, 0
0, 0
0, 0
0, 0
0, 0
0, 0
0, 0
0, 0
0, 0
0, 0
0, 0
0, 0
0, 0
0, 0
0, 0
0, 0
0, 0
0, 0
0, 0
0, 0
0, 0
0, 0
0, 0
0, 0
0, 0
0, 0
0, 0
0, 0
0, 0
0, 0
0, 0
0, 0
0, 0
0, 0
0, 0
0, 0
0, 0
0, 0
0, 0
0, 0
0, 0
0, 0
0, 0
0, 0
0, 0
0, 0
0, 0
0, 0
0, 0
0, 0
0, 0
0, 0
0, 0
0, 0
0, 0
0, 0
0, 0
0, 0
0, 0
0, 0
0, 0
0, 0
0, 0
0, 0
0, 0
0, 0
0, 0
0, 0
0, 0
0, 0
0, 0
0, 0
0, 0
0, 0
0, 0
0, 0
0, 0
0, 0
0, 0
#ENDOFDATA     end of spectrum data