File: host_upload/06-09-2024/ps_0852/dump3/ps__0852shot_2116.msa
#FORMAT      : EMSA/MAS spectral data file
#VERSION     : TC202v2.0 PIXL
#TITLE       : N/A
#DATE        :       Date in the format DD-MMM-YYYY, for example 07-JUL-2010
#TIME        :             The time of day at which the spectrum was recorded, in 24-hour format
#OWNER       : PIXL Flight Model       (PIXL will use this to indicate which instrument took the data.)
#NPOINTS     : 4096     Number of data points in the spectrum (This can be zero for configuration only files)
#NCOLUMNS    : 2     Number of data columns in the spectrum (This can be zero for configuration only files)
#XUNITS      : eV
#YUNITS      : COUNTS
#DATATYPE    : YY
#XPERCHAN    : 7.862, 7.881   eV per channel (separate by commas if more than one detector)
#OFFSET      : 18.5, -22.4         eV of first channel  (separate by commas if more than one detector
#SIGNALTYPE  : XRF
#YP_TEMP     : 2.332
#LIVETIME    : 8.5414, 8.56115   seconds (separate by commas if more than one detector)
#REALTIME    : 10, 10.0   seconds (separate by commas if more than one detector)
#SPECTRUM    : start of spectrum data
0, 0
0, 0
0, 0
0, 0
0, 0
0, 0
0, 0
0, 1
1, 0
0, 0
1, 3
47, 45
53, 51
8, 8
7, 9
82, 98
363, 424
98, 84
3, 7
2, 3
31, 33
136, 172
56, 66
15, 25
52, 40
58, 50
16, 26
15, 11
7, 1
1, 4
5, 3
3, 5
56, 3
82, 13
30, 10
3, 2
4, 6
8, 6
5, 11
4, 5
8, 4
9, 12
8, 22
9, 14
6, 7
9, 7
11, 9
31, 7
143, 5
115, 16
31, 26
7, 72
9, 136
29, 74
56, 65
34, 22
51, 42
444, 579
2031, 2246
1561, 1382
195, 162
16, 10
20, 31
99, 117
345, 367
225, 209
36, 24
9, 8
11, 15
8, 12
6, 11
12, 3
4, 2
5, 4
5, 7
5, 2
8, 6
3, 6
3, 8
5, 5
6, 2
14, 4
5, 4
8, 4
7, 3
5, 4
2, 3
4, 4
5, 2
2, 4
6, 4
18, 2
4, 9
4, 2
3, 3
2, 4
3, 4
12, 1
6, 4
4, 1
5, 1
1, 3
0, 5
1, 4
1, 6
1, 4
2, 1
1, 1
2, 5
3, 2
2, 0
1, 0
2, 1
0, 1
0, 1
1, 4
6, 1
0, 2
2, 2
2, 2
1, 0
0, 3
0, 1
2, 3
1, 2
6, 1
2, 3
3, 1
1, 1
1, 0
1, 0
1, 2
0, 1
2, 0
1, 0
1, 1
0, 1
0, 0
0, 1
0, 1
0, 0
3, 0
0, 0
0, 0
1, 0
1, 0
0, 0
0, 0
0, 0
0, 1
1, 0
0, 0
0, 0
1, 0
0, 0
0, 0
0, 0
0, 0
0, 0
2, 0
0, 1
0, 0
0, 1
0, 0
0, 1
0, 1
0, 0
0, 0
0, 0
0, 0
0, 0
0, 1
0, 0
1, 0
1, 0
0, 0
0, 1
1, 0
0, 0
0, 0
0, 0
0, 0
0, 0
0, 0
0, 0
0, 1
0, 0
0, 1
0, 0
0, 0
0, 0
2, 0
0, 0
0, 0
0, 0
0, 0
0, 0
0, 0
0, 0
0, 0
0, 0
0, 0
0, 0
0, 0
0, 0
0, 0
0, 0
0, 0
0, 0
0, 0
0, 0
0, 0
0, 0
0, 0
0, 0
0, 0
0, 0
0, 0
0, 0
0, 0
0, 0
0, 0
0, 0
0, 0
0, 0
0, 0
0, 0
0, 0
0, 0
0, 0
0, 0
0, 0
0, 0
0, 0
0, 0
0, 0
0, 0
0, 0
0, 0
0, 0
0, 0
0, 0
0, 0
0, 0
0, 0
0, 0
0, 0
0, 0
0, 0
0, 0
0, 0
0, 0
0, 0
0, 0
0, 0
0, 0
0, 0
0, 0
0, 0
0, 0
0, 0
0, 0
0, 0
0, 0
0, 0
0, 0
0, 0
0, 0
0, 0
0, 0
0, 0
0, 0
0, 0
0, 0
0, 0
0, 0
0, 0
0, 0
0, 0
0, 0
0, 0
0, 0
0, 0
0, 0
0, 0
0, 0
0, 0
0, 0
0, 0
0, 0
0, 0
0, 0
0, 0
0, 0
#ENDOFDATA     end of spectrum data