File: host_upload/06-09-2024/ps_0852/dump3/ps__0852shot_2498.msa
#FORMAT      : EMSA/MAS spectral data file
#VERSION     : TC202v2.0 PIXL
#TITLE       : N/A
#DATE        :       Date in the format DD-MMM-YYYY, for example 07-JUL-2010
#TIME        :             The time of day at which the spectrum was recorded, in 24-hour format
#OWNER       : PIXL Flight Model       (PIXL will use this to indicate which instrument took the data.)
#NPOINTS     : 4096     Number of data points in the spectrum (This can be zero for configuration only files)
#NCOLUMNS    : 2     Number of data columns in the spectrum (This can be zero for configuration only files)
#XUNITS      : eV
#YUNITS      : COUNTS
#DATATYPE    : YY
#XPERCHAN    : 7.862, 7.881   eV per channel (separate by commas if more than one detector)
#OFFSET      : 18.5, -22.4         eV of first channel  (separate by commas if more than one detector
#SIGNALTYPE  : XRF
#YP_TEMP     : 2.267
#LIVETIME    : 8.55637, 8.56623   seconds (separate by commas if more than one detector)
#REALTIME    : 10, 10.0   seconds (separate by commas if more than one detector)
#SPECTRUM    : start of spectrum data
0, 0
0, 0
0, 0
0, 0
0, 0
0, 0
0, 0
0, 0
1, 1
1, 2
5, 1
38, 36
46, 63
4, 3
1, 5
104, 89
501, 433
122, 107
6, 8
1, 2
4, 1
6, 4
4, 4
14, 18
64, 53
39, 45
27, 20
22, 16
6, 4
2, 1
3, 2
1, 0
0, 5
38, 26
53, 45
27, 6
48, 6
28, 7
3, 6
3, 6
3, 7
13, 9
23, 13
8, 17
9, 6
6, 9
5, 2
3, 11
6, 3
16, 18
9, 6
11, 9
15, 8
42, 41
66, 49
17, 20
34, 31
448, 518
2146, 2205
1588, 1311
202, 123
21, 10
17, 17
109, 110
309, 335
254, 188
35, 20
9, 6
15, 14
15, 13
10, 3
18, 3
15, 3
12, 3
17, 8
13, 6
4, 7
3, 3
3, 6
3, 2
3, 4
5, 4
4, 4
4, 2
6, 8
1, 33
12, 23
6, 12
7, 6
1, 3
3, 1
2, 3
4, 4
5, 2
4, 5
2, 7
5, 3
1, 4
0, 3
1, 1
2, 2
2, 1
2, 4
1, 3
0, 2
3, 1
11, 1
6, 3
1, 2
3, 0
2, 1
1, 1
1, 2
2, 1
1, 2
3, 1
4, 3
4, 2
3, 2
3, 1
4, 2
2, 2
1, 1
1, 3
4, 2
0, 1
1, 2
2, 0
0, 2
1, 0
0, 0
2, 2
0, 2
0, 0
1, 1
0, 1
1, 0
1, 1
2, 0
1, 2
2, 0
1, 0
0, 1
0, 2
1, 0
0, 0
3, 1
1, 0
0, 0
0, 1
0, 0
0, 1
0, 1
0, 1
0, 1
0, 1
0, 0
0, 0
0, 0
0, 1
0, 0
0, 0
0, 1
0, 0
0, 0
0, 1
0, 1
0, 1
0, 0
0, 1
0, 1
0, 0
0, 0
0, 0
0, 0
0, 0
1, 0
0, 0
0, 0
0, 1
0, 0
0, 0
0, 0
0, 0
0, 0
1, 0
0, 0
0, 0
0, 0
2, 0
0, 0
0, 0
0, 0
0, 0
0, 0
1, 1
0, 0
0, 0
1, 0
0, 0
0, 0
0, 0
0, 0
0, 0
0, 0
0, 0
0, 0
0, 0
0, 0
0, 0
0, 0
0, 0
0, 0
0, 0
0, 0
0, 0
0, 0
0, 0
0, 0
0, 0
0, 0
0, 0
0, 0
0, 0
0, 0
0, 0
0, 0
0, 0
0, 0
0, 0
0, 0
0, 0
0, 0
0, 0
0, 0
0, 0
0, 0
0, 0
0, 0
0, 0
0, 0
0, 0
0, 0
0, 0
0, 0
0, 0
0, 0
0, 0
0, 0
0, 0
0, 0
0, 0
0, 0
0, 0
0, 0
0, 0
0, 0
0, 0
0, 0
0, 0
0, 0
0, 0
0, 0
0, 0
0, 0
0, 0
0, 0
0, 0
0, 0
0, 0
0, 0
0, 0
0, 0
0, 0
0, 0
0, 0
0, 0
0, 0
0, 0
0, 0
0, 0
0, 0
0, 0
0, 0
0, 0
0, 0
0, 0
0, 0
0, 0
0, 0
0, 0
0, 0
0, 0
0, 0
#ENDOFDATA     end of spectrum data