File: host_upload/06-09-2024/ps_0852/dump3/ps__0852shot_2449.msa
#FORMAT      : EMSA/MAS spectral data file
#VERSION     : TC202v2.0 PIXL
#TITLE       : N/A
#DATE        :       Date in the format DD-MMM-YYYY, for example 07-JUL-2010
#TIME        :             The time of day at which the spectrum was recorded, in 24-hour format
#OWNER       : PIXL Flight Model       (PIXL will use this to indicate which instrument took the data.)
#NPOINTS     : 4096     Number of data points in the spectrum (This can be zero for configuration only files)
#NCOLUMNS    : 2     Number of data columns in the spectrum (This can be zero for configuration only files)
#XUNITS      : eV
#YUNITS      : COUNTS
#DATATYPE    : YY
#XPERCHAN    : 7.862, 7.881   eV per channel (separate by commas if more than one detector)
#OFFSET      : 18.5, -22.4         eV of first channel  (separate by commas if more than one detector
#SIGNALTYPE  : XRF
#YP_TEMP     : 2.364
#LIVETIME    : 8.55516, 8.57595   seconds (separate by commas if more than one detector)
#REALTIME    : 10, 10.0   seconds (separate by commas if more than one detector)
#SPECTRUM    : start of spectrum data
0, 0
0, 0
0, 0
0, 0
0, 0
0, 0
0, 0
0, 0
1, 0
0, 1
2, 0
40, 44
51, 63
11, 4
5, 3
96, 108
422, 404
101, 108
4, 6
2, 3
19, 20
60, 71
39, 27
9, 13
47, 31
47, 31
29, 20
21, 13
5, 6
1, 3
6, 3
2, 0
2, 2
11, 9
14, 14
10, 8
3, 6
4, 7
1, 5
3, 5
2, 5
6, 12
16, 14
16, 13
12, 11
9, 9
6, 3
4, 4
5, 6
16, 17
10, 23
3, 12
5, 9
34, 28
55, 50
22, 70
31, 219
442, 727
2147, 2439
1536, 1408
171, 137
11, 12
19, 30
104, 106
345, 382
230, 186
36, 13
22, 5
23, 9
9, 7
4, 6
1, 3
2, 6
5, 5
7, 3
7, 9
9, 4
6, 3
6, 6
4, 6
4, 6
6, 2
5, 2
0, 3
2, 4
4, 3
7, 2
7, 3
1, 3
5, 2
3, 0
3, 0
7, 3
3, 3
3, 3
2, 0
3, 4
3, 2
2, 3
1, 0
4, 0
0, 2
3, 5
0, 2
3, 4
1, 1
2, 4
0, 2
2, 4
0, 4
0, 2
3, 1
4, 5
4, 0
3, 5
1, 3
3, 3
1, 2
4, 1
1, 1
1, 3
2, 0
2, 1
2, 1
3, 1
1, 3
2, 1
0, 2
2, 3
1, 2
2, 1
1, 0
0, 0
0, 3
0, 0
0, 0
1, 0
1, 2
2, 2
0, 0
2, 1
2, 0
0, 0
1, 1
0, 2
2, 1
2, 0
1, 0
0, 0
1, 0
1, 1
1, 0
0, 0
0, 0
0, 1
0, 0
1, 0
1, 0
0, 0
0, 0
1, 1
0, 0
0, 0
1, 0
0, 1
0, 0
0, 0
0, 0
1, 0
0, 0
0, 0
0, 0
0, 0
1, 0
0, 0
0, 0
1, 0
1, 0
1, 0
0, 0
0, 0
0, 0
1, 0
0, 0
0, 0
0, 0
0, 1
1, 0
0, 0
0, 0
1, 0
0, 0
0, 0
0, 1
1, 0
0, 0
0, 0
0, 0
0, 0
0, 0
0, 0
0, 0
0, 0
0, 0
0, 0
0, 0
0, 0
0, 0
0, 0
0, 0
0, 0
0, 0
0, 0
0, 0
0, 0
0, 0
0, 0
0, 0
0, 0
0, 0
0, 0
0, 0
0, 0
0, 0
0, 0
0, 0
0, 0
0, 0
0, 0
0, 0
0, 0
0, 0
0, 0
0, 0
0, 0
0, 0
0, 0
0, 0
0, 0
0, 0
0, 0
0, 0
0, 0
0, 0
0, 0
0, 0
0, 0
0, 0
0, 0
0, 0
0, 0
0, 0
0, 0
0, 0
0, 0
0, 0
0, 0
0, 0
0, 0
0, 0
0, 0
0, 0
0, 0
0, 0
0, 0
0, 0
0, 0
0, 0
0, 0
0, 0
0, 0
0, 0
0, 0
0, 0
0, 0
0, 0
0, 0
0, 0
0, 0
0, 0
0, 0
0, 0
0, 0
0, 0
0, 0
0, 0
0, 0
0, 0
0, 0
0, 0
0, 0
0, 0
0, 0
0, 0
#ENDOFDATA     end of spectrum data