File: host_upload/06-09-2024/ps_0852/dump3/ps__0852shot_2507.msa
#FORMAT      : EMSA/MAS spectral data file
#VERSION     : TC202v2.0 PIXL
#TITLE       : N/A
#DATE        :       Date in the format DD-MMM-YYYY, for example 07-JUL-2010
#TIME        :             The time of day at which the spectrum was recorded, in 24-hour format
#OWNER       : PIXL Flight Model       (PIXL will use this to indicate which instrument took the data.)
#NPOINTS     : 4096     Number of data points in the spectrum (This can be zero for configuration only files)
#NCOLUMNS    : 2     Number of data columns in the spectrum (This can be zero for configuration only files)
#XUNITS      : eV
#YUNITS      : COUNTS
#DATATYPE    : YY
#XPERCHAN    : 7.862, 7.881   eV per channel (separate by commas if more than one detector)
#OFFSET      : 18.5, -22.4         eV of first channel  (separate by commas if more than one detector
#SIGNALTYPE  : XRF
#YP_TEMP     : 2.3
#LIVETIME    : 8.54996, 8.55046   seconds (separate by commas if more than one detector)
#REALTIME    : 10, 10.0   seconds (separate by commas if more than one detector)
#SPECTRUM    : start of spectrum data
0, 0
0, 0
0, 0
0, 0
0, 0
0, 0
0, 0
0, 0
0, 1
0, 3
3, 3
32, 45
51, 58
4, 4
7, 5
105, 98
433, 368
118, 76
7, 3
2, 1
4, 7
29, 32
17, 15
7, 6
33, 42
69, 44
41, 41
17, 38
4, 5
1, 2
3, 0
4, 1
3, 4
16, 18
22, 21
4, 6
4, 7
6, 8
3, 4
5, 6
11, 6
12, 5
16, 9
8, 11
5, 3
7, 7
7, 9
9, 2
5, 4
14, 13
29, 6
42, 8
21, 17
41, 47
64, 61
23, 35
40, 49
453, 499
2339, 2180
1643, 1246
192, 117
8, 22
26, 14
118, 138
371, 335
234, 187
38, 34
14, 8
14, 12
9, 3
6, 2
5, 3
5, 3
5, 8
8, 8
5, 7
12, 15
7, 10
2, 4
4, 7
4, 2
5, 3
4, 5
4, 1
5, 4
5, 3
10, 3
6, 3
3, 0
3, 4
3, 2
4, 3
3, 2
2, 3
4, 2
4, 2
3, 2
1, 0
4, 3
2, 2
2, 4
2, 3
3, 0
1, 5
3, 1
3, 1
3, 3
2, 0
0, 2
0, 2
1, 1
2, 0
1, 1
2, 4
2, 3
2, 3
1, 3
2, 3
1, 0
3, 4
0, 3
2, 2
4, 2
1, 1
0, 0
2, 1
1, 1
1, 0
1, 0
0, 1
1, 0
1, 0
1, 0
3, 1
0, 0
1, 1
2, 2
0, 0
0, 1
1, 1
2, 0
2, 1
0, 2
0, 0
0, 1
2, 0
1, 0
1, 0
0, 1
0, 0
1, 0
0, 1
2, 0
1, 0
0, 0
2, 0
0, 0
0, 1
0, 0
0, 0
0, 0
0, 0
0, 0
0, 0
1, 1
1, 0
0, 0
0, 0
0, 0
2, 0
0, 0
0, 0
1, 0
0, 0
0, 0
0, 0
0, 0
0, 0
0, 0
0, 0
0, 0
0, 0
0, 0
0, 0
0, 0
0, 0
0, 0
0, 0
0, 0
0, 0
0, 0
0, 0
0, 0
0, 0
0, 0
0, 0
0, 0
1, 0
0, 1
0, 0
0, 0
0, 0
0, 0
0, 0
0, 0
0, 0
0, 0
0, 0
0, 0
0, 0
0, 0
0, 0
0, 0
0, 0
0, 0
0, 0
0, 0
0, 0
0, 0
0, 0
0, 0
0, 0
0, 0
0, 0
0, 0
0, 0
0, 0
0, 0
0, 0
0, 0
0, 0
0, 0
0, 0
0, 0
0, 0
0, 0
0, 0
0, 0
0, 0
0, 0
0, 0
0, 0
0, 0
0, 0
0, 0
0, 0
0, 0
0, 0
0, 0
0, 0
0, 0
0, 0
0, 0
0, 0
0, 0
0, 0
0, 0
0, 0
0, 0
0, 0
0, 0
0, 0
0, 0
0, 0
0, 0
0, 0
0, 0
0, 0
0, 0
0, 0
0, 0
0, 0
0, 0
0, 0
0, 0
0, 0
0, 0
0, 0
0, 0
0, 0
0, 0
0, 0
0, 0
0, 0
0, 0
0, 0
0, 0
0, 0
0, 0
0, 0
0, 0
0, 0
0, 0
0, 0
#ENDOFDATA     end of spectrum data