File: host_upload/06-09-2024/ps_0852/dump3/ps__0852shot_2432.msa
#FORMAT      : EMSA/MAS spectral data file
#VERSION     : TC202v2.0 PIXL
#TITLE       : N/A
#DATE        :       Date in the format DD-MMM-YYYY, for example 07-JUL-2010
#TIME        :             The time of day at which the spectrum was recorded, in 24-hour format
#OWNER       : PIXL Flight Model       (PIXL will use this to indicate which instrument took the data.)
#NPOINTS     : 4096     Number of data points in the spectrum (This can be zero for configuration only files)
#NCOLUMNS    : 2     Number of data columns in the spectrum (This can be zero for configuration only files)
#XUNITS      : eV
#YUNITS      : COUNTS
#DATATYPE    : YY
#XPERCHAN    : 7.862, 7.881   eV per channel (separate by commas if more than one detector)
#OFFSET      : 18.5, -22.4         eV of first channel  (separate by commas if more than one detector
#SIGNALTYPE  : XRF
#YP_TEMP     : 2.107
#LIVETIME    : 8.54465, 8.58152   seconds (separate by commas if more than one detector)
#REALTIME    : 10, 10.0   seconds (separate by commas if more than one detector)
#SPECTRUM    : start of spectrum data
0, 0
0, 0
0, 0
0, 0
0, 0
0, 0
0, 0
0, 0
3, 2
2, 0
3, 1
46, 36
43, 48
8, 1
7, 5
101, 70
448, 336
118, 76
9, 6
1, 0
5, 4
38, 33
23, 10
13, 12
73, 48
61, 50
27, 37
15, 20
5, 9
3, 4
6, 2
6, 1
2, 2
35, 27
59, 36
18, 4
8, 3
16, 18
1, 26
6, 18
6, 5
8, 11
12, 27
22, 17
16, 4
10, 3
7, 3
3, 6
6, 13
18, 19
26, 6
14, 3
17, 27
36, 39
83, 44
27, 16
41, 50
484, 466
2218, 1895
1697, 1128
226, 133
83, 15
80, 15
133, 105
356, 327
226, 158
43, 25
14, 9
14, 11
13, 10
3, 4
1, 3
4, 0
1, 3
5, 4
5, 7
4, 6
5, 5
5, 4
10, 10
3, 2
4, 5
3, 4
6, 2
4, 6
4, 17
3, 7
1, 5
10, 1
15, 1
32, 3
9, 2
5, 4
5, 0
2, 4
3, 1
3, 0
1, 1
3, 2
6, 2
7, 2
4, 0
5, 2
4, 2
1, 3
2, 2
3, 0
4, 1
3, 3
2, 3
1, 2
2, 1
4, 2
7, 4
2, 2
1, 4
8, 3
2, 0
0, 1
2, 1
0, 0
3, 1
0, 4
2, 1
1, 0
1, 1
1, 4
0, 0
0, 2
2, 2
2, 0
6, 0
1, 0
2, 1
0, 0
0, 0
0, 0
2, 0
0, 0
0, 0
1, 1
1, 0
2, 0
1, 0
2, 1
0, 2
0, 0
0, 0
0, 0
2, 0
1, 1
1, 1
0, 0
1, 0
0, 2
0, 0
1, 0
0, 0
0, 0
2, 0
0, 0
0, 0
0, 0
0, 1
0, 1
1, 0
0, 2
0, 0
0, 0
0, 0
0, 0
0, 0
0, 0
0, 0
0, 0
0, 0
0, 0
0, 0
0, 0
0, 0
0, 0
0, 0
1, 1
0, 0
0, 0
1, 0
0, 0
0, 0
0, 0
1, 0
0, 0
0, 0
0, 0
0, 0
0, 0
1, 0
0, 0
0, 0
0, 0
0, 0
0, 0
0, 0
0, 0
0, 1
0, 0
0, 0
0, 0
0, 0
0, 0
0, 0
0, 0
0, 0
0, 0
0, 0
0, 0
0, 0
0, 0
0, 0
0, 0
0, 0
0, 0
0, 0
0, 0
0, 0
0, 0
0, 0
0, 0
0, 0
0, 0
0, 0
0, 0
0, 0
0, 0
0, 0
0, 0
0, 0
0, 0
0, 0
0, 0
0, 0
0, 0
0, 0
0, 0
0, 0
0, 0
0, 0
0, 0
0, 0
0, 0
0, 0
0, 0
0, 0
0, 0
0, 0
0, 0
0, 0
0, 0
0, 0
0, 0
0, 0
0, 0
0, 0
0, 0
0, 0
0, 0
0, 0
0, 0
0, 0
0, 0
0, 0
0, 0
0, 0
0, 0
0, 0
0, 0
0, 0
0, 0
0, 0
0, 0
0, 0
0, 0
0, 0
0, 0
0, 0
0, 0
0, 0
0, 0
0, 0
0, 0
0, 0
0, 0
0, 0
0, 0
0, 0
#ENDOFDATA     end of spectrum data