File: host_upload/06-09-2024/ps_0852/dump3/ps__0852shot_2077.msa
#FORMAT      : EMSA/MAS spectral data file
#VERSION     : TC202v2.0 PIXL
#TITLE       : N/A
#DATE        :       Date in the format DD-MMM-YYYY, for example 07-JUL-2010
#TIME        :             The time of day at which the spectrum was recorded, in 24-hour format
#OWNER       : PIXL Flight Model       (PIXL will use this to indicate which instrument took the data.)
#NPOINTS     : 4096     Number of data points in the spectrum (This can be zero for configuration only files)
#NCOLUMNS    : 2     Number of data columns in the spectrum (This can be zero for configuration only files)
#XUNITS      : eV
#YUNITS      : COUNTS
#DATATYPE    : YY
#XPERCHAN    : 7.862, 7.881   eV per channel (separate by commas if more than one detector)
#OFFSET      : 18.5, -22.4         eV of first channel  (separate by commas if more than one detector
#SIGNALTYPE  : XRF
#YP_TEMP     : 2.203
#LIVETIME    : 8.59786, 8.56312   seconds (separate by commas if more than one detector)
#REALTIME    : 10, 10.0   seconds (separate by commas if more than one detector)
#SPECTRUM    : start of spectrum data
0, 0
0, 0
0, 0
0, 0
0, 0
0, 0
0, 0
0, 0
0, 2
2, 1
3, 2
49, 48
59, 57
4, 6
4, 8
84, 107
424, 458
108, 101
8, 7
2, 1
1, 4
10, 7
11, 7
7, 11
50, 52
63, 77
38, 35
18, 29
7, 3
3, 1
3, 4
1, 5
11, 5
12, 25
29, 25
10, 7
3, 6
9, 3
12, 6
1, 6
12, 9
22, 19
28, 16
18, 23
13, 9
11, 13
7, 7
5, 10
15, 13
23, 30
35, 40
17, 25
17, 22
49, 47
64, 73
30, 33
32, 47
458, 593
2067, 2328
1646, 1492
189, 149
26, 24
28, 31
99, 110
304, 387
227, 233
35, 23
13, 17
13, 14
8, 3
4, 4
5, 8
4, 12
3, 7
10, 9
6, 4
6, 8
7, 3
1, 8
10, 3
7, 4
3, 8
10, 4
3, 14
5, 5
4, 4
4, 5
5, 2
5, 9
3, 2
7, 6
7, 7
8, 3
1, 2
2, 3
4, 7
4, 4
2, 0
0, 3
7, 0
3, 2
2, 1
2, 1
0, 3
2, 2
0, 2
4, 4
3, 6
5, 2
5, 2
5, 1
4, 3
4, 0
0, 1
2, 0
2, 2
3, 2
4, 4
1, 2
1, 3
0, 0
1, 1
3, 3
4, 1
1, 2
1, 1
2, 3
0, 1
4, 0
4, 1
2, 1
2, 0
0, 0
0, 2
1, 2
0, 0
0, 0
1, 1
0, 0
0, 0
0, 0
0, 2
2, 0
0, 0
0, 0
0, 0
1, 0
0, 1
0, 0
0, 0
1, 0
1, 0
0, 0
1, 0
0, 0
2, 0
0, 0
0, 0
0, 0
0, 1
0, 0
0, 1
0, 0
3, 0
0, 0
0, 0
0, 0
0, 0
0, 0
0, 0
0, 0
1, 0
0, 1
0, 0
0, 0
0, 0
0, 0
0, 0
0, 0
1, 1
1, 0
0, 0
0, 1
1, 0
0, 0
0, 0
0, 0
0, 0
0, 0
0, 0
0, 0
0, 0
0, 0
1, 0
0, 0
0, 0
1, 0
1, 0
0, 0
0, 0
0, 0
0, 1
0, 0
0, 0
0, 0
0, 0
0, 0
0, 0
0, 0
0, 0
0, 0
1, 0
0, 0
0, 0
0, 0
0, 0
0, 0
0, 0
0, 0
0, 0
0, 0
0, 0
0, 0
0, 0
0, 0
0, 0
0, 0
0, 0
0, 0
0, 0
0, 0
0, 0
0, 0
0, 0
0, 0
0, 0
0, 0
0, 0
0, 0
0, 0
0, 0
0, 0
0, 0
0, 0
0, 0
0, 0
0, 0
0, 0
0, 0
0, 0
0, 0
0, 0
0, 0
0, 0
0, 0
0, 0
0, 0
0, 0
0, 0
0, 0
0, 0
0, 0
0, 0
0, 0
0, 0
0, 0
0, 0
0, 0
0, 0
0, 0
0, 0
0, 0
0, 0
0, 0
0, 0
0, 0
0, 0
0, 0
0, 0
0, 0
0, 0
0, 0
0, 0
0, 0
0, 0
0, 0
0, 0
0, 0
0, 0
0, 0
0, 0
0, 0
0, 0
0, 0
#ENDOFDATA     end of spectrum data