File: host_upload/06-09-2024/ps_0852/dump3/ps__0852shot_2550.msa
#FORMAT      : EMSA/MAS spectral data file
#VERSION     : TC202v2.0 PIXL
#TITLE       : N/A
#DATE        :       Date in the format DD-MMM-YYYY, for example 07-JUL-2010
#TIME        :             The time of day at which the spectrum was recorded, in 24-hour format
#OWNER       : PIXL Flight Model       (PIXL will use this to indicate which instrument took the data.)
#NPOINTS     : 4096     Number of data points in the spectrum (This can be zero for configuration only files)
#NCOLUMNS    : 2     Number of data columns in the spectrum (This can be zero for configuration only files)
#XUNITS      : eV
#YUNITS      : COUNTS
#DATATYPE    : YY
#XPERCHAN    : 7.862, 7.881   eV per channel (separate by commas if more than one detector)
#OFFSET      : 18.5, -22.4         eV of first channel  (separate by commas if more than one detector
#SIGNALTYPE  : XRF
#YP_TEMP     : 2.235
#LIVETIME    : 8.54855, 8.35123   seconds (separate by commas if more than one detector)
#REALTIME    : 10, 10.0   seconds (separate by commas if more than one detector)
#SPECTRUM    : start of spectrum data
0, 0
0, 0
0, 0
0, 0
0, 0
0, 0
0, 0
0, 0
1, 1
1, 0
2, 2
51, 44
71, 48
5, 6
1, 2
103, 80
521, 404
120, 83
10, 5
2, 0
3, 7
8, 13
9, 7
3, 8
26, 24
31, 34
26, 21
8, 12
5, 6
1, 2
2, 5
0, 1
5, 1
22, 19
25, 23
9, 4
7, 5
4, 17
3, 40
5, 26
2, 1
7, 9
23, 35
51, 28
61, 8
21, 3
9, 9
12, 4
5, 8
7, 12
10, 11
3, 5
11, 10
32, 50
68, 61
33, 21
23, 28
480, 487
2349, 2206
1675, 1231
218, 144
116, 14
87, 22
139, 110
344, 341
245, 216
44, 34
6, 13
10, 7
9, 8
1, 4
4, 2
5, 1
5, 2
5, 7
6, 6
2, 8
8, 5
8, 5
4, 7
6, 5
2, 5
1, 2
5, 8
4, 18
4, 14
3, 15
4, 2
12, 3
22, 5
29, 3
12, 0
6, 2
2, 0
2, 2
0, 4
5, 5
2, 2
2, 2
5, 1
4, 4
2, 5
6, 1
3, 4
0, 1
1, 3
6, 4
1, 0
6, 0
3, 1
2, 4
3, 1
0, 0
0, 1
1, 2
3, 3
4, 4
1, 3
3, 1
0, 1
1, 0
3, 2
0, 1
0, 2
2, 4
3, 1
2, 3
1, 1
0, 1
0, 1
2, 3
2, 5
2, 1
4, 0
0, 0
2, 1
1, 1
1, 2
0, 2
1, 1
0, 3
1, 3
0, 0
0, 1
0, 0
0, 0
0, 0
0, 2
0, 1
0, 0
0, 0
0, 0
0, 0
0, 0
0, 0
0, 1
0, 0
0, 1
0, 1
1, 0
1, 0
0, 0
1, 0
0, 0
0, 0
0, 0
2, 0
1, 0
1, 1
1, 0
0, 0
0, 1
0, 1
0, 0
0, 2
0, 0
0, 0
0, 0
0, 0
0, 0
0, 0
0, 1
0, 0
0, 0
0, 0
0, 0
0, 0
0, 0
0, 0
0, 0
1, 0
0, 0
0, 0
0, 0
0, 0
0, 0
0, 0
0, 0
0, 0
0, 0
0, 0
0, 0
0, 0
0, 0
0, 0
0, 0
0, 0
0, 0
0, 0
0, 0
0, 0
0, 0
0, 0
0, 0
0, 0
0, 0
0, 0
0, 0
0, 0
0, 0
0, 0
0, 0
0, 0
0, 0
0, 0
0, 0
0, 0
0, 0
0, 0
0, 0
0, 0
0, 0
0, 0
0, 0
0, 0
0, 0
0, 0
0, 0
0, 0
0, 0
0, 0
0, 0
0, 0
0, 0
0, 0
0, 0
0, 0
0, 0
0, 0
0, 0
0, 0
0, 0
0, 0
0, 0
0, 0
0, 0
0, 0
0, 0
0, 0
0, 0
0, 0
0, 0
0, 0
0, 0
0, 0
0, 0
0, 0
0, 0
0, 0
0, 0
0, 0
0, 0
0, 0
0, 0
0, 0
0, 0
0, 0
0, 0
0, 0
0, 0
0, 0
0, 0
0, 0
0, 0
0, 0
0, 0
0, 0
0, 0
0, 0
0, 0
0, 0
0, 0
0, 0
0, 0
#ENDOFDATA     end of spectrum data