File: host_upload/06-09-2024/ps_0852/dump3/ps__0852shot_2144.msa
#FORMAT      : EMSA/MAS spectral data file
#VERSION     : TC202v2.0 PIXL
#TITLE       : N/A
#DATE        :       Date in the format DD-MMM-YYYY, for example 07-JUL-2010
#TIME        :             The time of day at which the spectrum was recorded, in 24-hour format
#OWNER       : PIXL Flight Model       (PIXL will use this to indicate which instrument took the data.)
#NPOINTS     : 4096     Number of data points in the spectrum (This can be zero for configuration only files)
#NCOLUMNS    : 2     Number of data columns in the spectrum (This can be zero for configuration only files)
#XUNITS      : eV
#YUNITS      : COUNTS
#DATATYPE    : YY
#XPERCHAN    : 7.862, 7.881   eV per channel (separate by commas if more than one detector)
#OFFSET      : 18.5, -22.4         eV of first channel  (separate by commas if more than one detector
#SIGNALTYPE  : XRF
#YP_TEMP     : 2.396
#LIVETIME    : 8.55826, 8.56342   seconds (separate by commas if more than one detector)
#REALTIME    : 10, 10.0   seconds (separate by commas if more than one detector)
#SPECTRUM    : start of spectrum data
0, 0
0, 0
0, 0
0, 0
0, 0
0, 0
0, 0
0, 0
0, 0
0, 2
3, 0
40, 37
44, 55
6, 2
7, 3
102, 94
431, 426
113, 101
3, 3
2, 1
1, 0
1, 4
2, 3
7, 9
23, 40
51, 41
24, 26
11, 15
3, 2
1, 6
3, 3
0, 3
4, 8
25, 35
48, 55
8, 8
19, 6
12, 8
4, 8
7, 1
5, 3
10, 14
20, 19
9, 12
11, 4
32, 4
24, 4
12, 6
9, 16
10, 13
14, 8
8, 6
5, 13
44, 47
54, 56
32, 23
28, 40
432, 544
2078, 2256
1449, 1296
171, 140
28, 14
19, 45
98, 146
320, 321
206, 184
38, 23
9, 5
13, 15
16, 16
6, 12
6, 5
6, 1
7, 3
6, 11
3, 10
13, 2
12, 3
3, 3
6, 5
4, 5
1, 5
5, 5
4, 10
1, 3
1, 4
4, 3
3, 5
3, 2
6, 0
3, 7
4, 2
5, 4
3, 1
6, 4
3, 4
2, 1
4, 1
4, 4
4, 4
0, 8
0, 4
2, 2
3, 5
1, 1
4, 3
3, 4
0, 3
1, 2
2, 1
1, 2
1, 0
0, 1
2, 3
4, 0
2, 4
4, 5
3, 8
5, 5
0, 1
0, 1
4, 3
2, 0
1, 4
0, 2
0, 3
0, 3
1, 0
0, 1
1, 1
1, 2
2, 1
1, 2
0, 0
0, 1
0, 0
1, 2
1, 0
0, 5
0, 0
1, 0
0, 0
0, 1
3, 1
0, 0
1, 2
0, 0
0, 0
0, 1
0, 0
0, 0
0, 0
0, 0
0, 0
0, 1
0, 0
0, 1
0, 1
0, 0
0, 0
0, 0
1, 0
1, 0
0, 0
0, 1
0, 0
0, 1
0, 1
1, 0
0, 0
0, 0
0, 2
0, 0
0, 0
0, 0
0, 0
0, 0
0, 0
0, 0
0, 0
0, 1
0, 0
0, 0
0, 0
0, 2
0, 1
0, 0
0, 0
0, 0
0, 0
0, 0
0, 0
0, 0
0, 0
0, 0
0, 0
0, 0
0, 1
0, 0
0, 0
0, 0
0, 0
0, 1
0, 0
0, 0
0, 0
0, 0
0, 0
0, 0
0, 0
0, 0
0, 0
0, 0
0, 0
0, 0
0, 0
0, 0
0, 0
0, 0
0, 0
0, 0
0, 0
0, 0
0, 0
0, 0
0, 0
0, 0
0, 0
0, 0
0, 0
0, 0
0, 0
0, 0
0, 0
0, 0
0, 0
0, 0
0, 0
0, 0
0, 0
0, 0
0, 0
0, 0
0, 0
0, 0
0, 0
0, 0
0, 0
0, 0
0, 0
0, 0
0, 0
0, 0
0, 0
0, 0
0, 0
0, 0
0, 0
0, 0
0, 0
0, 0
0, 0
0, 0
0, 0
0, 0
0, 0
0, 0
0, 0
0, 0
0, 0
0, 0
0, 0
0, 0
0, 0
0, 0
0, 0
0, 0
0, 0
0, 0
0, 0
0, 0
0, 0
0, 0
0, 0
0, 0
0, 0
0, 0
0, 0
0, 0
0, 0
0, 0
0, 0
0, 0
0, 0
#ENDOFDATA     end of spectrum data