File: host_upload/06-09-2024/ps_0852/dump3/ps__0852shot_2512.msa
#FORMAT      : EMSA/MAS spectral data file
#VERSION     : TC202v2.0 PIXL
#TITLE       : N/A
#DATE        :       Date in the format DD-MMM-YYYY, for example 07-JUL-2010
#TIME        :             The time of day at which the spectrum was recorded, in 24-hour format
#OWNER       : PIXL Flight Model       (PIXL will use this to indicate which instrument took the data.)
#NPOINTS     : 4096     Number of data points in the spectrum (This can be zero for configuration only files)
#NCOLUMNS    : 2     Number of data columns in the spectrum (This can be zero for configuration only files)
#XUNITS      : eV
#YUNITS      : COUNTS
#DATATYPE    : YY
#XPERCHAN    : 7.862, 7.881   eV per channel (separate by commas if more than one detector)
#OFFSET      : 18.5, -22.4         eV of first channel  (separate by commas if more than one detector
#SIGNALTYPE  : XRF
#YP_TEMP     : 2.011
#LIVETIME    : 8.55285, 8.54464   seconds (separate by commas if more than one detector)
#REALTIME    : 10, 10.0   seconds (separate by commas if more than one detector)
#SPECTRUM    : start of spectrum data
0, 0
0, 0
0, 0
0, 0
0, 0
0, 0
0, 0
1, 0
1, 5
0, 0
2, 2
55, 48
67, 55
6, 6
4, 4
119, 100
487, 367
110, 89
8, 4
4, 3
17, 7
64, 55
23, 25
11, 11
36, 31
29, 32
16, 24
12, 18
6, 3
3, 5
5, 2
4, 2
4, 2
4, 6
16, 17
1, 3
2, 12
4, 9
5, 6
9, 1
7, 4
9, 8
15, 11
14, 43
5, 54
9, 32
3, 19
10, 5
9, 5
13, 16
22, 9
11, 5
8, 31
40, 53
60, 61
53, 16
141, 38
568, 537
2316, 2202
1679, 1278
220, 144
15, 20
24, 24
93, 117
370, 348
231, 166
41, 20
8, 8
24, 9
19, 8
7, 2
3, 1
5, 5
3, 3
6, 3
6, 10
13, 3
13, 4
8, 4
4, 4
9, 3
4, 4
1, 9
3, 5
2, 2
1, 7
4, 4
6, 7
7, 5
3, 6
8, 2
5, 4
0, 2
1, 1
4, 0
2, 3
5, 3
4, 6
2, 5
10, 5
6, 2
4, 3
2, 1
4, 1
2, 0
2, 3
2, 4
3, 1
3, 1
3, 1
2, 0
3, 1
1, 2
3, 3
3, 2
2, 3
3, 8
3, 0
3, 3
2, 2
2, 1
6, 2
3, 3
1, 1
2, 0
3, 2
0, 0
1, 0
0, 0
1, 0
1, 0
1, 0
1, 0
1, 2
0, 0
0, 0
0, 0
1, 2
0, 0
1, 1
0, 0
3, 1
0, 0
1, 0
0, 1
0, 0
0, 1
0, 1
0, 1
0, 0
1, 1
0, 0
2, 0
0, 1
0, 0
0, 0
0, 0
0, 0
2, 0
0, 0
1, 1
0, 0
0, 0
0, 0
1, 0
0, 0
0, 0
0, 0
0, 0
0, 0
0, 0
1, 0
0, 2
0, 0
0, 0
0, 1
0, 0
0, 0
0, 0
0, 0
0, 0
0, 0
0, 1
1, 0
0, 0
0, 0
0, 1
1, 0
0, 0
0, 1
0, 0
0, 0
0, 0
0, 0
0, 0
0, 1
0, 0
0, 0
0, 0
0, 0
0, 0
0, 0
0, 0
0, 0
0, 0
0, 0
0, 0
0, 0
0, 0
0, 0
0, 0
0, 0
0, 0
0, 0
0, 0
0, 0
0, 0
0, 0
0, 0
0, 0
0, 0
0, 0
0, 0
0, 0
0, 0
0, 0
0, 0
0, 0
0, 0
0, 0
0, 0
0, 0
0, 0
0, 0
0, 0
0, 0
0, 0
0, 0
0, 0
0, 0
0, 0
0, 0
0, 0
0, 0
0, 0
0, 0
0, 0
0, 0
0, 0
0, 0
0, 0
0, 0
0, 0
0, 0
0, 0
0, 0
0, 0
0, 0
0, 0
0, 0
0, 0
0, 0
0, 0
0, 0
0, 0
0, 0
0, 0
0, 0
0, 0
0, 0
0, 0
0, 0
0, 0
0, 0
0, 0
0, 0
0, 0
0, 0
0, 0
0, 0
0, 0
0, 0
0, 0
0, 0
0, 0
0, 0
0, 0
0, 0
0, 0
0, 0
0, 0
0, 0
0, 0
0, 0
#ENDOFDATA     end of spectrum data