File: host_upload/06-09-2024/ps_0852/dump3/ps__0852shot_2049.msa
#FORMAT      : EMSA/MAS spectral data file
#VERSION     : TC202v2.0 PIXL
#TITLE       : N/A
#DATE        :       Date in the format DD-MMM-YYYY, for example 07-JUL-2010
#TIME        :             The time of day at which the spectrum was recorded, in 24-hour format
#OWNER       : PIXL Flight Model       (PIXL will use this to indicate which instrument took the data.)
#NPOINTS     : 4096     Number of data points in the spectrum (This can be zero for configuration only files)
#NCOLUMNS    : 2     Number of data columns in the spectrum (This can be zero for configuration only files)
#XUNITS      : eV
#YUNITS      : COUNTS
#DATATYPE    : YY
#XPERCHAN    : 7.862, 7.881   eV per channel (separate by commas if more than one detector)
#OFFSET      : 18.5, -22.4         eV of first channel  (separate by commas if more than one detector
#SIGNALTYPE  : XRF
#YP_TEMP     : 2.332
#LIVETIME    : 8.56346, 8.60147   seconds (separate by commas if more than one detector)
#REALTIME    : 10, 10.0   seconds (separate by commas if more than one detector)
#SPECTRUM    : start of spectrum data
0, 0
0, 0
0, 0
0, 0
0, 0
0, 0
0, 0
0, 0
0, 2
1, 17
5, 4
46, 48
63, 53
4, 6
1, 6
107, 107
411, 418
118, 106
7, 8
0, 0
1, 1
1, 6
0, 8
4, 47
20, 620
18, 799
18, 98
8, 5
1, 4
1, 1
1, 5
3, 2
0, 2
12, 11
8, 13
3, 4
1, 2
3, 9
7, 9
6, 9
4, 5
7, 7
18, 17
33, 15
29, 11
12, 12
2, 5
3, 5
13, 13
15, 16
10, 18
13, 9
14, 41
32, 77
56, 71
25, 11
24, 46
476, 602
2165, 2300
1600, 1339
192, 125
13, 15
32, 28
113, 128
342, 367
241, 193
33, 40
7, 34
15, 27
6, 8
3, 9
4, 2
5, 6
1, 7
4, 25
8, 29
10, 15
12, 7
3, 3
7, 4
4, 2
3, 4
5, 7
3, 9
2, 6
7, 3
8, 2
6, 6
7, 6
3, 0
3, 1
1, 5
1, 2
1, 2
3, 2
4, 4
6, 1
3, 3
3, 5
1, 4
1, 2
2, 0
1, 1
4, 0
0, 2
1, 11
5, 1
1, 4
1, 3
1, 2
2, 2
4, 2
1, 2
2, 3
1, 0
2, 3
5, 4
3, 2
1, 1
2, 2
3, 2
2, 1
4, 4
1, 2
1, 0
2, 1
1, 4
3, 1
1, 1
0, 1
2, 1
0, 1
0, 3
0, 1
2, 1
1, 0
2, 0
0, 3
0, 0
1, 0
2, 1
0, 0
2, 2
1, 0
0, 1
0, 1
0, 1
0, 1
1, 1
0, 0
0, 0
0, 0
0, 0
0, 0
0, 1
0, 0
1, 2
0, 1
0, 1
0, 0
0, 0
1, 1
0, 0
0, 0
0, 0
0, 0
1, 0
1, 0
1, 0
0, 0
1, 0
1, 0
0, 0
0, 0
0, 0
1, 1
0, 0
0, 1
0, 0
0, 0
0, 0
0, 0
0, 1
1, 0
0, 0
0, 0
0, 0
0, 0
0, 0
0, 0
0, 0
0, 0
0, 0
0, 0
0, 0
0, 0
0, 0
0, 0
0, 0
0, 0
0, 0
0, 0
0, 0
0, 0
0, 0
0, 0
0, 0
0, 0
0, 0
0, 0
0, 0
0, 0
0, 0
0, 0
0, 0
0, 1
0, 0
0, 0
0, 0
0, 0
0, 0
0, 0
0, 0
0, 0
0, 0
0, 0
1, 0
0, 0
0, 0
0, 0
0, 0
0, 0
0, 0
0, 0
0, 0
0, 0
0, 0
0, 0
0, 0
0, 0
0, 0
0, 0
0, 0
0, 0
0, 0
0, 0
0, 0
0, 0
0, 0
0, 0
0, 0
0, 0
0, 0
0, 0
0, 0
0, 0
0, 0
0, 0
0, 0
0, 0
0, 0
0, 0
0, 0
0, 0
0, 0
0, 0
0, 0
0, 0
0, 0
0, 0
0, 0
0, 0
0, 0
0, 0
0, 0
0, 0
0, 0
0, 0
0, 0
0, 0
0, 0
0, 0
0, 0
0, 0
0, 0
0, 0
0, 0
0, 0
0, 0
0, 0
0, 0
0, 0
0, 0
0, 0
#ENDOFDATA     end of spectrum data