File: host_upload/06-09-2024/ps_0852/dump3/ps__0852shot_2119.msa
#FORMAT      : EMSA/MAS spectral data file
#VERSION     : TC202v2.0 PIXL
#TITLE       : N/A
#DATE        :       Date in the format DD-MMM-YYYY, for example 07-JUL-2010
#TIME        :             The time of day at which the spectrum was recorded, in 24-hour format
#OWNER       : PIXL Flight Model       (PIXL will use this to indicate which instrument took the data.)
#NPOINTS     : 4096     Number of data points in the spectrum (This can be zero for configuration only files)
#NCOLUMNS    : 2     Number of data columns in the spectrum (This can be zero for configuration only files)
#XUNITS      : eV
#YUNITS      : COUNTS
#DATATYPE    : YY
#XPERCHAN    : 7.862, 7.881   eV per channel (separate by commas if more than one detector)
#OFFSET      : 18.5, -22.4         eV of first channel  (separate by commas if more than one detector
#SIGNALTYPE  : XRF
#YP_TEMP     : 2.588
#LIVETIME    : 8.55441, 8.57333   seconds (separate by commas if more than one detector)
#REALTIME    : 10, 10.0   seconds (separate by commas if more than one detector)
#SPECTRUM    : start of spectrum data
0, 0
0, 0
0, 0
0, 0
0, 0
0, 0
0, 0
1, 0
0, 0
2, 1
5, 1
64, 58
66, 62
3, 6
4, 6
120, 85
428, 413
102, 112
5, 3
3, 3
3, 4
6, 16
5, 10
5, 20
21, 42
54, 50
31, 38
24, 8
3, 4
2, 3
3, 2
1, 3
2, 4
26, 12
28, 21
9, 8
8, 7
10, 6
8, 17
5, 8
3, 9
12, 15
16, 30
10, 22
10, 11
7, 11
11, 6
21, 11
22, 11
57, 19
58, 29
19, 14
13, 16
38, 35
68, 60
21, 23
31, 36
477, 550
2127, 2231
1632, 1372
216, 148
22, 23
37, 31
100, 115
343, 361
225, 234
41, 21
7, 7
12, 11
7, 8
7, 5
3, 6
4, 7
6, 5
3, 5
4, 7
6, 7
3, 9
2, 7
3, 2
6, 2
7, 6
8, 5
1, 9
2, 8
2, 13
3, 11
7, 3
5, 0
6, 4
2, 4
5, 0
6, 2
9, 7
6, 1
1, 3
3, 6
4, 3
4, 2
4, 3
0, 3
2, 3
1, 4
0, 5
4, 3
3, 2
3, 4
3, 1
0, 3
3, 3
2, 1
4, 2
1, 1
2, 1
1, 3
3, 3
8, 6
2, 1
0, 3
2, 0
1, 5
1, 1
3, 2
1, 0
1, 2
2, 0
2, 0
2, 0
2, 3
1, 2
3, 1
2, 1
0, 1
0, 2
1, 0
0, 0
0, 0
0, 2
2, 1
0, 0
1, 0
1, 2
1, 2
2, 1
0, 0
0, 1
0, 0
0, 0
1, 0
0, 0
0, 0
1, 0
0, 0
0, 0
1, 0
1, 0
0, 0
0, 0
1, 0
2, 0
1, 0
2, 0
0, 0
1, 1
0, 1
0, 0
0, 0
0, 1
0, 0
0, 0
1, 1
0, 1
0, 0
0, 0
1, 0
1, 0
0, 0
0, 0
0, 0
0, 1
0, 0
0, 0
1, 0
0, 0
1, 1
1, 0
0, 0
0, 0
0, 0
0, 0
1, 0
0, 0
0, 0
0, 0
0, 0
1, 0
0, 0
0, 0
1, 0
1, 0
0, 0
0, 0
0, 0
0, 0
0, 0
0, 0
0, 0
0, 0
0, 0
0, 0
0, 0
0, 0
0, 0
0, 0
0, 0
0, 0
0, 0
0, 0
0, 0
0, 0
0, 0
0, 0
0, 0
0, 0
0, 0
0, 0
0, 0
0, 0
0, 0
0, 0
0, 0
0, 0
0, 0
0, 0
0, 0
0, 0
0, 0
0, 0
0, 1
0, 0
0, 0
0, 0
0, 0
0, 0
0, 0
0, 0
0, 0
0, 0
0, 0
0, 0
0, 0
0, 0
0, 0
0, 0
0, 0
0, 0
0, 0
0, 0
0, 0
0, 0
0, 0
0, 0
0, 0
0, 0
0, 0
0, 0
0, 0
0, 0
0, 0
0, 0
0, 0
0, 0
0, 0
0, 0
0, 0
0, 0
0, 0
0, 0
0, 0
0, 0
0, 0
0, 0
0, 0
0, 0
0, 0
0, 0
0, 0
0, 0
0, 0
0, 0
0, 0
0, 0
0, 0
0, 0
#ENDOFDATA     end of spectrum data