File: host_upload/06-09-2024/ps_0852/dump3/ps__0852shot_2308.msa
#FORMAT      : EMSA/MAS spectral data file
#VERSION     : TC202v2.0 PIXL
#TITLE       : N/A
#DATE        :       Date in the format DD-MMM-YYYY, for example 07-JUL-2010
#TIME        :             The time of day at which the spectrum was recorded, in 24-hour format
#OWNER       : PIXL Flight Model       (PIXL will use this to indicate which instrument took the data.)
#NPOINTS     : 4096     Number of data points in the spectrum (This can be zero for configuration only files)
#NCOLUMNS    : 2     Number of data columns in the spectrum (This can be zero for configuration only files)
#XUNITS      : eV
#YUNITS      : COUNTS
#DATATYPE    : YY
#XPERCHAN    : 7.862, 7.881   eV per channel (separate by commas if more than one detector)
#OFFSET      : 18.5, -22.4         eV of first channel  (separate by commas if more than one detector
#SIGNALTYPE  : XRF
#YP_TEMP     : 2.235
#LIVETIME    : 8.54534, 8.56558   seconds (separate by commas if more than one detector)
#REALTIME    : 10, 10.0   seconds (separate by commas if more than one detector)
#SPECTRUM    : start of spectrum data
0, 0
0, 0
0, 0
0, 0
0, 0
0, 0
0, 0
0, 0
0, 1
1, 3
3, 1
35, 41
52, 37
6, 3
5, 5
91, 97
399, 357
109, 85
7, 5
5, 1
4, 1
27, 26
9, 8
18, 13
75, 81
65, 60
29, 26
17, 14
6, 9
9, 4
7, 4
5, 0
15, 5
89, 56
135, 78
16, 16
14, 7
23, 12
22, 10
16, 6
8, 7
18, 16
19, 19
31, 11
111, 7
53, 10
13, 43
3, 43
21, 27
25, 32
22, 15
9, 9
15, 9
49, 50
67, 47
21, 22
28, 34
505, 543
2286, 2116
1580, 1209
201, 137
23, 11
29, 19
107, 121
333, 325
216, 212
49, 24
7, 9
17, 21
7, 16
3, 5
2, 6
7, 11
13, 8
22, 6
10, 8
6, 5
6, 8
9, 2
7, 4
3, 4
5, 3
2, 4
3, 0
3, 1
5, 4
1, 3
7, 5
10, 2
8, 5
2, 5
4, 3
3, 3
3, 4
2, 5
3, 3
2, 3
1, 1
2, 1
3, 0
1, 0
2, 4
3, 3
3, 3
2, 1
2, 3
2, 1
4, 1
3, 1
1, 0
3, 4
2, 3
1, 3
7, 1
1, 0
5, 4
3, 4
4, 5
2, 2
2, 0
0, 3
3, 4
2, 1
1, 2
2, 1
1, 1
1, 4
1, 2
1, 1
0, 0
0, 0
3, 1
0, 0
1, 1
2, 1
0, 0
1, 0
2, 0
1, 1
0, 0
2, 1
0, 0
0, 0
2, 2
0, 1
1, 0
0, 0
0, 0
1, 1
0, 1
0, 0
1, 1
0, 1
1, 0
1, 0
2, 2
0, 0
0, 0
0, 1
1, 1
1, 0
0, 1
0, 0
1, 0
0, 1
1, 0
1, 0
1, 0
0, 0
0, 0
0, 0
0, 0
0, 0
0, 0
0, 0
0, 0
0, 0
0, 0
0, 0
1, 0
0, 0
0, 0
0, 0
0, 1
0, 0
1, 0
0, 0
0, 0
0, 0
0, 0
0, 1
0, 0
0, 0
0, 0
0, 0
0, 0
0, 0
0, 0
0, 0
1, 0
0, 0
0, 0
0, 0
0, 0
0, 0
0, 0
0, 0
0, 0
0, 0
0, 0
0, 0
0, 0
0, 0
0, 0
0, 0
0, 0
0, 0
0, 0
0, 0
0, 0
0, 0
0, 0
0, 0
0, 0
0, 0
0, 0
0, 0
0, 0
0, 0
0, 0
0, 0
0, 0
0, 0
0, 0
0, 0
0, 0
0, 0
0, 0
0, 0
0, 0
0, 0
0, 0
0, 0
0, 0
0, 0
0, 0
0, 0
0, 0
0, 0
0, 0
0, 0
0, 0
0, 0
0, 0
0, 0
0, 0
0, 0
0, 0
0, 0
0, 0
0, 0
0, 0
0, 0
0, 0
0, 0
0, 0
0, 0
0, 0
0, 0
0, 0
0, 0
0, 0
0, 0
0, 0
0, 0
0, 0
0, 0
0, 0
0, 0
0, 0
0, 0
0, 0
0, 0
0, 0
0, 0
0, 0
0, 0
0, 0
0, 0
0, 0
0, 0
0, 0
0, 0
0, 0
#ENDOFDATA     end of spectrum data