File: host_upload/06-09-2024/ps_0852/dump3/ps__0852shot_2269.msa
#FORMAT      : EMSA/MAS spectral data file
#VERSION     : TC202v2.0 PIXL
#TITLE       : N/A
#DATE        :       Date in the format DD-MMM-YYYY, for example 07-JUL-2010
#TIME        :             The time of day at which the spectrum was recorded, in 24-hour format
#OWNER       : PIXL Flight Model       (PIXL will use this to indicate which instrument took the data.)
#NPOINTS     : 4096     Number of data points in the spectrum (This can be zero for configuration only files)
#NCOLUMNS    : 2     Number of data columns in the spectrum (This can be zero for configuration only files)
#XUNITS      : eV
#YUNITS      : COUNTS
#DATATYPE    : YY
#XPERCHAN    : 7.862, 7.881   eV per channel (separate by commas if more than one detector)
#OFFSET      : 18.5, -22.4         eV of first channel  (separate by commas if more than one detector
#SIGNALTYPE  : XRF
#YP_TEMP     : 2.3
#LIVETIME    : 8.59031, 8.57379   seconds (separate by commas if more than one detector)
#REALTIME    : 10, 10.0   seconds (separate by commas if more than one detector)
#SPECTRUM    : start of spectrum data
0, 0
0, 0
0, 0
0, 0
0, 0
0, 0
0, 0
0, 1
0, 2
1, 3
2, 3
48, 56
68, 55
7, 4
4, 3
105, 86
403, 391
92, 103
8, 8
0, 3
2, 1
6, 6
3, 0
11, 4
29, 38
39, 44
23, 16
12, 11
3, 5
5, 8
1, 5
1, 3
0, 2
8, 14
23, 19
5, 2
5, 7
5, 5
6, 17
4, 41
5, 13
11, 3
28, 13
13, 43
12, 98
10, 41
16, 10
8, 5
11, 10
47, 16
14, 9
10, 6
8, 13
36, 34
58, 67
24, 20
53, 32
466, 585
2284, 2198
1684, 1384
214, 125
19, 14
22, 17
107, 94
359, 323
236, 190
39, 14
6, 15
16, 20
4, 7
5, 1
5, 3
4, 8
5, 28
7, 17
8, 9
5, 2
2, 2
3, 1
7, 4
5, 1
8, 5
2, 3
9, 4
3, 2
6, 4
2, 5
4, 6
3, 6
3, 6
5, 4
1, 2
4, 4
1, 1
4, 3
3, 1
3, 1
5, 3
4, 1
5, 2
5, 4
4, 3
2, 5
5, 3
0, 4
1, 2
3, 2
2, 0
2, 1
3, 0
1, 3
1, 3
0, 1
3, 1
0, 3
1, 3
3, 5
1, 3
2, 4
0, 1
1, 1
2, 0
4, 1
3, 1
0, 0
1, 1
2, 1
2, 1
0, 1
0, 4
2, 2
1, 2
1, 1
2, 0
1, 1
2, 0
0, 0
1, 1
0, 2
1, 0
2, 0
0, 0
0, 1
0, 1
1, 1
1, 1
2, 0
0, 1
0, 0
0, 1
1, 1
0, 0
0, 0
1, 0
0, 0
1, 0
1, 1
1, 0
0, 0
1, 1
0, 0
0, 1
0, 0
0, 0
0, 0
0, 0
0, 1
0, 0
0, 0
1, 0
0, 1
0, 0
0, 0
0, 1
0, 1
1, 0
0, 0
0, 0
1, 0
1, 0
0, 0
0, 0
0, 0
1, 0
0, 0
0, 0
0, 0
0, 0
0, 0
1, 0
0, 0
0, 0
0, 0
0, 0
0, 0
0, 0
0, 0
0, 0
0, 0
0, 0
0, 0
0, 0
0, 0
0, 0
0, 0
0, 0
0, 0
0, 0
0, 0
0, 0
0, 0
0, 0
0, 0
0, 0
0, 0
0, 0
0, 0
0, 0
0, 0
0, 0
0, 0
0, 0
0, 0
0, 0
0, 0
0, 0
0, 0
0, 0
0, 0
0, 0
0, 0
0, 0
0, 0
0, 0
0, 0
0, 0
0, 0
0, 0
0, 0
0, 0
0, 0
0, 0
0, 0
0, 0
0, 0
0, 0
0, 0
0, 0
0, 0
0, 0
0, 0
0, 0
0, 0
0, 0
0, 0
0, 0
0, 0
0, 0
0, 0
0, 0
0, 0
0, 0
0, 0
0, 0
0, 0
0, 0
0, 0
0, 0
0, 0
0, 0
0, 0
0, 0
0, 0
0, 0
0, 0
0, 0
0, 0
0, 0
0, 0
0, 0
0, 0
0, 0
0, 0
0, 0
0, 0
0, 0
0, 0
0, 0
0, 0
0, 0
0, 0
0, 0
0, 0
0, 0
#ENDOFDATA     end of spectrum data