File: host_upload/06-09-2024/ps_0852/dump3/ps__0852shot_2536.msa
#FORMAT      : EMSA/MAS spectral data file
#VERSION     : TC202v2.0 PIXL
#TITLE       : N/A
#DATE        :       Date in the format DD-MMM-YYYY, for example 07-JUL-2010
#TIME        :             The time of day at which the spectrum was recorded, in 24-hour format
#OWNER       : PIXL Flight Model       (PIXL will use this to indicate which instrument took the data.)
#NPOINTS     : 4096     Number of data points in the spectrum (This can be zero for configuration only files)
#NCOLUMNS    : 2     Number of data columns in the spectrum (This can be zero for configuration only files)
#XUNITS      : eV
#YUNITS      : COUNTS
#DATATYPE    : YY
#XPERCHAN    : 7.862, 7.881   eV per channel (separate by commas if more than one detector)
#OFFSET      : 18.5, -22.4         eV of first channel  (separate by commas if more than one detector
#SIGNALTYPE  : XRF
#YP_TEMP     : 2.203
#LIVETIME    : 8.55739, 8.55782   seconds (separate by commas if more than one detector)
#REALTIME    : 10, 10.0   seconds (separate by commas if more than one detector)
#SPECTRUM    : start of spectrum data
0, 0
0, 0
0, 0
0, 0
0, 0
0, 0
0, 0
1, 0
1, 0
1, 2
1, 1
41, 52
73, 60
5, 5
3, 6
81, 83
427, 386
103, 93
6, 8
3, 0
6, 5
35, 32
22, 8
15, 20
45, 52
68, 79
29, 41
17, 23
3, 5
3, 3
3, 2
4, 3
7, 4
15, 17
20, 16
10, 8
6, 7
5, 7
19, 10
41, 20
13, 8
9, 16
15, 20
22, 19
41, 15
28, 16
12, 7
15, 5
9, 16
32, 8
30, 28
14, 11
13, 13
44, 45
54, 64
31, 29
32, 37
535, 559
2341, 2187
1661, 1274
201, 123
23, 19
23, 28
109, 115
342, 348
229, 188
37, 27
9, 17
15, 13
10, 17
5, 3
4, 5
4, 3
14, 6
8, 6
10, 8
7, 9
6, 4
5, 4
5, 5
0, 7
5, 2
7, 4
8, 3
1, 6
5, 0
6, 4
7, 6
7, 4
13, 2
6, 4
5, 5
6, 1
1, 0
5, 4
3, 1
5, 1
7, 2
2, 3
0, 1
2, 6
3, 5
3, 3
4, 1
4, 1
1, 2
2, 1
1, 3
1, 4
1, 0
2, 1
0, 0
0, 2
1, 0
3, 1
5, 3
5, 3
4, 5
1, 5
1, 2
5, 4
3, 2
1, 3
4, 1
2, 1
1, 0
1, 1
0, 0
3, 2
2, 0
1, 3
1, 0
1, 1
0, 2
1, 1
0, 1
2, 1
0, 1
0, 0
1, 3
1, 0
2, 0
1, 1
1, 0
0, 0
1, 1
0, 0
1, 0
1, 0
0, 1
0, 0
0, 0
1, 0
0, 0
0, 2
1, 3
0, 0
1, 0
0, 0
0, 0
1, 1
0, 0
1, 0
0, 0
1, 0
0, 0
1, 0
0, 0
0, 0
1, 1
3, 0
1, 0
0, 0
0, 1
0, 1
0, 1
0, 0
0, 0
0, 0
0, 0
0, 0
1, 0
0, 1
1, 0
0, 0
1, 0
0, 0
0, 0
0, 0
0, 0
0, 0
0, 0
0, 0
0, 1
0, 0
0, 0
0, 0
0, 0
0, 0
0, 0
0, 0
0, 0
0, 0
0, 0
0, 0
0, 0
0, 0
0, 0
0, 0
0, 0
0, 0
0, 0
0, 0
0, 0
0, 0
0, 0
0, 0
0, 0
0, 0
0, 0
0, 0
0, 0
0, 0
0, 0
0, 0
0, 0
0, 0
0, 0
0, 0
0, 0
0, 0
0, 0
0, 0
0, 0
0, 0
0, 0
0, 0
0, 0
0, 0
0, 0
0, 0
0, 0
0, 0
0, 0
0, 0
0, 0
0, 0
0, 0
0, 0
0, 0
0, 0
0, 0
0, 0
0, 0
0, 0
0, 0
0, 0
0, 0
0, 0
0, 0
0, 0
0, 0
0, 0
0, 0
0, 0
0, 0
0, 0
0, 0
0, 0
0, 0
0, 0
0, 0
0, 0
0, 0
0, 0
0, 0
0, 0
0, 0
0, 0
0, 0
0, 0
0, 0
0, 0
0, 0
0, 0
0, 0
0, 0
0, 0
0, 0
0, 0
0, 0
0, 0
0, 0
0, 0
#ENDOFDATA     end of spectrum data