File: host_upload/06-09-2024/ps_0852/dump3/ps__0852shot_2188.msa
#FORMAT      : EMSA/MAS spectral data file
#VERSION     : TC202v2.0 PIXL
#TITLE       : N/A
#DATE        :       Date in the format DD-MMM-YYYY, for example 07-JUL-2010
#TIME        :             The time of day at which the spectrum was recorded, in 24-hour format
#OWNER       : PIXL Flight Model       (PIXL will use this to indicate which instrument took the data.)
#NPOINTS     : 4096     Number of data points in the spectrum (This can be zero for configuration only files)
#NCOLUMNS    : 2     Number of data columns in the spectrum (This can be zero for configuration only files)
#XUNITS      : eV
#YUNITS      : COUNTS
#DATATYPE    : YY
#XPERCHAN    : 7.862, 7.881   eV per channel (separate by commas if more than one detector)
#OFFSET      : 18.5, -22.4         eV of first channel  (separate by commas if more than one detector
#SIGNALTYPE  : XRF
#YP_TEMP     : 2.203
#LIVETIME    : 8.5373, 8.57309   seconds (separate by commas if more than one detector)
#REALTIME    : 10, 10.0   seconds (separate by commas if more than one detector)
#SPECTRUM    : start of spectrum data
0, 0
0, 0
0, 0
0, 0
0, 0
0, 0
0, 0
0, 0
0, 2
6, 0
5, 1
42, 51
71, 54
8, 6
3, 5
88, 106
415, 493
88, 106
5, 4
0, 0
0, 0
4, 3
2, 1
20, 2
290, 21
508, 24
63, 8
9, 11
4, 5
1, 0
0, 4
1, 1
4, 3
9, 10
11, 13
3, 4
3, 2
30, 2
48, 1
14, 6
3, 8
4, 11
9, 18
6, 96
4, 100
7, 23
8, 5
5, 8
12, 9
11, 20
43, 15
41, 8
16, 14
43, 48
53, 65
20, 30
41, 96
446, 672
2090, 2361
1483, 1400
175, 150
30, 26
63, 20
138, 130
328, 358
222, 197
24, 19
8, 7
13, 15
5, 7
4, 4
3, 6
2, 8
10, 8
28, 6
59, 7
39, 1
14, 5
10, 4
5, 5
1, 5
3, 7
4, 1
2, 7
2, 5
1, 8
1, 10
1, 6
1, 11
2, 6
0, 5
5, 6
4, 5
4, 2
2, 2
1, 2
1, 1
2, 0
1, 5
4, 7
2, 4
2, 1
2, 0
2, 4
2, 2
2, 0
2, 2
2, 2
1, 2
2, 1
2, 1
2, 2
3, 1
5, 2
4, 4
5, 6
4, 0
5, 2
3, 1
3, 3
1, 1
2, 1
1, 2
3, 1
1, 5
2, 0
2, 1
0, 0
2, 3
2, 0
1, 0
1, 2
1, 2
1, 1
0, 2
3, 1
1, 1
0, 0
1, 0
2, 1
0, 1
0, 0
0, 1
0, 0
0, 0
1, 0
0, 0
1, 1
0, 0
1, 0
1, 0
2, 0
0, 1
0, 0
1, 1
0, 1
1, 0
0, 1
0, 0
1, 0
1, 0
0, 2
1, 0
1, 0
0, 0
1, 0
0, 0
0, 0
0, 1
0, 0
0, 0
0, 0
0, 0
1, 0
0, 1
0, 0
0, 0
1, 0
0, 0
0, 0
0, 0
0, 0
0, 0
0, 0
0, 0
0, 0
0, 0
0, 1
0, 0
0, 0
0, 0
0, 0
0, 0
0, 0
1, 1
0, 0
0, 0
0, 0
0, 0
0, 0
0, 0
0, 0
0, 0
0, 0
1, 0
0, 0
0, 0
0, 0
0, 0
0, 0
0, 0
0, 0
0, 0
0, 0
0, 0
0, 0
0, 0
0, 0
0, 0
0, 0
0, 0
0, 0
0, 0
0, 0
0, 0
0, 0
0, 0
0, 0
0, 0
0, 0
0, 0
0, 0
0, 0
0, 0
0, 0
0, 0
0, 0
0, 0
0, 0
0, 0
0, 0
0, 0
0, 0
0, 0
0, 0
0, 0
0, 0
0, 0
0, 0
0, 0
0, 0
0, 0
0, 0
0, 0
0, 0
0, 0
0, 0
0, 0
0, 0
0, 0
0, 0
0, 0
0, 0
0, 0
0, 0
0, 0
0, 0
0, 0
0, 0
0, 0
0, 0
0, 0
0, 0
0, 0
0, 0
0, 0
0, 0
0, 0
0, 0
0, 0
0, 0
0, 0
0, 0
0, 0
0, 0
0, 0
0, 0
0, 0
0, 0
0, 0
0, 0
0, 0
0, 0
0, 0
#ENDOFDATA     end of spectrum data