File: host_upload/06-09-2024/ps_0852/dump3/ps__0852shot_2319.msa
#FORMAT      : EMSA/MAS spectral data file
#VERSION     : TC202v2.0 PIXL
#TITLE       : N/A
#DATE        :       Date in the format DD-MMM-YYYY, for example 07-JUL-2010
#TIME        :             The time of day at which the spectrum was recorded, in 24-hour format
#OWNER       : PIXL Flight Model       (PIXL will use this to indicate which instrument took the data.)
#NPOINTS     : 4096     Number of data points in the spectrum (This can be zero for configuration only files)
#NCOLUMNS    : 2     Number of data columns in the spectrum (This can be zero for configuration only files)
#XUNITS      : eV
#YUNITS      : COUNTS
#DATATYPE    : YY
#XPERCHAN    : 7.862, 7.881   eV per channel (separate by commas if more than one detector)
#OFFSET      : 18.5, -22.4         eV of first channel  (separate by commas if more than one detector
#SIGNALTYPE  : XRF
#YP_TEMP     : 2.428
#LIVETIME    : 8.54354, 8.53609   seconds (separate by commas if more than one detector)
#REALTIME    : 10, 10.0   seconds (separate by commas if more than one detector)
#SPECTRUM    : start of spectrum data
0, 0
0, 0
0, 0
0, 0
0, 0
0, 0
0, 0
0, 0
3, 2
2, 1
3, 1
28, 23
48, 26
5, 2
6, 7
96, 63
428, 330
103, 75
11, 5
3, 1
5, 6
38, 30
11, 18
19, 18
106, 80
77, 70
33, 34
20, 22
9, 5
6, 4
7, 2
3, 3
14, 7
126, 112
177, 173
44, 34
36, 21
29, 27
10, 9
11, 7
9, 9
28, 16
28, 13
32, 9
88, 2
55, 5
11, 4
8, 9
21, 24
88, 87
59, 55
13, 15
11, 7
56, 54
82, 82
43, 23
33, 31
510, 494
2174, 1932
1651, 1145
187, 113
23, 17
25, 18
103, 94
369, 285
223, 189
41, 18
13, 2
15, 8
10, 6
8, 4
5, 6
9, 6
12, 3
16, 3
17, 2
3, 4
8, 3
5, 5
8, 5
7, 4
4, 5
5, 8
6, 5
5, 4
3, 4
0, 3
6, 1
11, 1
1, 3
6, 3
4, 2
2, 4
1, 2
3, 3
4, 1
2, 2
3, 0
1, 1
4, 2
6, 6
2, 4
7, 3
4, 3
3, 3
3, 0
3, 5
4, 9
4, 1
1, 2
2, 0
0, 0
0, 0
1, 3
3, 3
0, 2
5, 2
0, 1
3, 2
0, 2
3, 1
1, 0
2, 0
1, 0
0, 3
1, 2
1, 0
2, 0
2, 1
2, 0
2, 2
2, 0
1, 0
1, 1
1, 0
1, 1
2, 0
2, 2
0, 2
1, 0
0, 1
0, 1
0, 1
0, 1
0, 0
1, 0
0, 0
2, 0
2, 0
0, 0
0, 0
2, 0
1, 0
0, 0
1, 1
0, 1
2, 0
0, 0
0, 1
0, 0
0, 0
1, 0
0, 0
1, 0
0, 0
0, 1
1, 1
2, 0
0, 1
0, 0
0, 1
0, 0
0, 0
1, 0
0, 0
0, 0
0, 0
0, 0
0, 0
1, 0
1, 0
0, 0
0, 0
0, 0
0, 0
0, 0
0, 0
0, 0
0, 0
0, 0
0, 0
0, 0
0, 0
0, 0
0, 0
0, 0
0, 0
0, 0
0, 0
0, 0
1, 0
0, 0
0, 0
0, 0
0, 0
0, 0
1, 0
0, 0
1, 0
0, 0
0, 0
0, 0
0, 0
0, 0
0, 0
0, 0
0, 0
0, 0
0, 0
0, 0
0, 0
0, 0
0, 0
0, 0
0, 0
0, 0
0, 0
0, 0
0, 0
0, 0
0, 0
0, 0
0, 0
0, 0
0, 0
0, 0
0, 0
0, 0
0, 0
0, 0
0, 0
0, 0
0, 0
0, 0
0, 0
0, 0
0, 0
0, 0
0, 0
0, 0
0, 0
0, 0
0, 0
0, 0
0, 0
0, 0
0, 0
0, 0
0, 0
0, 0
0, 0
0, 0
0, 0
0, 0
0, 0
0, 0
0, 0
0, 0
0, 0
0, 0
0, 0
0, 0
0, 0
0, 0
0, 0
0, 0
0, 0
0, 0
0, 0
0, 0
0, 0
0, 0
0, 0
0, 0
0, 0
0, 0
0, 0
0, 0
0, 0
0, 0
0, 0
0, 0
0, 0
0, 0
#ENDOFDATA     end of spectrum data