File: host_upload/06-09-2024/ps_0852/dump3/ps__0852shot_2453.msa
#FORMAT      : EMSA/MAS spectral data file
#VERSION     : TC202v2.0 PIXL
#TITLE       : N/A
#DATE        :       Date in the format DD-MMM-YYYY, for example 07-JUL-2010
#TIME        :             The time of day at which the spectrum was recorded, in 24-hour format
#OWNER       : PIXL Flight Model       (PIXL will use this to indicate which instrument took the data.)
#NPOINTS     : 4096     Number of data points in the spectrum (This can be zero for configuration only files)
#NCOLUMNS    : 2     Number of data columns in the spectrum (This can be zero for configuration only files)
#XUNITS      : eV
#YUNITS      : COUNTS
#DATATYPE    : YY
#XPERCHAN    : 7.862, 7.881   eV per channel (separate by commas if more than one detector)
#OFFSET      : 18.5, -22.4         eV of first channel  (separate by commas if more than one detector
#SIGNALTYPE  : XRF
#YP_TEMP     : 2.332
#LIVETIME    : 8.56196, 8.555   seconds (separate by commas if more than one detector)
#REALTIME    : 10, 10.0   seconds (separate by commas if more than one detector)
#SPECTRUM    : start of spectrum data
0, 0
0, 0
0, 0
0, 0
0, 0
0, 0
0, 0
0, 0
2, 1
0, 3
4, 0
48, 41
58, 37
12, 4
6, 7
108, 97
492, 449
104, 70
7, 8
2, 4
6, 5
15, 15
8, 6
12, 7
117, 52
97, 53
30, 22
15, 8
2, 5
1, 2
3, 0
2, 3
4, 3
11, 7
9, 13
8, 8
11, 6
5, 4
3, 8
3, 11
7, 8
13, 15
19, 21
13, 16
11, 8
4, 7
9, 11
5, 9
8, 9
10, 8
10, 9
12, 8
29, 8
48, 25
60, 62
23, 25
30, 33
492, 515
2312, 1939
1632, 1209
199, 113
11, 21
23, 22
105, 106
351, 297
232, 171
39, 23
18, 3
29, 17
18, 9
3, 12
4, 8
8, 4
7, 3
1, 3
9, 9
5, 7
4, 2
5, 5
9, 2
1, 3
0, 5
1, 3
6, 7
4, 7
2, 4
5, 1
2, 3
3, 5
4, 5
4, 2
5, 2
7, 2
5, 0
3, 3
6, 3
3, 2
6, 5
4, 1
2, 7
6, 3
3, 1
5, 1
3, 3
3, 5
2, 2
2, 2
2, 2
1, 3
7, 3
3, 1
3, 1
3, 1
3, 2
1, 2
0, 1
2, 2
4, 1
4, 0
2, 4
1, 1
2, 0
3, 0
1, 0
0, 2
1, 0
0, 1
0, 1
1, 0
0, 1
0, 1
1, 1
1, 1
0, 0
2, 0
0, 0
2, 2
1, 0
0, 1
1, 0
0, 1
0, 1
0, 0
0, 0
0, 0
1, 1
2, 0
1, 1
2, 0
2, 0
0, 1
0, 0
1, 1
0, 0
0, 1
0, 0
1, 1
0, 3
0, 0
0, 1
0, 0
0, 0
1, 0
0, 0
0, 0
0, 1
0, 0
1, 0
0, 0
0, 1
0, 0
0, 0
1, 2
0, 1
0, 1
0, 0
0, 1
0, 0
0, 1
0, 0
0, 0
0, 1
0, 0
0, 0
0, 0
0, 0
0, 0
0, 0
0, 0
0, 0
0, 0
0, 1
0, 0
0, 0
0, 0
0, 0
0, 0
0, 0
0, 0
0, 0
1, 0
0, 0
1, 1
0, 0
0, 0
0, 0
1, 0
0, 0
0, 0
0, 0
0, 0
0, 0
0, 0
0, 0
0, 0
0, 0
0, 0
0, 0
0, 0
0, 0
0, 0
0, 0
0, 0
0, 0
0, 0
0, 0
0, 0
0, 0
0, 0
0, 0
0, 0
0, 0
0, 0
0, 0
0, 0
0, 0
0, 0
0, 0
0, 0
0, 0
0, 0
0, 0
0, 0
0, 0
0, 0
0, 0
0, 0
0, 0
0, 0
0, 0
0, 0
0, 0
0, 0
0, 0
0, 0
0, 0
0, 0
0, 0
0, 0
0, 0
0, 0
0, 0
0, 0
0, 0
0, 0
0, 0
0, 0
0, 0
0, 0
0, 0
0, 0
0, 0
0, 0
0, 0
0, 0
0, 0
0, 0
0, 0
0, 0
0, 0
0, 0
0, 0
0, 0
0, 0
0, 0
0, 0
0, 0
0, 0
0, 0
0, 0
0, 0
0, 0
0, 0
0, 0
#ENDOFDATA     end of spectrum data