File: host_upload/06-09-2024/ps_0852/dump3/ps__0852shot_2148.msa
#FORMAT      : EMSA/MAS spectral data file
#VERSION     : TC202v2.0 PIXL
#TITLE       : N/A
#DATE        :       Date in the format DD-MMM-YYYY, for example 07-JUL-2010
#TIME        :             The time of day at which the spectrum was recorded, in 24-hour format
#OWNER       : PIXL Flight Model       (PIXL will use this to indicate which instrument took the data.)
#NPOINTS     : 4096     Number of data points in the spectrum (This can be zero for configuration only files)
#NCOLUMNS    : 2     Number of data columns in the spectrum (This can be zero for configuration only files)
#XUNITS      : eV
#YUNITS      : COUNTS
#DATATYPE    : YY
#XPERCHAN    : 7.862, 7.881   eV per channel (separate by commas if more than one detector)
#OFFSET      : 18.5, -22.4         eV of first channel  (separate by commas if more than one detector
#SIGNALTYPE  : XRF
#YP_TEMP     : 2.332
#LIVETIME    : 8.57504, 8.35628   seconds (separate by commas if more than one detector)
#REALTIME    : 10, 10.0   seconds (separate by commas if more than one detector)
#SPECTRUM    : start of spectrum data
0, 0
0, 0
0, 0
0, 0
0, 0
0, 0
0, 0
0, 1
2, 0
2, 0
0, 5
48, 43
74, 65
13, 4
5, 2
94, 103
451, 419
90, 70
9, 7
1, 4
1, 0
5, 4
6, 4
3, 3
15, 22
22, 28
12, 18
10, 9
2, 3
5, 1
4, 0
2, 5
5, 2
23, 10
16, 17
1, 6
6, 2
5, 4
1, 2
4, 3
4, 5
4, 10
11, 24
17, 19
5, 8
6, 8
7, 8
6, 3
7, 11
20, 15
34, 9
25, 18
14, 24
46, 40
55, 53
19, 28
33, 28
467, 532
2173, 2142
1548, 1379
199, 154
15, 9
14, 22
86, 127
292, 336
244, 209
47, 14
14, 13
9, 11
9, 13
1, 6
2, 4
7, 3
2, 8
8, 12
7, 8
1, 6
2, 3
5, 2
4, 7
12, 3
4, 0
0, 7
2, 16
3, 25
5, 4
5, 2
3, 5
2, 4
0, 6
1, 2
2, 5
0, 4
2, 1
3, 2
6, 3
5, 2
4, 3
0, 1
1, 1
4, 3
1, 3
0, 3
2, 4
3, 2
1, 7
2, 2
0, 3
0, 0
2, 0
2, 2
2, 0
2, 2
5, 2
3, 5
2, 1
8, 3
3, 1
7, 1
1, 2
3, 2
2, 2
3, 2
3, 0
0, 0
3, 0
1, 0
1, 0
0, 2
2, 2
0, 1
0, 0
1, 0
2, 1
1, 0
0, 1
2, 0
0, 1
0, 0
1, 0
1, 0
0, 1
0, 0
1, 1
0, 0
1, 1
1, 0
0, 1
1, 0
0, 2
1, 1
1, 1
0, 1
0, 0
0, 1
0, 0
1, 0
0, 2
0, 0
2, 0
1, 1
0, 0
0, 1
0, 0
0, 1
1, 0
0, 0
0, 0
0, 0
0, 0
0, 0
0, 1
1, 0
0, 0
0, 1
0, 0
0, 0
0, 0
0, 0
0, 0
0, 0
0, 0
0, 0
0, 0
1, 0
0, 0
0, 0
0, 0
0, 0
1, 0
0, 1
0, 0
0, 0
0, 0
0, 0
0, 0
0, 0
0, 0
0, 0
0, 0
0, 0
0, 0
0, 0
0, 0
0, 0
0, 0
0, 0
0, 0
0, 0
0, 0
0, 0
0, 0
0, 0
0, 0
0, 0
0, 0
0, 0
0, 0
0, 0
0, 0
0, 0
0, 0
0, 0
0, 0
0, 0
0, 0
0, 0
0, 0
0, 0
0, 0
0, 0
0, 0
0, 0
0, 0
0, 0
0, 0
0, 0
0, 0
0, 0
0, 0
0, 0
0, 0
0, 0
0, 0
0, 0
0, 0
0, 0
0, 0
0, 0
0, 0
0, 0
0, 0
0, 0
0, 0
0, 0
0, 0
0, 0
0, 0
0, 0
0, 0
0, 0
0, 0
0, 0
0, 0
0, 0
0, 0
0, 0
0, 0
0, 0
0, 0
0, 0
0, 0
0, 0
0, 0
0, 0
0, 0
0, 0
0, 0
0, 0
0, 0
0, 0
0, 0
0, 0
0, 0
0, 0
0, 0
0, 0
0, 0
0, 0
0, 0
0, 0
0, 0
0, 0
0, 0
#ENDOFDATA     end of spectrum data