File: host_upload/06-09-2024/ps_0852/dump3/ps__0852shot_2528.msa
#FORMAT      : EMSA/MAS spectral data file
#VERSION     : TC202v2.0 PIXL
#TITLE       : N/A
#DATE        :       Date in the format DD-MMM-YYYY, for example 07-JUL-2010
#TIME        :             The time of day at which the spectrum was recorded, in 24-hour format
#OWNER       : PIXL Flight Model       (PIXL will use this to indicate which instrument took the data.)
#NPOINTS     : 4096     Number of data points in the spectrum (This can be zero for configuration only files)
#NCOLUMNS    : 2     Number of data columns in the spectrum (This can be zero for configuration only files)
#XUNITS      : eV
#YUNITS      : COUNTS
#DATATYPE    : YY
#XPERCHAN    : 7.862, 7.881   eV per channel (separate by commas if more than one detector)
#OFFSET      : 18.5, -22.4         eV of first channel  (separate by commas if more than one detector
#SIGNALTYPE  : XRF
#YP_TEMP     : 2.396
#LIVETIME    : 8.54978, 8.55157   seconds (separate by commas if more than one detector)
#REALTIME    : 10, 10.0   seconds (separate by commas if more than one detector)
#SPECTRUM    : start of spectrum data
0, 0
0, 0
0, 0
0, 0
0, 0
0, 0
0, 0
0, 0
2, 0
0, 0
1, 2
36, 29
51, 47
7, 3
3, 5
102, 99
484, 425
119, 88
4, 4
3, 4
17, 8
94, 89
34, 24
15, 4
41, 29
38, 33
15, 19
12, 13
4, 6
2, 2
4, 4
6, 3
4, 5
66, 44
121, 61
16, 16
9, 18
25, 14
5, 6
3, 1
9, 4
14, 6
16, 12
9, 13
1, 8
12, 8
6, 3
12, 7
7, 18
18, 49
25, 30
9, 16
21, 15
31, 48
61, 48
21, 24
31, 57
460, 547
2210, 2062
1559, 1183
177, 117
11, 13
13, 23
96, 95
324, 299
257, 162
35, 18
6, 26
16, 40
5, 9
4, 5
2, 7
6, 5
14, 3
19, 4
13, 6
11, 5
3, 1
8, 7
6, 13
8, 2
3, 6
5, 1
4, 3
4, 7
7, 1
6, 2
8, 1
4, 3
0, 4
5, 7
3, 2
6, 5
6, 4
5, 1
5, 3
2, 0
3, 3
6, 5
7, 5
5, 2
2, 4
1, 2
3, 4
2, 5
1, 3
3, 0
4, 2
2, 2
3, 1
2, 1
2, 3
3, 1
0, 5
0, 1
3, 6
5, 3
3, 2
2, 1
4, 2
5, 2
1, 2
2, 2
2, 1
2, 1
3, 2
1, 2
0, 0
0, 1
1, 1
2, 2
2, 0
0, 2
3, 0
0, 0
0, 1
1, 0
1, 0
1, 0
0, 1
0, 0
1, 1
0, 0
3, 1
0, 2
1, 1
1, 0
0, 0
1, 1
0, 0
1, 0
1, 1
0, 1
0, 0
0, 0
1, 0
0, 0
0, 0
0, 0
0, 0
0, 0
1, 0
0, 0
0, 0
0, 1
1, 1
0, 0
0, 1
1, 2
0, 0
0, 1
0, 0
0, 0
0, 1
2, 0
0, 0
0, 0
0, 0
0, 1
0, 0
0, 0
0, 0
0, 0
0, 0
0, 0
0, 0
0, 0
0, 0
0, 0
0, 0
1, 0
0, 0
0, 0
1, 0
0, 0
0, 0
0, 0
0, 0
0, 0
0, 0
0, 0
0, 0
0, 0
0, 0
0, 0
0, 0
0, 0
0, 0
0, 0
0, 0
0, 0
0, 0
0, 0
0, 0
0, 0
0, 0
0, 0
0, 0
0, 0
0, 0
0, 0
1, 0
0, 0
0, 0
0, 0
0, 0
0, 0
0, 0
0, 0
0, 0
0, 0
0, 0
0, 0
0, 0
0, 0
0, 0
0, 0
0, 0
0, 0
0, 0
0, 0
0, 0
0, 0
0, 0
0, 0
0, 0
0, 0
0, 0
0, 0
0, 0
0, 0
0, 0
0, 0
0, 0
0, 0
0, 0
0, 0
0, 0
0, 0
0, 0
0, 0
0, 0
0, 0
0, 0
0, 0
0, 0
0, 0
0, 0
0, 0
0, 0
0, 0
0, 0
0, 0
0, 0
0, 0
0, 0
0, 0
0, 0
0, 0
0, 0
0, 0
0, 0
0, 0
0, 0
0, 0
0, 0
0, 0
0, 0
0, 0
0, 0
0, 0
0, 0
0, 0
0, 0
#ENDOFDATA     end of spectrum data