File: host_upload/06-09-2024/ps_0852/dump3/ps__0852shot_2416.msa
#FORMAT      : EMSA/MAS spectral data file
#VERSION     : TC202v2.0 PIXL
#TITLE       : N/A
#DATE        :       Date in the format DD-MMM-YYYY, for example 07-JUL-2010
#TIME        :             The time of day at which the spectrum was recorded, in 24-hour format
#OWNER       : PIXL Flight Model       (PIXL will use this to indicate which instrument took the data.)
#NPOINTS     : 4096     Number of data points in the spectrum (This can be zero for configuration only files)
#NCOLUMNS    : 2     Number of data columns in the spectrum (This can be zero for configuration only files)
#XUNITS      : eV
#YUNITS      : COUNTS
#DATATYPE    : YY
#XPERCHAN    : 7.862, 7.881   eV per channel (separate by commas if more than one detector)
#OFFSET      : 18.5, -22.4         eV of first channel  (separate by commas if more than one detector
#SIGNALTYPE  : XRF
#YP_TEMP     : 2.332
#LIVETIME    : 8.57166, 8.54258   seconds (separate by commas if more than one detector)
#REALTIME    : 10, 10.0   seconds (separate by commas if more than one detector)
#SPECTRUM    : start of spectrum data
0, 0
0, 0
0, 0
0, 0
0, 0
0, 0
0, 0
0, 0
1, 1
1, 0
0, 1
52, 50
68, 54
8, 7
6, 5
98, 87
476, 431
103, 102
6, 7
3, 2
1, 1
1, 3
3, 1
3, 3
28, 15
26, 17
21, 20
12, 16
5, 3
2, 3
3, 4
2, 2
0, 1
12, 11
14, 15
4, 3
4, 3
10, 1
8, 2
24, 1
28, 3
15, 9
10, 15
6, 14
3, 6
2, 7
4, 25
3, 30
5, 14
9, 37
17, 34
30, 12
48, 14
93, 41
76, 54
30, 18
20, 28
489, 591
2217, 2392
1534, 1365
173, 140
16, 16
17, 38
104, 124
325, 329
223, 178
27, 24
7, 9
19, 15
7, 12
8, 3
2, 3
4, 1
6, 2
2, 6
6, 5
1, 8
6, 16
5, 15
8, 9
9, 12
2, 5
2, 8
5, 2
1, 1
1, 1
4, 1
2, 3
3, 4
7, 7
19, 5
23, 3
7, 14
8, 13
3, 6
3, 2
4, 5
1, 3
2, 2
4, 1
4, 2
1, 1
4, 1
3, 2
0, 3
5, 2
1, 2
3, 2
1, 1
3, 2
4, 2
2, 2
4, 1
1, 1
0, 1
3, 0
4, 1
6, 1
4, 2
0, 1
1, 1
4, 0
2, 2
0, 2
1, 1
1, 0
1, 1
0, 0
0, 3
4, 0
2, 0
1, 0
0, 1
0, 3
1, 0
1, 0
1, 1
1, 2
1, 0
1, 1
1, 0
0, 0
1, 0
1, 0
1, 1
1, 2
1, 1
0, 0
0, 0
0, 2
1, 1
0, 0
1, 1
1, 0
0, 0
0, 0
0, 0
0, 0
0, 0
1, 1
0, 0
0, 0
0, 1
0, 0
0, 0
1, 1
1, 0
0, 1
0, 0
0, 0
0, 1
0, 0
0, 0
1, 0
0, 1
1, 2
0, 0
0, 0
0, 0
0, 0
0, 0
0, 0
0, 0
0, 0
1, 0
0, 0
0, 0
0, 0
0, 0
0, 0
0, 0
0, 0
0, 0
0, 0
0, 1
0, 0
0, 0
0, 0
0, 0
0, 0
0, 0
0, 1
0, 0
0, 0
0, 0
0, 0
0, 0
0, 0
0, 0
0, 0
0, 0
0, 0
0, 0
0, 0
0, 0
0, 0
0, 0
0, 0
0, 0
0, 0
0, 0
0, 0
0, 0
0, 0
0, 0
0, 0
0, 0
0, 0
0, 0
0, 0
0, 0
0, 0
0, 0
0, 0
0, 0
0, 0
0, 0
0, 0
1, 0
0, 0
0, 0
0, 0
0, 0
0, 0
0, 0
0, 0
0, 0
0, 0
0, 0
0, 0
0, 0
0, 0
0, 0
0, 0
0, 0
0, 0
0, 0
0, 0
0, 0
0, 0
0, 0
0, 0
0, 0
0, 0
0, 0
0, 0
0, 0
0, 0
0, 0
0, 0
0, 0
0, 0
0, 0
0, 0
0, 0
0, 0
0, 0
0, 0
0, 0
0, 0
0, 0
0, 0
0, 0
0, 0
0, 0
0, 0
0, 0
0, 0
0, 0
0, 0
0, 0
0, 0
0, 0
0, 0
#ENDOFDATA     end of spectrum data