File: host_upload/06-09-2024/ps_0852/dump3/ps__0852shot_2429.msa
#FORMAT      : EMSA/MAS spectral data file
#VERSION     : TC202v2.0 PIXL
#TITLE       : N/A
#DATE        :       Date in the format DD-MMM-YYYY, for example 07-JUL-2010
#TIME        :             The time of day at which the spectrum was recorded, in 24-hour format
#OWNER       : PIXL Flight Model       (PIXL will use this to indicate which instrument took the data.)
#NPOINTS     : 4096     Number of data points in the spectrum (This can be zero for configuration only files)
#NCOLUMNS    : 2     Number of data columns in the spectrum (This can be zero for configuration only files)
#XUNITS      : eV
#YUNITS      : COUNTS
#DATATYPE    : YY
#XPERCHAN    : 7.862, 7.881   eV per channel (separate by commas if more than one detector)
#OFFSET      : 18.5, -22.4         eV of first channel  (separate by commas if more than one detector
#SIGNALTYPE  : XRF
#YP_TEMP     : 2.46
#LIVETIME    : 8.55616, 8.54991   seconds (separate by commas if more than one detector)
#REALTIME    : 10, 10.0   seconds (separate by commas if more than one detector)
#SPECTRUM    : start of spectrum data
0, 0
0, 0
0, 0
0, 0
0, 0
0, 0
0, 0
0, 0
0, 0
1, 1
2, 1
53, 48
49, 46
7, 2
7, 5
97, 104
458, 425
105, 102
5, 3
2, 2
0, 0
2, 2
3, 3
3, 5
44, 36
50, 29
25, 14
14, 17
3, 4
0, 3
0, 0
0, 0
4, 11
23, 26
30, 38
11, 5
4, 8
7, 3
3, 4
0, 0
5, 10
6, 9
11, 13
14, 11
1, 3
2, 2
2, 6
6, 6
13, 6
37, 16
37, 13
14, 2
6, 19
37, 62
62, 71
43, 19
38, 32
464, 532
2187, 2262
1565, 1388
217, 145
25, 18
30, 20
106, 110
345, 326
222, 193
35, 23
18, 16
21, 15
8, 4
2, 3
1, 6
2, 8
5, 9
6, 5
9, 10
6, 6
2, 9
5, 2
4, 4
1, 5
10, 2
12, 2
8, 3
4, 2
8, 1
3, 3
8, 6
4, 3
5, 6
1, 1
3, 2
3, 2
3, 2
4, 2
4, 1
5, 3
4, 2
5, 5
2, 7
3, 5
2, 1
4, 1
3, 3
2, 2
2, 0
1, 3
2, 3
1, 9
6, 5
4, 3
4, 4
1, 1
1, 3
4, 4
7, 0
2, 4
1, 5
3, 1
1, 0
1, 1
2, 4
0, 2
1, 1
3, 0
2, 1
0, 6
0, 2
2, 1
0, 2
0, 2
0, 1
0, 0
1, 0
1, 1
1, 2
0, 0
0, 1
0, 3
0, 1
0, 1
1, 0
1, 0
1, 0
1, 1
1, 0
0, 0
2, 0
0, 0
4, 0
0, 0
1, 0
0, 1
0, 0
0, 0
0, 0
0, 1
0, 0
1, 0
0, 0
1, 0
1, 0
1, 0
1, 0
0, 0
0, 0
0, 0
0, 1
0, 0
0, 0
0, 0
0, 0
0, 0
2, 0
0, 0
0, 0
0, 0
0, 0
0, 0
0, 0
1, 2
0, 0
2, 0
0, 0
1, 0
0, 0
0, 1
0, 0
0, 0
0, 0
0, 0
0, 0
0, 2
0, 0
0, 0
0, 0
0, 0
0, 0
0, 0
0, 0
0, 0
0, 0
0, 0
0, 1
0, 0
0, 0
0, 0
0, 0
0, 0
0, 0
0, 0
0, 0
0, 0
0, 0
0, 0
0, 0
0, 0
0, 0
0, 0
0, 0
0, 0
0, 0
0, 0
0, 0
0, 0
0, 0
0, 0
0, 0
0, 0
0, 0
0, 0
0, 0
0, 0
0, 0
0, 0
0, 0
0, 0
0, 0
0, 0
0, 0
0, 0
0, 0
0, 0
0, 0
0, 0
0, 0
0, 0
0, 0
0, 0
0, 0
0, 0
0, 0
0, 0
0, 0
0, 0
0, 0
0, 0
0, 0
0, 0
0, 0
0, 0
0, 0
0, 0
0, 0
0, 0
0, 0
0, 0
0, 0
0, 0
0, 0
0, 0
0, 0
0, 0
0, 0
0, 0
0, 0
0, 0
0, 0
0, 0
0, 0
0, 0
0, 0
0, 0
0, 0
0, 0
0, 0
0, 0
0, 0
0, 0
0, 0
0, 0
0, 0
0, 0
0, 0
#ENDOFDATA     end of spectrum data