File: host_upload/06-09-2024/ps_0852/dump3/ps__0852shot_2145.msa
#FORMAT      : EMSA/MAS spectral data file
#VERSION     : TC202v2.0 PIXL
#TITLE       : N/A
#DATE        :       Date in the format DD-MMM-YYYY, for example 07-JUL-2010
#TIME        :             The time of day at which the spectrum was recorded, in 24-hour format
#OWNER       : PIXL Flight Model       (PIXL will use this to indicate which instrument took the data.)
#NPOINTS     : 4096     Number of data points in the spectrum (This can be zero for configuration only files)
#NCOLUMNS    : 2     Number of data columns in the spectrum (This can be zero for configuration only files)
#XUNITS      : eV
#YUNITS      : COUNTS
#DATATYPE    : YY
#XPERCHAN    : 7.862, 7.881   eV per channel (separate by commas if more than one detector)
#OFFSET      : 18.5, -22.4         eV of first channel  (separate by commas if more than one detector
#SIGNALTYPE  : XRF
#YP_TEMP     : 2.043
#LIVETIME    : 8.56082, 8.56371   seconds (separate by commas if more than one detector)
#REALTIME    : 10, 10.0   seconds (separate by commas if more than one detector)
#SPECTRUM    : start of spectrum data
0, 0
0, 0
0, 0
0, 0
0, 0
0, 0
0, 0
0, 0
0, 1
0, 0
2, 3
41, 45
65, 58
4, 5
4, 4
109, 101
482, 454
99, 113
5, 4
1, 1
0, 0
2, 4
4, 2
8, 12
34, 26
50, 37
37, 26
21, 13
6, 6
5, 1
1, 2
4, 5
6, 23
129, 143
224, 230
37, 42
26, 18
32, 24
4, 8
4, 4
4, 10
12, 10
22, 10
11, 8
15, 6
37, 5
20, 0
7, 1
12, 11
34, 35
25, 26
13, 8
13, 10
48, 35
73, 42
20, 18
35, 30
389, 424
1655, 1688
1254, 1121
170, 109
14, 12
21, 23
64, 94
298, 257
160, 152
30, 25
8, 4
11, 16
6, 15
9, 8
7, 7
8, 7
13, 6
7, 8
10, 8
15, 8
8, 3
5, 5
6, 4
4, 4
4, 9
10, 28
1, 15
5, 3
7, 6
5, 7
7, 5
2, 4
3, 3
6, 7
9, 3
6, 2
9, 2
3, 6
3, 3
4, 1
0, 1
4, 2
1, 3
2, 3
2, 9
2, 4
5, 1
2, 1
2, 4
1, 1
1, 2
1, 2
1, 5
1, 3
0, 4
2, 2
2, 3
2, 1
1, 4
1, 2
2, 3
2, 1
3, 2
0, 3
2, 2
3, 2
1, 1
0, 1
2, 4
1, 3
1, 4
0, 1
1, 2
1, 1
2, 2
1, 1
0, 0
1, 0
1, 1
0, 1
0, 0
2, 2
0, 0
0, 0
1, 0
0, 0
0, 1
0, 0
1, 1
1, 0
0, 0
0, 0
0, 0
1, 0
0, 3
0, 0
0, 1
0, 0
0, 2
1, 0
0, 2
0, 0
1, 0
0, 0
1, 0
1, 1
0, 0
0, 1
0, 0
1, 0
0, 0
0, 1
0, 0
0, 0
0, 0
0, 0
0, 0
0, 0
0, 0
1, 0
0, 0
0, 0
0, 0
0, 0
0, 0
1, 1
0, 2
0, 0
0, 0
0, 0
0, 0
0, 0
0, 0
0, 0
0, 0
1, 0
0, 0
0, 1
0, 0
0, 0
0, 0
0, 0
0, 0
0, 0
0, 0
0, 0
0, 0
0, 0
0, 0
0, 0
0, 0
0, 0
0, 0
0, 0
0, 0
0, 0
0, 0
0, 0
0, 0
0, 0
0, 0
0, 0
0, 0
0, 0
0, 0
0, 0
0, 0
0, 0
0, 0
0, 0
0, 0
0, 0
0, 0
0, 0
0, 0
0, 0
0, 0
0, 0
0, 0
0, 0
0, 0
0, 0
0, 0
0, 0
0, 0
0, 0
0, 0
0, 0
0, 0
0, 0
0, 0
0, 0
0, 0
0, 0
0, 0
0, 0
0, 0
0, 0
0, 0
0, 0
0, 0
0, 0
0, 0
0, 0
0, 0
0, 0
0, 0
0, 0
0, 0
0, 0
0, 0
0, 0
0, 0
0, 0
0, 0
0, 0
0, 0
0, 0
0, 0
0, 0
0, 0
0, 0
0, 0
0, 0
0, 0
0, 0
0, 0
0, 0
0, 0
0, 0
0, 0
0, 0
0, 0
0, 0
0, 0
0, 0
0, 0
#ENDOFDATA     end of spectrum data