File: host_upload/06-09-2024/ps_0852/dump3/ps__0852shot_2502.msa
#FORMAT      : EMSA/MAS spectral data file
#VERSION     : TC202v2.0 PIXL
#TITLE       : N/A
#DATE        :       Date in the format DD-MMM-YYYY, for example 07-JUL-2010
#TIME        :             The time of day at which the spectrum was recorded, in 24-hour format
#OWNER       : PIXL Flight Model       (PIXL will use this to indicate which instrument took the data.)
#NPOINTS     : 4096     Number of data points in the spectrum (This can be zero for configuration only files)
#NCOLUMNS    : 2     Number of data columns in the spectrum (This can be zero for configuration only files)
#XUNITS      : eV
#YUNITS      : COUNTS
#DATATYPE    : YY
#XPERCHAN    : 7.862, 7.881   eV per channel (separate by commas if more than one detector)
#OFFSET      : 18.5, -22.4         eV of first channel  (separate by commas if more than one detector
#SIGNALTYPE  : XRF
#YP_TEMP     : 2.364
#LIVETIME    : 8.54791, 8.54158   seconds (separate by commas if more than one detector)
#REALTIME    : 10, 10.0   seconds (separate by commas if more than one detector)
#SPECTRUM    : start of spectrum data
0, 0
0, 0
0, 0
0, 0
0, 0
0, 0
0, 0
0, 0
2, 0
0, 1
1, 0
44, 34
42, 69
2, 5
10, 7
88, 75
355, 347
96, 82
2, 5
4, 2
2, 2
1, 3
5, 1
13, 6
35, 25
28, 32
42, 23
52, 13
10, 2
2, 6
2, 2
3, 5
2, 3
10, 20
18, 16
6, 4
6, 2
9, 8
2, 4
4, 18
19, 24
38, 40
42, 26
11, 25
6, 14
15, 11
14, 12
8, 8
99, 97
586, 521
438, 339
56, 32
25, 18
71, 69
159, 162
59, 121
46, 68
444, 552
1958, 2115
1432, 1289
171, 129
15, 20
14, 36
87, 136
310, 302
182, 170
34, 20
5, 7
10, 7
9, 11
6, 7
3, 4
5, 6
7, 3
7, 3
8, 3
1, 5
2, 8
4, 4
6, 7
2, 2
4, 2
4, 2
3, 4
2, 5
4, 6
2, 7
2, 6
3, 6
3, 4
3, 2
2, 3
2, 2
2, 2
3, 2
7, 1
1, 4
2, 1
1, 0
0, 2
1, 1
5, 2
4, 1
2, 2
2, 0
1, 1
6, 2
4, 5
3, 2
4, 2
0, 2
1, 2
6, 1
2, 2
4, 2
3, 1
5, 6
0, 2
2, 0
3, 1
0, 1
2, 4
1, 1
0, 0
2, 2
2, 1
1, 0
1, 0
0, 3
0, 0
1, 1
0, 0
1, 2
0, 0
1, 2
0, 0
2, 1
1, 0
0, 3
1, 0
1, 0
0, 1
2, 0
0, 0
0, 0
1, 0
0, 0
2, 0
0, 1
0, 0
0, 1
0, 0
0, 0
1, 0
0, 1
0, 3
0, 0
0, 0
0, 0
0, 1
0, 0
0, 0
0, 0
0, 0
1, 0
0, 0
1, 0
0, 0
0, 0
2, 0
0, 1
0, 0
0, 2
0, 0
1, 0
1, 0
0, 0
0, 0
0, 1
0, 0
0, 0
0, 0
0, 1
0, 2
0, 0
0, 0
0, 0
0, 0
0, 1
0, 0
0, 0
0, 0
0, 0
0, 0
1, 0
0, 0
0, 0
0, 0
1, 0
0, 0
0, 0
0, 0
0, 0
0, 0
0, 0
0, 0
0, 0
0, 0
0, 0
0, 0
0, 0
0, 0
0, 0
0, 0
0, 0
0, 0
0, 0
0, 0
0, 0
0, 0
0, 0
0, 0
0, 0
0, 0
0, 0
0, 0
0, 0
0, 0
0, 0
0, 0
0, 0
0, 0
0, 0
0, 0
0, 0
0, 0
0, 0
0, 0
0, 0
0, 0
0, 0
0, 0
0, 0
0, 0
0, 0
0, 0
0, 0
0, 0
0, 0
0, 0
0, 0
0, 0
0, 0
0, 0
0, 0
0, 0
0, 0
0, 0
0, 0
0, 0
0, 0
0, 0
0, 0
0, 0
0, 0
0, 0
0, 0
0, 0
0, 0
0, 0
0, 0
0, 0
0, 0
0, 0
0, 0
0, 0
0, 0
0, 0
0, 0
0, 0
0, 0
0, 0
0, 0
0, 0
0, 0
0, 0
0, 0
0, 0
0, 0
0, 0
0, 0
0, 0
0, 0
0, 0
#ENDOFDATA     end of spectrum data