File: host_upload/06-09-2024/ps_0852/dump3/ps__0852shot_2112.msa
#FORMAT      : EMSA/MAS spectral data file
#VERSION     : TC202v2.0 PIXL
#TITLE       : N/A
#DATE        :       Date in the format DD-MMM-YYYY, for example 07-JUL-2010
#TIME        :             The time of day at which the spectrum was recorded, in 24-hour format
#OWNER       : PIXL Flight Model       (PIXL will use this to indicate which instrument took the data.)
#NPOINTS     : 4096     Number of data points in the spectrum (This can be zero for configuration only files)
#NCOLUMNS    : 2     Number of data columns in the spectrum (This can be zero for configuration only files)
#XUNITS      : eV
#YUNITS      : COUNTS
#DATATYPE    : YY
#XPERCHAN    : 7.862, 7.881   eV per channel (separate by commas if more than one detector)
#OFFSET      : 18.5, -22.4         eV of first channel  (separate by commas if more than one detector
#SIGNALTYPE  : XRF
#YP_TEMP     : 2.396
#LIVETIME    : 8.55214, 8.55922   seconds (separate by commas if more than one detector)
#REALTIME    : 10, 10.0   seconds (separate by commas if more than one detector)
#SPECTRUM    : start of spectrum data
0, 0
0, 0
0, 0
0, 0
0, 0
0, 0
0, 0
0, 2
1, 2
0, 4
2, 0
34, 36
46, 49
3, 7
5, 6
69, 76
307, 366
79, 99
15, 6
1, 4
30, 49
205, 302
76, 129
24, 143
55, 90
60, 60
23, 23
12, 20
4, 8
2, 8
11, 4
5, 5
12, 6
55, 77
74, 96
11, 12
7, 14
20, 17
5, 9
5, 9
7, 8
13, 13
20, 16
15, 9
5, 13
6, 29
10, 50
9, 16
10, 8
22, 39
18, 24
7, 10
15, 15
40, 50
57, 82
18, 23
33, 30
428, 567
1851, 2352
1375, 1467
182, 145
21, 19
16, 23
85, 124
307, 365
203, 191
28, 13
10, 6
11, 6
8, 9
11, 5
5, 6
5, 18
8, 7
2, 7
3, 16
5, 6
4, 8
5, 6
5, 2
4, 3
1, 4
6, 7
5, 13
1, 7
5, 4
1, 7
4, 1
7, 1
3, 8
4, 4
5, 6
2, 8
4, 4
10, 1
6, 1
4, 2
4, 3
3, 2
1, 4
1, 0
6, 2
3, 1
5, 2
3, 5
2, 2
2, 1
2, 1
3, 4
2, 2
1, 1
1, 2
3, 3
2, 3
2, 2
2, 2
2, 7
2, 2
2, 1
2, 1
0, 2
2, 3
1, 3
1, 1
0, 4
0, 3
1, 1
0, 3
1, 0
1, 1
1, 1
1, 0
1, 1
1, 1
1, 1
0, 1
1, 2
0, 0
2, 1
1, 2
1, 1
0, 0
0, 0
0, 0
0, 0
0, 0
0, 0
0, 0
0, 1
0, 0
0, 2
0, 0
0, 1
0, 0
0, 0
0, 0
1, 0
1, 1
0, 1
0, 1
0, 0
0, 1
0, 0
0, 1
0, 0
0, 1
0, 0
0, 1
0, 1
0, 0
0, 0
0, 0
1, 1
0, 0
0, 0
1, 1
1, 0
0, 0
1, 1
0, 1
0, 0
0, 0
0, 0
0, 0
0, 0
0, 0
0, 0
0, 1
0, 0
0, 0
0, 0
0, 0
1, 1
0, 0
0, 0
0, 0
0, 0
1, 0
0, 0
0, 1
0, 0
0, 0
0, 0
0, 0
0, 0
0, 0
0, 0
0, 0
0, 0
0, 0
0, 0
0, 0
0, 0
0, 0
0, 0
0, 0
0, 0
0, 0
0, 0
0, 0
0, 0
0, 0
0, 0
0, 0
0, 0
0, 0
0, 0
0, 0
0, 0
0, 0
0, 0
0, 0
0, 0
0, 0
0, 0
0, 0
0, 0
0, 0
0, 0
0, 0
0, 0
0, 0
0, 0
0, 0
0, 0
0, 0
0, 0
0, 0
0, 0
0, 0
0, 0
0, 0
0, 0
0, 0
0, 0
0, 0
0, 0
0, 0
0, 0
0, 0
0, 0
0, 0
0, 0
0, 0
0, 0
0, 0
0, 0
0, 0
0, 0
0, 0
0, 0
0, 0
0, 0
0, 0
0, 0
0, 0
0, 0
0, 0
0, 0
0, 0
0, 0
0, 0
0, 0
0, 0
0, 0
0, 0
0, 0
0, 0
0, 0
0, 0
0, 0
0, 0
0, 0
0, 0
#ENDOFDATA     end of spectrum data