File: host_upload/06-09-2024/ps_0852/dump3/ps__0852shot_2354.msa
#FORMAT      : EMSA/MAS spectral data file
#VERSION     : TC202v2.0 PIXL
#TITLE       : N/A
#DATE        :       Date in the format DD-MMM-YYYY, for example 07-JUL-2010
#TIME        :             The time of day at which the spectrum was recorded, in 24-hour format
#OWNER       : PIXL Flight Model       (PIXL will use this to indicate which instrument took the data.)
#NPOINTS     : 4096     Number of data points in the spectrum (This can be zero for configuration only files)
#NCOLUMNS    : 2     Number of data columns in the spectrum (This can be zero for configuration only files)
#XUNITS      : eV
#YUNITS      : COUNTS
#DATATYPE    : YY
#XPERCHAN    : 7.862, 7.881   eV per channel (separate by commas if more than one detector)
#OFFSET      : 18.5, -22.4         eV of first channel  (separate by commas if more than one detector
#SIGNALTYPE  : XRF
#YP_TEMP     : 2.267
#LIVETIME    : 8.57467, 8.54937   seconds (separate by commas if more than one detector)
#REALTIME    : 10, 10.0   seconds (separate by commas if more than one detector)
#SPECTRUM    : start of spectrum data
0, 0
0, 0
0, 0
0, 0
0, 0
0, 0
0, 0
0, 0
1, 1
4, 0
3, 1
26, 50
43, 54
5, 6
4, 6
91, 122
395, 462
91, 105
5, 9
0, 0
8, 11
53, 81
29, 41
6, 17
49, 49
51, 38
23, 27
16, 15
3, 6
2, 1
2, 2
6, 3
2, 1
5, 13
13, 14
2, 55
5, 57
10, 8
8, 6
8, 3
3, 5
9, 8
15, 19
18, 18
5, 10
6, 4
6, 6
10, 6
7, 8
13, 12
10, 16
3, 5
9, 10
36, 46
59, 68
75, 24
84, 39
395, 622
1811, 2633
1336, 1483
139, 143
15, 49
20, 43
66, 136
299, 388
206, 219
28, 20
18, 11
17, 16
18, 8
4, 13
6, 16
5, 6
7, 8
5, 3
9, 10
5, 4
3, 6
3, 3
1, 3
5, 7
2, 3
4, 3
4, 5
2, 11
4, 13
5, 2
9, 5
11, 2
7, 5
3, 8
2, 9
0, 5
2, 6
3, 4
2, 7
2, 2
0, 5
1, 4
4, 1
1, 6
2, 7
2, 2
1, 4
0, 8
3, 6
5, 2
3, 2
3, 3
2, 3
4, 4
0, 0
0, 4
2, 2
3, 6
1, 7
2, 2
1, 5
3, 0
0, 1
2, 2
1, 1
1, 1
0, 2
4, 1
1, 0
1, 1
0, 1
2, 0
0, 1
0, 0
0, 3
1, 0
0, 3
1, 1
0, 0
1, 0
1, 0
0, 0
1, 2
0, 1
0, 0
1, 1
1, 2
0, 2
3, 0
1, 1
1, 0
1, 0
1, 0
1, 0
0, 0
1, 0
0, 0
0, 1
1, 0
0, 0
0, 0
0, 0
0, 0
0, 0
0, 0
0, 0
0, 0
0, 0
0, 0
0, 1
0, 0
0, 0
0, 2
0, 0
0, 0
0, 0
0, 0
0, 0
0, 0
0, 0
0, 0
0, 0
0, 0
0, 0
1, 2
0, 0
0, 0
0, 0
1, 0
0, 0
0, 0
0, 0
1, 0
0, 0
0, 0
0, 0
0, 0
0, 0
0, 0
0, 0
0, 0
0, 0
0, 0
0, 0
0, 0
0, 0
0, 0
0, 0
0, 0
0, 0
0, 0
0, 0
0, 0
0, 0
0, 0
0, 0
0, 0
0, 0
0, 0
0, 0
0, 0
0, 0
0, 0
0, 0
0, 0
0, 0
0, 0
0, 0
0, 0
0, 0
0, 0
0, 0
0, 0
0, 0
0, 0
0, 0
0, 0
0, 0
0, 0
0, 0
0, 0
0, 0
0, 0
0, 0
0, 0
0, 0
0, 0
0, 0
0, 0
0, 0
0, 0
0, 0
0, 0
0, 0
0, 0
0, 0
0, 0
0, 0
0, 0
0, 0
0, 0
0, 0
0, 0
0, 0
0, 0
0, 0
0, 0
0, 0
0, 0
0, 0
0, 0
0, 0
0, 0
0, 0
0, 0
0, 0
0, 0
0, 0
0, 0
0, 0
0, 0
0, 0
0, 0
0, 0
0, 0
0, 0
0, 0
0, 0
0, 0
0, 0
0, 0
0, 0
0, 0
0, 0
0, 0
0, 0
0, 0
#ENDOFDATA     end of spectrum data