File: host_upload/06-09-2024/ps_0852/dump3/ps__0852shot_2303.msa
#FORMAT      : EMSA/MAS spectral data file
#VERSION     : TC202v2.0 PIXL
#TITLE       : N/A
#DATE        :       Date in the format DD-MMM-YYYY, for example 07-JUL-2010
#TIME        :             The time of day at which the spectrum was recorded, in 24-hour format
#OWNER       : PIXL Flight Model       (PIXL will use this to indicate which instrument took the data.)
#NPOINTS     : 4096     Number of data points in the spectrum (This can be zero for configuration only files)
#NCOLUMNS    : 2     Number of data columns in the spectrum (This can be zero for configuration only files)
#XUNITS      : eV
#YUNITS      : COUNTS
#DATATYPE    : YY
#XPERCHAN    : 7.862, 7.881   eV per channel (separate by commas if more than one detector)
#OFFSET      : 18.5, -22.4         eV of first channel  (separate by commas if more than one detector
#SIGNALTYPE  : XRF
#YP_TEMP     : 2.332
#LIVETIME    : 8.5652, 8.56997   seconds (separate by commas if more than one detector)
#REALTIME    : 10, 10.0   seconds (separate by commas if more than one detector)
#SPECTRUM    : start of spectrum data
0, 0
0, 0
0, 0
0, 0
0, 0
0, 0
0, 0
0, 0
0, 0
0, 3
2, 3
56, 31
64, 41
6, 5
4, 4
84, 78
446, 378
121, 88
5, 8
3, 2
1, 2
5, 2
1, 0
4, 4
46, 16
74, 27
24, 12
7, 8
4, 5
2, 5
1, 2
2, 3
10, 5
38, 24
30, 27
5, 6
4, 6
9, 8
7, 2
5, 3
6, 3
13, 16
10, 13
9, 10
5, 9
8, 5
12, 8
6, 7
14, 8
19, 13
24, 14
23, 15
22, 20
74, 36
92, 58
24, 25
32, 52
541, 550
2271, 2122
1660, 1288
205, 116
22, 20
14, 16
91, 111
366, 313
246, 185
39, 19
15, 9
19, 16
12, 6
10, 6
4, 3
6, 1
8, 3
10, 5
5, 10
3, 5
4, 5
4, 7
2, 3
7, 3
4, 5
2, 6
3, 19
5, 15
6, 6
6, 1
7, 8
6, 16
3, 10
3, 2
5, 2
4, 3
2, 4
2, 3
6, 4
3, 4
3, 0
3, 1
5, 3
3, 2
3, 3
1, 6
3, 3
3, 3
0, 3
6, 3
3, 3
5, 2
3, 1
2, 3
1, 3
1, 1
5, 2
3, 1
5, 1
6, 4
5, 5
3, 2
1, 2
0, 4
3, 1
2, 2
7, 2
1, 1
0, 1
3, 1
2, 0
2, 1
2, 2
0, 1
0, 0
2, 1
1, 0
2, 1
0, 1
0, 2
0, 1
2, 2
0, 0
1, 1
0, 0
1, 0
0, 0
0, 1
0, 1
1, 1
2, 0
0, 0
1, 1
2, 1
0, 0
1, 0
0, 0
2, 1
0, 1
1, 0
1, 0
0, 1
0, 2
0, 1
0, 0
1, 0
0, 0
0, 0
0, 0
1, 1
0, 0
0, 0
0, 0
1, 0
0, 0
1, 0
0, 0
0, 1
0, 0
0, 2
0, 0
0, 0
2, 0
0, 0
0, 0
1, 0
0, 0
0, 0
0, 0
0, 0
0, 0
0, 0
0, 0
0, 0
0, 0
0, 0
0, 0
0, 0
0, 0
0, 0
0, 0
0, 0
0, 0
0, 0
0, 0
0, 0
0, 0
0, 0
0, 0
0, 0
0, 0
0, 0
0, 0
0, 0
0, 0
0, 0
0, 0
0, 0
0, 0
0, 0
0, 0
0, 0
0, 0
0, 0
0, 0
0, 0
0, 0
0, 0
0, 0
0, 0
0, 0
0, 0
0, 0
0, 0
0, 0
0, 0
0, 0
0, 0
0, 0
0, 0
0, 0
0, 0
0, 0
0, 0
0, 0
0, 0
0, 0
0, 0
0, 0
0, 0
0, 0
0, 0
0, 0
0, 0
0, 0
0, 0
0, 0
0, 0
0, 0
0, 0
0, 0
0, 0
0, 0
0, 0
0, 0
0, 0
0, 0
0, 0
0, 0
0, 0
0, 0
0, 0
0, 0
0, 0
0, 0
0, 0
0, 0
0, 0
0, 0
0, 0
0, 0
0, 0
0, 0
0, 0
0, 0
0, 0
0, 0
0, 0
0, 0
0, 0
0, 0
0, 0
0, 0
0, 0
0, 0
0, 0
0, 0
#ENDOFDATA     end of spectrum data