File: host_upload/06-09-2024/ps_0852/dump3/ps__0852shot_2471.msa
#FORMAT      : EMSA/MAS spectral data file
#VERSION     : TC202v2.0 PIXL
#TITLE       : N/A
#DATE        :       Date in the format DD-MMM-YYYY, for example 07-JUL-2010
#TIME        :             The time of day at which the spectrum was recorded, in 24-hour format
#OWNER       : PIXL Flight Model       (PIXL will use this to indicate which instrument took the data.)
#NPOINTS     : 4096     Number of data points in the spectrum (This can be zero for configuration only files)
#NCOLUMNS    : 2     Number of data columns in the spectrum (This can be zero for configuration only files)
#XUNITS      : eV
#YUNITS      : COUNTS
#DATATYPE    : YY
#XPERCHAN    : 7.862, 7.881   eV per channel (separate by commas if more than one detector)
#OFFSET      : 18.5, -22.4         eV of first channel  (separate by commas if more than one detector
#SIGNALTYPE  : XRF
#YP_TEMP     : 2.524
#LIVETIME    : 8.55942, 8.54665   seconds (separate by commas if more than one detector)
#REALTIME    : 10, 10.0   seconds (separate by commas if more than one detector)
#SPECTRUM    : start of spectrum data
0, 0
0, 0
0, 0
0, 0
0, 0
0, 0
0, 0
0, 0
0, 1
2, 0
2, 1
45, 54
73, 44
5, 1
6, 8
108, 88
424, 404
101, 113
4, 8
2, 3
10, 7
34, 27
13, 10
8, 9
34, 39
28, 23
31, 23
17, 18
6, 7
4, 3
2, 1
1, 2
2, 5
11, 10
9, 12
2, 4
2, 3
7, 3
2, 7
3, 5
5, 5
8, 8
11, 16
9, 52
5, 43
9, 31
5, 17
5, 11
6, 10
17, 9
22, 15
13, 10
13, 34
46, 47
68, 64
58, 19
188, 32
553, 562
2306, 2221
1600, 1379
202, 170
18, 25
22, 29
90, 109
327, 334
226, 190
46, 15
9, 13
14, 26
10, 12
4, 9
6, 3
5, 2
3, 4
2, 6
6, 7
13, 6
14, 6
5, 7
4, 5
8, 11
2, 4
6, 6
5, 7
5, 4
5, 2
1, 3
0, 3
2, 2
1, 3
1, 5
2, 3
4, 2
2, 3
1, 4
1, 1
1, 1
2, 2
0, 3
6, 0
7, 1
3, 1
3, 0
4, 1
0, 5
1, 2
0, 3
2, 3
3, 1
1, 2
3, 1
5, 2
2, 3
2, 0
1, 2
2, 0
4, 6
2, 2
1, 4
0, 4
1, 4
1, 2
3, 3
1, 3
2, 1
0, 1
3, 4
4, 1
1, 1
2, 2
0, 1
3, 2
2, 2
3, 1
0, 3
1, 0
3, 0
0, 0
0, 0
0, 0
1, 4
0, 0
0, 1
2, 1
0, 0
0, 1
0, 0
1, 1
1, 0
1, 1
1, 1
1, 0
1, 0
1, 0
1, 0
0, 1
1, 0
1, 0
2, 0
0, 0
1, 1
0, 1
0, 0
0, 0
0, 0
0, 0
0, 0
0, 0
1, 0
0, 0
0, 0
0, 1
0, 0
0, 1
1, 0
0, 0
1, 0
0, 0
0, 0
0, 0
0, 0
0, 1
0, 1
1, 0
0, 3
0, 0
0, 0
0, 0
0, 0
0, 0
0, 0
0, 0
0, 0
1, 0
0, 0
0, 0
0, 0
0, 0
0, 0
0, 0
0, 0
0, 0
0, 0
0, 0
0, 0
0, 0
0, 0
0, 0
0, 0
0, 0
0, 0
0, 0
0, 0
0, 0
0, 0
0, 0
0, 0
0, 0
0, 0
0, 0
0, 0
0, 0
0, 0
0, 0
0, 0
0, 0
0, 0
0, 0
0, 0
0, 0
0, 0
0, 0
0, 0
0, 0
0, 0
0, 0
0, 0
0, 0
0, 0
0, 0
0, 0
0, 0
0, 0
0, 0
0, 0
0, 0
0, 0
0, 0
0, 0
0, 0
0, 0
0, 0
0, 0
0, 0
0, 0
0, 0
0, 0
0, 0
0, 0
0, 0
0, 0
0, 0
0, 0
0, 0
0, 0
0, 0
0, 0
0, 0
0, 0
0, 0
0, 0
0, 0
0, 0
0, 0
0, 0
0, 0
0, 0
0, 0
0, 0
0, 0
0, 0
0, 0
0, 0
0, 0
0, 0
0, 0
0, 0
0, 0
0, 0
0, 0
0, 0
0, 0
0, 0
0, 0
#ENDOFDATA     end of spectrum data