File: host_upload/06-09-2024/ps_0852/dump3/ps__0852shot_2084.msa
#FORMAT      : EMSA/MAS spectral data file
#VERSION     : TC202v2.0 PIXL
#TITLE       : N/A
#DATE        :       Date in the format DD-MMM-YYYY, for example 07-JUL-2010
#TIME        :             The time of day at which the spectrum was recorded, in 24-hour format
#OWNER       : PIXL Flight Model       (PIXL will use this to indicate which instrument took the data.)
#NPOINTS     : 4096     Number of data points in the spectrum (This can be zero for configuration only files)
#NCOLUMNS    : 2     Number of data columns in the spectrum (This can be zero for configuration only files)
#XUNITS      : eV
#YUNITS      : COUNTS
#DATATYPE    : YY
#XPERCHAN    : 7.862, 7.881   eV per channel (separate by commas if more than one detector)
#OFFSET      : 18.5, -22.4         eV of first channel  (separate by commas if more than one detector
#SIGNALTYPE  : XRF
#YP_TEMP     : 2.46
#LIVETIME    : 8.55644, 8.56789   seconds (separate by commas if more than one detector)
#REALTIME    : 10, 10.0   seconds (separate by commas if more than one detector)
#SPECTRUM    : start of spectrum data
0, 0
0, 0
0, 0
0, 0
0, 0
0, 0
0, 0
1, 0
0, 0
4, 1
3, 2
51, 60
60, 78
11, 10
6, 2
84, 104
400, 461
108, 111
6, 12
1, 1
4, 3
7, 4
6, 2
3, 2
51, 7
67, 30
27, 14
10, 13
5, 5
1, 6
2, 1
2, 1
1, 2
12, 9
5, 12
3, 3
6, 6
27, 3
36, 1
13, 3
4, 4
6, 7
19, 27
14, 76
3, 75
4, 15
1, 9
3, 11
8, 9
12, 9
33, 8
62, 5
29, 7
40, 46
54, 64
18, 34
25, 59
432, 601
1989, 2370
1501, 1424
195, 205
26, 26
28, 20
111, 124
327, 340
219, 197
40, 33
12, 4
14, 13
9, 7
6, 6
6, 6
3, 1
8, 1
18, 6
51, 6
46, 5
15, 9
4, 11
1, 5
3, 2
3, 4
6, 1
0, 1
2, 3
2, 11
0, 7
4, 4
2, 4
1, 0
6, 8
1, 6
5, 7
2, 9
1, 5
1, 5
0, 2
3, 1
3, 3
1, 3
6, 0
6, 2
1, 1
3, 1
3, 2
0, 0
2, 2
3, 0
1, 5
3, 0
1, 4
2, 0
7, 3
2, 2
2, 3
5, 4
2, 1
1, 4
1, 2
1, 3
1, 0
0, 2
2, 4
0, 0
1, 1
0, 1
1, 2
1, 0
1, 0
0, 2
1, 0
3, 1
1, 0
2, 0
0, 0
1, 0
2, 1
0, 1
1, 1
2, 1
1, 1
0, 0
0, 0
1, 1
0, 2
1, 0
0, 2
0, 0
0, 1
0, 1
0, 0
0, 1
0, 0
0, 0
0, 0
1, 1
1, 1
0, 0
0, 0
0, 0
0, 0
0, 0
0, 0
0, 0
1, 0
0, 0
0, 2
0, 0
0, 0
0, 0
2, 0
1, 0
0, 0
0, 1
0, 1
0, 0
0, 1
0, 0
0, 1
0, 1
0, 0
0, 0
0, 0
1, 0
0, 1
0, 0
0, 0
0, 0
0, 0
0, 0
0, 0
0, 0
0, 0
0, 0
0, 0
0, 0
0, 0
0, 0
0, 0
0, 0
0, 0
0, 0
0, 0
0, 0
0, 0
0, 0
0, 0
0, 0
0, 0
0, 0
0, 0
0, 0
0, 0
0, 0
0, 0
0, 0
0, 0
0, 1
0, 0
0, 0
0, 0
0, 0
0, 0
0, 0
0, 0
0, 0
0, 0
0, 0
0, 0
0, 0
0, 0
0, 0
0, 0
0, 0
0, 0
0, 0
0, 0
0, 0
0, 0
0, 0
0, 0
0, 0
0, 0
0, 0
0, 0
0, 0
0, 0
0, 0
0, 0
0, 0
0, 0
0, 0
0, 0
0, 0
0, 0
0, 0
0, 0
0, 0
0, 0
0, 0
0, 0
0, 0
0, 0
0, 0
0, 0
0, 0
0, 0
0, 0
0, 0
0, 0
0, 0
0, 0
0, 0
0, 0
0, 0
0, 0
0, 0
0, 0
0, 0
0, 0
0, 0
0, 0
0, 0
0, 0
0, 0
0, 0
0, 0
0, 0
0, 0
0, 0
0, 0
0, 0
0, 0
0, 0
#ENDOFDATA     end of spectrum data