File: host_upload/06-09-2024/ps_0852/dump3/ps__0852shot_2558.msa
#FORMAT      : EMSA/MAS spectral data file
#VERSION     : TC202v2.0 PIXL
#TITLE       : N/A
#DATE        :       Date in the format DD-MMM-YYYY, for example 07-JUL-2010
#TIME        :             The time of day at which the spectrum was recorded, in 24-hour format
#OWNER       : PIXL Flight Model       (PIXL will use this to indicate which instrument took the data.)
#NPOINTS     : 4096     Number of data points in the spectrum (This can be zero for configuration only files)
#NCOLUMNS    : 2     Number of data columns in the spectrum (This can be zero for configuration only files)
#XUNITS      : eV
#YUNITS      : COUNTS
#DATATYPE    : YY
#XPERCHAN    : 7.862, 7.881   eV per channel (separate by commas if more than one detector)
#OFFSET      : 18.5, -22.4         eV of first channel  (separate by commas if more than one detector
#SIGNALTYPE  : XRF
#YP_TEMP     : 2.332
#LIVETIME    : 8.54696, 8.54465   seconds (separate by commas if more than one detector)
#REALTIME    : 10, 10.0   seconds (separate by commas if more than one detector)
#SPECTRUM    : start of spectrum data
0, 0
0, 0
0, 0
0, 0
0, 0
0, 0
0, 0
0, 1
2, 0
2, 1
4, 2
56, 49
73, 63
6, 4
4, 7
81, 95
403, 458
100, 85
2, 3
1, 1
1, 0
7, 2
3, 0
7, 10
40, 24
67, 31
16, 31
11, 21
2, 4
2, 0
0, 1
1, 2
3, 1
14, 14
11, 10
8, 5
3, 2
0, 5
4, 6
1, 5
2, 7
15, 27
24, 27
11, 8
1, 4
4, 3
3, 5
13, 3
26, 7
22, 6
11, 23
7, 88
5, 142
41, 75
57, 50
23, 21
28, 29
446, 606
2200, 2456
1536, 1396
212, 137
24, 24
24, 21
112, 138
347, 359
242, 211
24, 50
8, 49
19, 45
8, 9
2, 1
7, 2
7, 4
20, 4
4, 6
7, 4
7, 4
4, 22
4, 15
6, 9
4, 5
3, 4
1, 4
8, 4
15, 4
20, 5
5, 4
5, 3
4, 1
0, 3
3, 5
1, 7
3, 12
2, 10
2, 1
6, 2
3, 3
9, 2
4, 2
0, 5
1, 1
0, 2
2, 5
3, 1
3, 5
1, 1
4, 0
2, 1
10, 1
1, 1
2, 1
4, 1
0, 1
0, 3
1, 1
4, 2
1, 7
1, 2
4, 1
0, 3
2, 1
0, 5
1, 2
2, 3
1, 1
2, 1
0, 1
1, 0
1, 1
1, 0
2, 0
1, 1
2, 0
1, 0
2, 1
1, 1
1, 1
0, 0
2, 0
0, 0
0, 0
1, 0
0, 4
1, 0
0, 1
1, 2
0, 0
1, 0
0, 0
1, 1
1, 1
0, 1
0, 1
1, 0
0, 0
0, 2
0, 0
0, 1
0, 0
0, 0
0, 0
0, 1
0, 0
0, 1
0, 0
0, 0
0, 0
1, 0
0, 1
0, 0
1, 1
0, 1
0, 1
0, 0
0, 0
1, 0
0, 2
0, 1
0, 0
0, 0
0, 0
0, 0
0, 0
0, 0
1, 0
0, 0
0, 0
0, 0
0, 0
0, 0
0, 0
0, 0
0, 0
0, 0
0, 0
0, 0
0, 0
0, 0
0, 0
0, 0
0, 0
0, 0
0, 0
0, 0
0, 0
0, 0
0, 0
0, 0
0, 0
0, 0
0, 0
0, 0
0, 0
0, 0
0, 0
0, 0
0, 0
1, 0
0, 0
0, 0
0, 0
0, 0
0, 0
0, 0
0, 0
0, 0
0, 0
0, 0
0, 0
0, 0
0, 0
0, 0
0, 0
0, 0
0, 0
0, 0
0, 0
0, 0
0, 0
0, 0
0, 0
0, 0
0, 0
0, 0
0, 0
0, 0
0, 0
0, 0
0, 0
0, 0
0, 0
0, 0
0, 0
0, 0
0, 0
0, 0
0, 0
0, 0
0, 0
0, 0
0, 0
0, 0
0, 0
0, 0
0, 0
0, 0
0, 0
0, 0
0, 0
0, 0
0, 0
0, 0
0, 0
0, 0
0, 0
0, 0
0, 0
0, 0
0, 0
0, 0
0, 0
0, 0
0, 0
0, 0
0, 0
0, 0
0, 0
0, 0
0, 0
0, 0
0, 0
0, 0
0, 0
0, 0
#ENDOFDATA     end of spectrum data