File: host_upload/06-09-2024/ps_0852/dump3/ps__0852shot_2093.msa
#FORMAT      : EMSA/MAS spectral data file
#VERSION     : TC202v2.0 PIXL
#TITLE       : N/A
#DATE        :       Date in the format DD-MMM-YYYY, for example 07-JUL-2010
#TIME        :             The time of day at which the spectrum was recorded, in 24-hour format
#OWNER       : PIXL Flight Model       (PIXL will use this to indicate which instrument took the data.)
#NPOINTS     : 4096     Number of data points in the spectrum (This can be zero for configuration only files)
#NCOLUMNS    : 2     Number of data columns in the spectrum (This can be zero for configuration only files)
#XUNITS      : eV
#YUNITS      : COUNTS
#DATATYPE    : YY
#XPERCHAN    : 7.862, 7.881   eV per channel (separate by commas if more than one detector)
#OFFSET      : 18.5, -22.4         eV of first channel  (separate by commas if more than one detector
#SIGNALTYPE  : XRF
#YP_TEMP     : 2.364
#LIVETIME    : 8.56238, 8.56128   seconds (separate by commas if more than one detector)
#REALTIME    : 10, 10.0   seconds (separate by commas if more than one detector)
#SPECTRUM    : start of spectrum data
0, 0
0, 0
0, 0
0, 0
0, 0
0, 0
0, 0
0, 0
0, 0
3, 2
3, 1
50, 55
68, 53
8, 2
3, 5
98, 83
453, 375
122, 83
2, 5
1, 0
1, 2
10, 7
8, 6
9, 7
49, 45
62, 46
25, 31
14, 12
9, 8
0, 0
3, 3
5, 0
10, 4
23, 12
22, 23
23, 11
25, 7
10, 12
10, 17
14, 14
12, 9
14, 26
25, 18
19, 12
14, 14
9, 7
6, 4
8, 3
12, 8
29, 26
22, 22
15, 6
10, 11
44, 33
69, 41
27, 26
33, 41
468, 582
2281, 2096
1711, 1254
205, 136
25, 12
43, 21
113, 116
323, 319
227, 175
30, 21
7, 9
23, 11
14, 13
6, 3
8, 4
9, 4
7, 8
11, 3
9, 4
5, 6
11, 8
7, 2
3, 5
4, 0
0, 0
1, 4
7, 3
4, 4
5, 6
5, 6
1, 2
3, 4
4, 5
2, 2
4, 0
3, 3
3, 3
3, 3
3, 3
2, 3
2, 1
0, 4
6, 3
4, 2
5, 0
5, 4
1, 1
4, 2
3, 0
5, 2
4, 2
0, 1
4, 2
0, 3
5, 0
0, 0
0, 3
1, 2
5, 2
7, 2
6, 6
2, 1
1, 1
3, 1
2, 4
0, 0
2, 2
2, 0
1, 2
1, 2
0, 0
3, 0
1, 1
1, 3
1, 1
1, 3
1, 1
0, 0
1, 1
1, 1
0, 1
0, 1
0, 0
1, 0
1, 0
0, 0
1, 1
2, 1
0, 0
3, 0
1, 1
0, 0
0, 0
0, 1
0, 1
1, 0
1, 0
0, 0
0, 0
0, 0
0, 0
0, 0
0, 0
0, 0
0, 0
2, 0
0, 1
1, 0
0, 1
0, 1
0, 0
2, 1
0, 0
0, 1
0, 1
0, 2
1, 0
0, 1
1, 0
0, 0
0, 0
0, 0
0, 0
0, 0
0, 0
0, 0
0, 0
0, 0
1, 0
0, 0
0, 0
0, 0
0, 0
0, 1
0, 0
0, 1
0, 0
0, 0
0, 0
1, 0
0, 0
0, 0
0, 0
0, 1
0, 0
0, 0
0, 0
0, 0
0, 0
0, 0
0, 0
0, 0
0, 0
0, 0
0, 0
0, 0
0, 0
0, 0
0, 0
0, 0
0, 0
0, 0
0, 0
0, 0
0, 0
0, 0
0, 0
0, 0
0, 0
0, 0
0, 0
0, 0
0, 0
0, 0
0, 0
0, 0
0, 0
0, 0
0, 0
0, 0
0, 0
0, 0
0, 0
0, 0
0, 0
0, 0
0, 0
0, 0
0, 0
0, 0
0, 0
0, 0
0, 0
0, 0
0, 0
0, 0
0, 0
0, 0
0, 0
0, 0
0, 0
0, 0
0, 0
0, 0
0, 0
0, 0
0, 0
0, 0
0, 0
0, 0
0, 0
0, 0
0, 0
0, 0
0, 0
0, 0
0, 0
0, 0
0, 0
0, 0
0, 0
0, 0
0, 0
0, 0
0, 0
0, 0
0, 0
0, 0
0, 0
0, 0
0, 0
0, 0
0, 0
0, 0
0, 0
0, 0
0, 0
#ENDOFDATA     end of spectrum data