File: host_upload/06-09-2024/ps_0852/dump3/ps__0852shot_2013.msa
#FORMAT      : EMSA/MAS spectral data file
#VERSION     : TC202v2.0 PIXL
#TITLE       : N/A
#DATE        :       Date in the format DD-MMM-YYYY, for example 07-JUL-2010
#TIME        :             The time of day at which the spectrum was recorded, in 24-hour format
#OWNER       : PIXL Flight Model       (PIXL will use this to indicate which instrument took the data.)
#NPOINTS     : 4096     Number of data points in the spectrum (This can be zero for configuration only files)
#NCOLUMNS    : 2     Number of data columns in the spectrum (This can be zero for configuration only files)
#XUNITS      : eV
#YUNITS      : COUNTS
#DATATYPE    : YY
#XPERCHAN    : 7.862, 7.881   eV per channel (separate by commas if more than one detector)
#OFFSET      : 18.5, -22.4         eV of first channel  (separate by commas if more than one detector
#SIGNALTYPE  : XRF
#YP_TEMP     : 2.364
#LIVETIME    : 8.56097, 8.55248   seconds (separate by commas if more than one detector)
#REALTIME    : 10, 10.0   seconds (separate by commas if more than one detector)
#SPECTRUM    : start of spectrum data
0, 0
0, 0
0, 0
0, 0
0, 0
0, 0
0, 0
0, 1
2, 0
2, 0
1, 4
60, 28
74, 49
7, 4
4, 3
109, 73
465, 288
121, 72
2, 4
3, 3
15, 17
101, 86
45, 37
13, 13
51, 40
68, 23
31, 27
11, 11
6, 5
3, 1
4, 2
2, 1
4, 4
16, 10
17, 12
8, 5
3, 2
4, 10
8, 18
4, 2
2, 5
7, 1
16, 15
12, 28
8, 12
14, 3
6, 5
13, 1
10, 7
16, 8
11, 8
7, 6
14, 14
42, 37
55, 40
15, 26
38, 46
521, 490
2354, 2002
1833, 1173
282, 146
185, 19
148, 24
140, 121
331, 320
250, 253
34, 52
8, 14
14, 6
4, 3
3, 6
7, 2
8, 1
5, 2
5, 6
5, 4
10, 4
7, 4
6, 3
3, 4
1, 4
3, 1
5, 4
2, 5
3, 10
1, 9
0, 10
3, 5
6, 6
21, 3
32, 1
16, 0
6, 2
3, 1
5, 3
2, 0
1, 6
2, 0
2, 2
2, 1
2, 1
5, 0
2, 3
2, 1
0, 3
3, 4
2, 1
0, 2
5, 6
2, 1
7, 2
3, 4
1, 2
1, 1
1, 2
5, 2
2, 4
6, 1
3, 3
4, 4
3, 2
1, 2
5, 3
2, 4
4, 2
4, 1
1, 1
2, 0
1, 1
0, 1
1, 1
4, 2
0, 2
3, 0
0, 0
0, 0
1, 2
0, 1
0, 1
0, 1
0, 0
1, 2
1, 0
0, 1
1, 1
1, 0
1, 3
1, 0
1, 0
0, 0
2, 0
0, 0
1, 2
0, 0
1, 0
2, 1
1, 0
0, 0
0, 2
0, 0
0, 0
1, 0
1, 0
1, 0
0, 0
1, 1
0, 0
0, 0
1, 0
1, 0
0, 0
0, 0
1, 1
0, 0
0, 0
0, 0
0, 0
0, 0
0, 0
0, 0
0, 0
0, 0
0, 0
0, 0
0, 0
1, 0
1, 0
0, 0
0, 0
0, 0
0, 0
1, 0
0, 0
0, 0
0, 0
0, 0
0, 0
0, 0
0, 0
0, 0
0, 0
0, 0
0, 0
0, 0
1, 0
0, 0
0, 0
0, 0
0, 0
0, 0
0, 0
0, 0
0, 0
0, 0
0, 0
0, 0
0, 0
0, 0
0, 0
0, 0
0, 0
0, 0
0, 0
0, 0
0, 0
0, 0
0, 0
0, 0
0, 0
0, 0
0, 0
0, 0
0, 0
0, 0
0, 0
0, 0
0, 0
0, 0
0, 0
0, 0
0, 0
0, 0
0, 0
0, 0
0, 0
0, 0
0, 0
0, 0
0, 0
0, 0
0, 0
0, 0
0, 0
0, 0
0, 0
0, 0
0, 0
0, 0
0, 0
0, 0
0, 0
0, 0
0, 0
0, 0
0, 0
0, 0
0, 0
0, 0
0, 0
0, 0
0, 0
0, 0
0, 0
0, 0
0, 0
0, 0
0, 0
0, 0
0, 0
0, 0
0, 0
0, 0
0, 0
0, 0
0, 0
0, 0
0, 0
0, 0
0, 0
0, 0
0, 0
0, 0
0, 0
0, 0
#ENDOFDATA     end of spectrum data