File: host_upload/06-09-2024/ps_0852/dump3/ps__0852shot_2197.msa
#FORMAT      : EMSA/MAS spectral data file
#VERSION     : TC202v2.0 PIXL
#TITLE       : N/A
#DATE        :       Date in the format DD-MMM-YYYY, for example 07-JUL-2010
#TIME        :             The time of day at which the spectrum was recorded, in 24-hour format
#OWNER       : PIXL Flight Model       (PIXL will use this to indicate which instrument took the data.)
#NPOINTS     : 4096     Number of data points in the spectrum (This can be zero for configuration only files)
#NCOLUMNS    : 2     Number of data columns in the spectrum (This can be zero for configuration only files)
#XUNITS      : eV
#YUNITS      : COUNTS
#DATATYPE    : YY
#XPERCHAN    : 7.862, 7.881   eV per channel (separate by commas if more than one detector)
#OFFSET      : 18.5, -22.4         eV of first channel  (separate by commas if more than one detector
#SIGNALTYPE  : XRF
#YP_TEMP     : 2.3
#LIVETIME    : 8.57631, 8.56617   seconds (separate by commas if more than one detector)
#REALTIME    : 10, 10.0   seconds (separate by commas if more than one detector)
#SPECTRUM    : start of spectrum data
0, 0
0, 0
0, 0
0, 0
0, 0
0, 0
0, 0
0, 1
3, 2
1, 2
3, 4
40, 35
60, 47
4, 3
6, 4
85, 92
456, 379
120, 75
6, 3
3, 2
3, 1
7, 9
8, 2
13, 10
51, 57
42, 69
29, 35
13, 19
7, 4
2, 0
1, 1
20, 3
32, 2
30, 4
23, 17
4, 7
3, 8
3, 5
8, 8
4, 4
5, 3
10, 10
14, 13
11, 9
5, 4
8, 2
6, 5
7, 7
6, 14
30, 26
21, 51
23, 21
24, 13
45, 32
63, 44
22, 23
33, 31
467, 583
2301, 2150
1701, 1243
196, 185
29, 46
112, 19
279, 120
439, 329
235, 190
36, 19
5, 11
17, 4
6, 4
5, 5
5, 3
13, 5
12, 8
4, 7
8, 3
5, 2
2, 1
4, 10
7, 3
4, 2
3, 4
5, 3
4, 6
4, 4
9, 3
5, 5
3, 1
4, 3
2, 2
8, 3
3, 2
1, 6
8, 3
7, 5
9, 7
6, 2
6, 2
2, 3
4, 4
0, 3
2, 2
5, 2
6, 3
3, 2
2, 0
5, 4
1, 5
2, 2
2, 2
0, 1
3, 2
1, 3
0, 3
8, 1
3, 9
4, 3
4, 2
1, 3
2, 3
1, 3
3, 2
2, 0
3, 2
1, 1
0, 0
2, 0
2, 3
0, 2
0, 0
2, 0
2, 1
0, 0
2, 0
0, 1
2, 2
3, 0
0, 0
0, 0
0, 0
0, 0
0, 1
0, 0
1, 0
1, 0
1, 2
1, 0
1, 0
0, 0
1, 0
0, 0
0, 0
1, 0
0, 1
1, 0
1, 1
1, 1
2, 1
0, 0
1, 0
0, 0
0, 0
0, 0
1, 0
0, 0
0, 0
0, 0
0, 1
0, 0
1, 0
0, 1
0, 0
1, 1
0, 0
0, 0
0, 0
0, 0
0, 0
0, 0
0, 0
0, 0
0, 0
0, 0
0, 0
0, 1
0, 0
0, 0
0, 1
0, 0
0, 0
0, 0
0, 0
0, 0
0, 0
0, 0
0, 0
0, 0
0, 0
0, 1
0, 0
0, 0
0, 0
0, 0
0, 0
0, 0
0, 0
0, 0
0, 0
0, 0
0, 0
0, 0
0, 0
0, 0
0, 0
0, 0
0, 0
0, 0
0, 0
0, 0
0, 0
0, 0
0, 0
0, 0
0, 0
0, 0
0, 0
0, 0
0, 0
0, 0
0, 0
0, 0
0, 0
0, 0
0, 0
0, 0
0, 0
0, 0
0, 0
0, 0
0, 0
0, 0
0, 0
0, 0
0, 0
0, 0
0, 0
0, 0
0, 0
0, 0
0, 0
0, 0
0, 0
0, 0
0, 0
0, 0
0, 0
0, 0
0, 0
0, 0
0, 0
0, 0
0, 0
0, 0
0, 0
0, 0
0, 0
0, 0
0, 0
0, 0
0, 0
0, 0
0, 0
0, 0
0, 0
0, 0
0, 0
0, 0
0, 0
0, 0
0, 0
0, 0
0, 0
0, 0
0, 0
0, 0
0, 0
0, 0
0, 0
0, 0
0, 0
0, 0
0, 0
0, 0
0, 0
#ENDOFDATA     end of spectrum data