File: host_upload/06-09-2024/ps_0852/dump3/ps__0852shot_2048.msa
#FORMAT      : EMSA/MAS spectral data file
#VERSION     : TC202v2.0 PIXL
#TITLE       : N/A
#DATE        :       Date in the format DD-MMM-YYYY, for example 07-JUL-2010
#TIME        :             The time of day at which the spectrum was recorded, in 24-hour format
#OWNER       : PIXL Flight Model       (PIXL will use this to indicate which instrument took the data.)
#NPOINTS     : 4096     Number of data points in the spectrum (This can be zero for configuration only files)
#NCOLUMNS    : 2     Number of data columns in the spectrum (This can be zero for configuration only files)
#XUNITS      : eV
#YUNITS      : COUNTS
#DATATYPE    : YY
#XPERCHAN    : 7.862, 7.881   eV per channel (separate by commas if more than one detector)
#OFFSET      : 18.5, -22.4         eV of first channel  (separate by commas if more than one detector
#SIGNALTYPE  : XRF
#YP_TEMP     : 2.332
#LIVETIME    : 8.54567, 8.56901   seconds (separate by commas if more than one detector)
#REALTIME    : 10, 10.0   seconds (separate by commas if more than one detector)
#SPECTRUM    : start of spectrum data
0, 0
0, 0
0, 0
0, 0
0, 0
0, 0
0, 0
0, 0
0, 1
0, 1
3, 2
65, 51
84, 56
7, 5
1, 5
102, 93
448, 427
102, 102
7, 2
1, 1
1, 0
3, 4
2, 14
5, 10
15, 23
20, 21
22, 23
9, 11
5, 3
1, 3
0, 2
3, 0
2, 2
7, 14
19, 12
9, 5
4, 7
11, 11
16, 2
14, 3
9, 2
9, 5
11, 7
15, 13
6, 26
6, 20
2, 5
4, 7
21, 9
48, 14
31, 11
5, 9
19, 21
37, 56
48, 51
22, 25
38, 34
491, 600
2251, 2316
1678, 1373
192, 150
11, 20
19, 18
107, 117
307, 333
228, 226
44, 115
6, 88
16, 33
6, 5
9, 6
2, 2
5, 1
3, 12
8, 21
9, 34
5, 6
11, 4
6, 4
5, 2
5, 8
4, 6
4, 7
1, 5
3, 4
5, 2
16, 2
6, 3
3, 6
2, 5
3, 7
0, 1
0, 1
3, 3
4, 2
7, 5
8, 3
8, 2
4, 2
2, 3
0, 2
1, 4
1, 5
2, 4
3, 2
1, 2
3, 4
3, 1
1, 3
1, 1
2, 2
1, 0
0, 1
3, 4
4, 3
5, 3
5, 3
5, 2
3, 2
2, 4
1, 0
0, 1
0, 5
1, 1
1, 4
0, 1
1, 0
1, 3
0, 1
1, 4
1, 1
0, 1
0, 1
0, 0
2, 0
0, 1
0, 0
0, 2
1, 4
0, 2
1, 2
1, 1
1, 1
1, 0
0, 0
1, 0
0, 0
0, 0
1, 1
0, 1
1, 0
1, 0
0, 1
0, 0
2, 0
1, 0
0, 2
0, 1
0, 0
0, 0
0, 0
1, 0
0, 0
0, 1
0, 1
0, 1
0, 0
1, 0
0, 1
0, 0
0, 0
0, 1
0, 0
0, 0
0, 0
0, 0
0, 0
1, 0
0, 0
0, 0
0, 0
0, 0
0, 0
0, 0
0, 0
0, 0
0, 0
0, 0
0, 0
0, 0
0, 0
0, 0
0, 0
0, 0
0, 0
0, 0
0, 0
0, 0
0, 0
0, 0
0, 0
0, 0
0, 0
0, 0
0, 0
0, 0
0, 0
0, 0
0, 0
0, 0
0, 0
0, 0
0, 0
0, 0
0, 1
0, 0
1, 0
0, 0
0, 0
0, 0
0, 0
0, 0
0, 0
0, 0
0, 0
0, 0
0, 0
0, 0
0, 0
0, 0
0, 0
0, 0
0, 0
0, 0
0, 0
0, 0
0, 0
0, 0
0, 0
0, 0
0, 0
0, 0
0, 0
0, 0
0, 0
0, 0
0, 0
0, 0
0, 0
0, 0
0, 0
0, 0
0, 0
0, 0
0, 0
0, 0
0, 0
0, 0
0, 0
0, 0
0, 0
0, 0
0, 0
0, 0
0, 0
0, 0
0, 0
0, 0
0, 0
0, 0
0, 0
0, 0
0, 0
0, 0
0, 0
0, 0
0, 0
0, 0
0, 0
0, 0
0, 0
0, 0
0, 0
0, 0
0, 0
0, 0
0, 0
0, 0
0, 0
0, 0
0, 0
0, 0
0, 0
0, 0
#ENDOFDATA     end of spectrum data