File: host_upload/06-09-2024/ps_0852/dump3/ps__0852shot_2299.msa
#FORMAT      : EMSA/MAS spectral data file
#VERSION     : TC202v2.0 PIXL
#TITLE       : N/A
#DATE        :       Date in the format DD-MMM-YYYY, for example 07-JUL-2010
#TIME        :             The time of day at which the spectrum was recorded, in 24-hour format
#OWNER       : PIXL Flight Model       (PIXL will use this to indicate which instrument took the data.)
#NPOINTS     : 4096     Number of data points in the spectrum (This can be zero for configuration only files)
#NCOLUMNS    : 2     Number of data columns in the spectrum (This can be zero for configuration only files)
#XUNITS      : eV
#YUNITS      : COUNTS
#DATATYPE    : YY
#XPERCHAN    : 7.862, 7.881   eV per channel (separate by commas if more than one detector)
#OFFSET      : 18.5, -22.4         eV of first channel  (separate by commas if more than one detector
#SIGNALTYPE  : XRF
#YP_TEMP     : 2.364
#LIVETIME    : 8.53765, 8.56208   seconds (separate by commas if more than one detector)
#REALTIME    : 10, 10.0   seconds (separate by commas if more than one detector)
#SPECTRUM    : start of spectrum data
0, 0
0, 0
0, 0
0, 0
0, 0
0, 0
0, 1
0, 0
0, 2
1, 1
2, 3
51, 33
68, 44
4, 5
6, 2
89, 92
479, 352
123, 80
6, 3
0, 3
2, 2
17, 11
14, 11
16, 10
44, 28
46, 34
37, 19
14, 14
3, 11
0, 2
2, 8
2, 6
7, 4
69, 49
122, 64
30, 16
15, 15
29, 6
30, 7
20, 3
11, 5
18, 17
26, 7
17, 10
8, 5
5, 6
7, 8
5, 7
15, 12
17, 16
25, 19
31, 4
16, 13
46, 42
85, 53
26, 44
36, 30
519, 487
2179, 1857
1633, 1131
187, 125
12, 23
28, 20
97, 105
331, 308
227, 149
32, 19
9, 19
16, 13
14, 5
7, 2
2, 1
8, 3
7, 7
6, 11
16, 9
13, 6
5, 2
5, 4
4, 4
7, 2
1, 5
2, 3
7, 3
5, 4
5, 2
6, 3
6, 3
6, 5
6, 3
1, 2
3, 2
3, 2
4, 6
1, 3
7, 4
2, 6
5, 4
6, 1
1, 1
5, 3
3, 0
0, 5
2, 1
3, 2
2, 1
2, 0
1, 1
2, 1
4, 0
1, 0
0, 0
3, 2
6, 2
2, 5
4, 1
3, 2
4, 2
0, 3
0, 0
0, 3
3, 1
1, 3
2, 1
1, 3
0, 1
3, 1
0, 0
0, 0
2, 2
0, 2
0, 1
0, 1
1, 2
0, 1
2, 0
1, 1
1, 0
0, 1
0, 1
0, 0
1, 0
0, 1
1, 1
1, 0
0, 1
0, 0
0, 1
0, 0
1, 0
1, 0
0, 0
0, 0
2, 0
0, 0
1, 2
0, 1
0, 0
0, 0
1, 0
0, 0
2, 0
0, 0
0, 1
0, 0
0, 0
2, 0
0, 0
0, 0
0, 0
0, 0
1, 1
0, 0
0, 0
0, 0
0, 0
0, 0
0, 0
0, 1
0, 0
0, 0
0, 0
0, 1
0, 0
0, 2
0, 0
0, 0
0, 1
0, 0
0, 0
0, 0
0, 0
0, 0
0, 0
0, 0
0, 0
0, 0
0, 0
0, 0
0, 0
0, 0
0, 0
0, 0
0, 0
0, 0
0, 0
0, 0
0, 0
0, 0
0, 0
0, 0
0, 0
0, 0
0, 0
0, 0
0, 0
0, 0
0, 0
0, 0
0, 0
0, 0
0, 0
0, 0
0, 0
0, 0
0, 0
0, 0
0, 0
0, 0
0, 0
0, 0
0, 0
0, 0
0, 0
0, 0
0, 0
0, 0
0, 0
0, 0
0, 0
0, 0
0, 0
0, 0
0, 0
0, 0
0, 0
0, 0
0, 0
0, 0
0, 0
0, 0
0, 0
0, 0
0, 0
0, 0
0, 0
0, 0
0, 0
0, 0
0, 0
0, 0
0, 0
0, 0
0, 0
0, 0
0, 0
0, 0
0, 0
0, 0
0, 0
0, 0
0, 0
0, 0
0, 0
0, 0
0, 0
0, 0
0, 0
0, 0
0, 0
0, 0
0, 0
0, 0
0, 0
0, 0
0, 0
0, 0
0, 0
0, 0
0, 0
0, 0
0, 0
0, 0
0, 0
#ENDOFDATA     end of spectrum data