File: host_upload/06-09-2024/ps_0852/dump3/ps__0852shot_2360.msa
#FORMAT      : EMSA/MAS spectral data file
#VERSION     : TC202v2.0 PIXL
#TITLE       : N/A
#DATE        :       Date in the format DD-MMM-YYYY, for example 07-JUL-2010
#TIME        :             The time of day at which the spectrum was recorded, in 24-hour format
#OWNER       : PIXL Flight Model       (PIXL will use this to indicate which instrument took the data.)
#NPOINTS     : 4096     Number of data points in the spectrum (This can be zero for configuration only files)
#NCOLUMNS    : 2     Number of data columns in the spectrum (This can be zero for configuration only files)
#XUNITS      : eV
#YUNITS      : COUNTS
#DATATYPE    : YY
#XPERCHAN    : 7.862, 7.881   eV per channel (separate by commas if more than one detector)
#OFFSET      : 18.5, -22.4         eV of first channel  (separate by commas if more than one detector
#SIGNALTYPE  : XRF
#YP_TEMP     : 2.332
#LIVETIME    : 8.55716, 8.54958   seconds (separate by commas if more than one detector)
#REALTIME    : 10, 10.0   seconds (separate by commas if more than one detector)
#SPECTRUM    : start of spectrum data
0, 0
0, 0
0, 0
0, 0
0, 0
0, 0
0, 0
0, 2
0, 6
0, 16
1, 3
41, 45
59, 68
12, 6
5, 1
92, 107
457, 409
100, 100
3, 7
2, 2
2, 2
3, 7
6, 5
4, 35
41, 642
44, 862
25, 94
18, 13
8, 6
7, 1
12, 4
1, 1
2, 2
25, 16
25, 24
7, 12
3, 20
2, 15
10, 11
13, 3
13, 9
9, 17
17, 15
63, 13
148, 5
81, 6
8, 7
8, 5
8, 5
19, 10
13, 15
6, 7
9, 14
40, 38
57, 69
27, 24
38, 50
445, 558
2165, 2336
1560, 1390
216, 165
17, 16
33, 38
108, 146
346, 359
220, 205
25, 20
8, 6
14, 8
5, 4
3, 4
6, 9
17, 15
39, 4
33, 7
11, 13
5, 10
6, 2
2, 4
5, 5
3, 1
6, 9
3, 6
2, 5
2, 14
10, 6
6, 3
5, 2
7, 0
8, 3
4, 1
2, 2
5, 3
3, 6
7, 8
19, 9
7, 7
3, 1
4, 3
1, 5
3, 3
1, 4
2, 2
4, 2
2, 3
2, 4
1, 2
2, 5
1, 0
3, 0
2, 4
2, 1
1, 2
0, 2
0, 1
1, 1
2, 6
1, 1
3, 1
2, 2
2, 2
1, 4
0, 2
2, 1
1, 1
0, 0
2, 1
0, 0
1, 2
3, 1
2, 0
0, 2
1, 0
1, 1
1, 1
1, 2
0, 0
0, 0
1, 2
1, 1
1, 1
1, 1
1, 2
1, 1
3, 1
0, 0
2, 0
0, 2
0, 0
0, 0
0, 0
0, 0
1, 1
1, 1
2, 0
0, 0
1, 0
0, 0
2, 0
0, 0
0, 0
0, 0
0, 0
0, 0
0, 0
0, 0
1, 1
0, 0
0, 0
1, 0
0, 1
0, 2
1, 0
0, 0
0, 1
0, 0
0, 0
0, 2
0, 0
0, 0
0, 0
0, 1
0, 1
0, 0
0, 0
0, 0
0, 0
0, 0
1, 0
0, 0
0, 0
0, 0
0, 0
1, 0
0, 1
0, 0
0, 0
0, 0
0, 0
0, 0
0, 0
0, 0
0, 0
0, 0
0, 0
0, 0
0, 1
0, 0
0, 0
0, 0
0, 0
0, 0
0, 0
0, 0
0, 0
0, 0
0, 0
0, 0
0, 0
0, 0
0, 0
0, 0
0, 0
0, 0
0, 0
0, 0
0, 0
0, 0
0, 0
0, 0
0, 0
0, 0
0, 0
0, 0
0, 0
0, 0
0, 0
0, 0
0, 0
0, 0
0, 0
0, 0
0, 0
0, 0
0, 0
0, 0
0, 0
0, 0
0, 0
0, 0
0, 0
0, 0
0, 0
0, 0
0, 0
0, 0
0, 0
0, 0
0, 0
0, 0
0, 0
0, 0
0, 0
0, 0
0, 0
0, 0
0, 0
0, 0
0, 0
0, 0
0, 0
0, 0
0, 0
0, 0
0, 0
0, 0
0, 0
0, 0
0, 0
0, 0
0, 0
0, 0
0, 0
0, 0
0, 0
0, 0
0, 0
0, 0
0, 0
0, 0
0, 0
0, 0
0, 0
0, 0
#ENDOFDATA     end of spectrum data