File: host_upload/06-09-2024/ps_0852/dump3/ps__0852shot_2264.msa
#FORMAT      : EMSA/MAS spectral data file
#VERSION     : TC202v2.0 PIXL
#TITLE       : N/A
#DATE        :       Date in the format DD-MMM-YYYY, for example 07-JUL-2010
#TIME        :             The time of day at which the spectrum was recorded, in 24-hour format
#OWNER       : PIXL Flight Model       (PIXL will use this to indicate which instrument took the data.)
#NPOINTS     : 4096     Number of data points in the spectrum (This can be zero for configuration only files)
#NCOLUMNS    : 2     Number of data columns in the spectrum (This can be zero for configuration only files)
#XUNITS      : eV
#YUNITS      : COUNTS
#DATATYPE    : YY
#XPERCHAN    : 7.862, 7.881   eV per channel (separate by commas if more than one detector)
#OFFSET      : 18.5, -22.4         eV of first channel  (separate by commas if more than one detector
#SIGNALTYPE  : XRF
#YP_TEMP     : 2.171
#LIVETIME    : 8.55155, 8.58748   seconds (separate by commas if more than one detector)
#REALTIME    : 10, 10.0   seconds (separate by commas if more than one detector)
#SPECTRUM    : start of spectrum data
0, 0
0, 0
0, 0
0, 0
0, 0
0, 0
0, 0
0, 0
1, 2
2, 15
6, 4
32, 52
64, 56
9, 7
8, 6
101, 102
428, 435
100, 117
8, 8
1, 2
2, 4
3, 2
1, 1
12, 45
67, 591
75, 938
23, 117
15, 13
9, 4
2, 4
1, 2
0, 2
4, 1
7, 9
7, 8
5, 6
9, 44
22, 40
14, 2
3, 2
3, 7
6, 12
13, 14
9, 37
5, 29
5, 6
8, 5
2, 2
3, 12
11, 16
20, 13
17, 5
12, 4
38, 50
46, 60
23, 27
29, 42
438, 597
2016, 2403
1519, 1505
223, 186
28, 43
35, 42
87, 144
337, 372
209, 232
30, 26
3, 12
9, 12
13, 3
7, 7
6, 5
5, 4
18, 8
20, 4
19, 4
17, 6
7, 7
7, 4
5, 5
4, 3
2, 3
3, 5
4, 4
6, 5
6, 3
3, 4
3, 2
0, 2
6, 4
4, 2
4, 3
1, 5
2, 6
3, 2
2, 0
4, 2
2, 5
1, 11
6, 7
0, 6
2, 2
0, 5
2, 1
1, 1
0, 4
0, 2
4, 3
1, 5
0, 7
3, 3
2, 5
0, 4
2, 1
2, 2
3, 3
4, 4
5, 3
1, 1
3, 1
0, 1
1, 3
1, 2
0, 6
1, 1
1, 3
0, 0
0, 2
2, 0
1, 3
1, 1
0, 0
2, 5
3, 1
0, 1
0, 1
1, 1
0, 0
1, 0
0, 1
0, 0
0, 1
1, 0
1, 1
1, 0
0, 0
0, 1
1, 0
1, 0
0, 0
0, 0
1, 0
0, 1
0, 1
1, 0
0, 0
0, 0
0, 1
0, 1
0, 0
0, 1
0, 0
0, 1
1, 0
1, 0
2, 1
0, 1
0, 0
0, 1
0, 1
0, 0
1, 0
0, 0
0, 0
0, 0
0, 0
0, 0
0, 0
0, 0
0, 0
1, 0
0, 0
0, 0
0, 0
0, 2
0, 0
0, 0
0, 0
0, 0
0, 0
0, 0
0, 0
0, 0
0, 0
0, 0
0, 0
0, 1
0, 0
0, 0
0, 0
0, 0
0, 0
0, 0
0, 0
0, 0
0, 0
0, 0
0, 0
0, 0
0, 0
0, 0
0, 0
0, 0
0, 0
0, 0
0, 0
0, 0
0, 0
0, 0
0, 0
0, 0
0, 0
0, 0
0, 0
0, 0
0, 0
0, 0
0, 0
0, 0
0, 0
0, 0
0, 0
0, 0
0, 0
0, 0
0, 0
0, 0
0, 0
0, 0
0, 0
0, 0
0, 0
0, 0
0, 0
0, 0
0, 0
0, 0
0, 0
0, 0
0, 0
0, 0
0, 0
0, 0
0, 0
0, 0
0, 0
0, 0
0, 0
0, 0
0, 0
0, 0
0, 0
0, 0
0, 0
0, 0
0, 0
0, 0
0, 0
0, 0
0, 0
0, 0
0, 0
0, 0
0, 0
0, 0
0, 0
0, 0
0, 0
0, 0
0, 0
0, 0
0, 0
0, 0
0, 0
0, 0
0, 0
0, 0
0, 0
0, 0
0, 0
0, 0
0, 0
0, 0
0, 0
#ENDOFDATA     end of spectrum data