File: host_upload/06-09-2024/ps_0852/dump3/ps__0852shot_2052.msa
#FORMAT      : EMSA/MAS spectral data file
#VERSION     : TC202v2.0 PIXL
#TITLE       : N/A
#DATE        :       Date in the format DD-MMM-YYYY, for example 07-JUL-2010
#TIME        :             The time of day at which the spectrum was recorded, in 24-hour format
#OWNER       : PIXL Flight Model       (PIXL will use this to indicate which instrument took the data.)
#NPOINTS     : 4096     Number of data points in the spectrum (This can be zero for configuration only files)
#NCOLUMNS    : 2     Number of data columns in the spectrum (This can be zero for configuration only files)
#XUNITS      : eV
#YUNITS      : COUNTS
#DATATYPE    : YY
#XPERCHAN    : 7.862, 7.881   eV per channel (separate by commas if more than one detector)
#OFFSET      : 18.5, -22.4         eV of first channel  (separate by commas if more than one detector
#SIGNALTYPE  : XRF
#YP_TEMP     : 2.203
#LIVETIME    : 8.53929, 8.52727   seconds (separate by commas if more than one detector)
#REALTIME    : 10, 10.0   seconds (separate by commas if more than one detector)
#SPECTRUM    : start of spectrum data
0, 0
0, 0
0, 0
0, 0
0, 0
0, 0
0, 0
0, 1
0, 0
1, 9
3, 7
59, 46
60, 53
6, 12
3, 3
109, 85
422, 445
110, 86
4, 5
1, 0
0, 3
1, 4
4, 2
5, 10
23, 176
23, 205
22, 41
11, 13
1, 5
6, 0
5, 1
2, 2
3, 4
15, 9
8, 6
5, 3
7, 4
4, 6
4, 11
6, 6
4, 2
6, 17
19, 21
28, 7
37, 3
25, 6
13, 7
7, 6
6, 17
16, 44
12, 14
7, 7
12, 8
35, 40
68, 44
23, 21
32, 33
508, 550
2300, 2160
1705, 1341
207, 153
19, 14
17, 23
106, 120
313, 326
255, 203
39, 16
8, 6
9, 12
8, 9
4, 4
3, 4
10, 9
9, 15
6, 10
2, 5
2, 6
3, 5
3, 3
4, 10
7, 5
15, 3
9, 1
5, 3
6, 8
4, 5
3, 2
5, 5
3, 4
2, 2
1, 5
4, 8
5, 3
5, 1
5, 4
7, 3
2, 2
2, 2
3, 3
2, 1
2, 3
3, 1
1, 3
6, 3
1, 1
3, 3
0, 3
1, 3
0, 2
2, 0
0, 1
1, 0
1, 3
1, 2
2, 1
3, 1
2, 2
1, 2
2, 2
2, 0
6, 2
2, 1
1, 0
1, 1
0, 1
0, 2
3, 2
1, 0
0, 1
2, 0
2, 2
0, 1
1, 1
1, 0
1, 0
1, 0
0, 1
0, 0
2, 0
1, 0
1, 0
0, 1
2, 0
1, 0
0, 0
2, 0
0, 1
3, 0
0, 0
0, 0
0, 0
0, 0
0, 1
2, 1
0, 0
0, 0
0, 1
0, 0
0, 0
0, 0
0, 1
0, 2
0, 0
1, 0
0, 0
0, 0
0, 0
0, 1
1, 0
0, 0
0, 1
0, 0
0, 0
1, 0
0, 0
0, 0
0, 0
0, 0
0, 1
0, 0
0, 0
0, 0
0, 0
0, 1
0, 1
1, 1
1, 0
0, 0
0, 0
0, 0
0, 0
0, 1
0, 0
0, 0
0, 0
0, 0
1, 0
0, 0
0, 0
0, 0
0, 0
0, 0
0, 0
0, 0
0, 0
0, 0
0, 0
0, 0
0, 0
0, 0
0, 0
0, 0
0, 0
0, 0
1, 0
0, 0
0, 0
0, 0
0, 0
0, 0
0, 0
0, 0
0, 0
0, 0
0, 0
0, 0
0, 0
0, 0
0, 0
0, 0
0, 0
0, 0
0, 0
0, 0
0, 0
0, 0
0, 0
0, 0
0, 0
0, 0
0, 0
0, 0
0, 0
0, 0
0, 0
0, 0
0, 0
0, 0
0, 0
0, 0
0, 0
0, 0
0, 0
0, 0
0, 0
0, 0
0, 0
0, 0
0, 0
0, 0
0, 0
0, 0
0, 0
0, 0
0, 0
0, 0
0, 0
0, 0
0, 0
0, 0
0, 0
0, 0
0, 0
0, 0
0, 0
0, 0
0, 0
0, 0
0, 0
0, 0
0, 0
0, 0
0, 0
0, 0
0, 0
0, 0
0, 0
0, 0
0, 0
0, 0
0, 0
0, 0
0, 0
0, 0
#ENDOFDATA     end of spectrum data