File: host_upload/06-09-2024/ps_0852/dump3/ps__0852shot_2024.msa
#FORMAT      : EMSA/MAS spectral data file
#VERSION     : TC202v2.0 PIXL
#TITLE       : N/A
#DATE        :       Date in the format DD-MMM-YYYY, for example 07-JUL-2010
#TIME        :             The time of day at which the spectrum was recorded, in 24-hour format
#OWNER       : PIXL Flight Model       (PIXL will use this to indicate which instrument took the data.)
#NPOINTS     : 4096     Number of data points in the spectrum (This can be zero for configuration only files)
#NCOLUMNS    : 2     Number of data columns in the spectrum (This can be zero for configuration only files)
#XUNITS      : eV
#YUNITS      : COUNTS
#DATATYPE    : YY
#XPERCHAN    : 7.862, 7.881   eV per channel (separate by commas if more than one detector)
#OFFSET      : 18.5, -22.4         eV of first channel  (separate by commas if more than one detector
#SIGNALTYPE  : XRF
#YP_TEMP     : 2.396
#LIVETIME    : 8.54822, 8.5754   seconds (separate by commas if more than one detector)
#REALTIME    : 10, 10.0   seconds (separate by commas if more than one detector)
#SPECTRUM    : start of spectrum data
0, 0
0, 0
0, 0
0, 0
0, 0
0, 0
0, 0
0, 0
2, 2
0, 0
1, 2
32, 53
41, 77
4, 8
2, 4
71, 124
318, 464
86, 127
3, 10
1, 4
1, 1
1, 3
2, 1
3, 4
19, 37
20, 35
20, 26
13, 14
4, 4
1, 3
0, 0
3, 2
3, 5
6, 28
7, 25
5, 4
5, 6
7, 5
6, 3
3, 5
4, 3
3, 6
11, 15
12, 14
5, 4
4, 8
2, 10
6, 5
4, 10
6, 18
11, 20
6, 8
10, 18
37, 46
51, 76
24, 42
22, 61
378, 701
1567, 2582
1143, 1494
143, 203
9, 17
14, 24
78, 135
241, 435
157, 219
19, 20
3, 14
17, 19
4, 7
5, 5
3, 6
0, 4
8, 6
12, 11
12, 8
10, 8
7, 6
5, 19
7, 15
1, 17
5, 11
2, 7
2, 0
1, 2
5, 7
2, 2
1, 4
0, 3
3, 5
3, 3
4, 2
2, 3
2, 5
3, 6
4, 2
3, 4
3, 3
0, 3
3, 4
1, 3
4, 3
1, 7
0, 5
2, 5
1, 3
2, 1
4, 1
1, 1
1, 0
2, 0
3, 3
1, 1
3, 1
0, 1
2, 1
2, 3
4, 2
3, 3
1, 1
1, 1
1, 0
2, 0
1, 0
0, 1
1, 0
0, 0
0, 2
0, 0
1, 1
0, 0
0, 1
2, 0
1, 1
0, 1
1, 1
1, 0
1, 0
0, 0
1, 1
1, 0
1, 0
1, 2
0, 1
1, 1
0, 1
0, 0
0, 2
0, 0
0, 0
0, 0
0, 2
0, 0
0, 0
0, 0
0, 1
0, 0
0, 0
0, 0
0, 0
0, 0
0, 1
0, 1
1, 0
0, 0
0, 0
0, 0
0, 0
0, 0
0, 1
1, 0
0, 1
0, 0
0, 0
0, 0
0, 0
0, 1
0, 0
0, 0
0, 1
0, 0
0, 0
0, 0
0, 0
0, 0
0, 0
0, 0
1, 0
0, 0
0, 0
0, 0
0, 0
0, 0
0, 0
0, 0
0, 0
0, 0
0, 0
0, 0
0, 0
0, 0
0, 0
0, 0
0, 0
0, 0
0, 1
0, 0
0, 0
0, 0
0, 0
0, 0
0, 0
0, 0
0, 0
0, 0
0, 0
0, 0
0, 0
0, 0
0, 0
0, 0
0, 0
0, 0
0, 0
0, 0
0, 0
0, 0
0, 0
0, 0
0, 0
0, 0
0, 0
0, 0
0, 0
0, 0
0, 0
0, 0
0, 0
0, 0
0, 0
0, 0
0, 0
0, 0
0, 0
0, 0
0, 0
0, 0
0, 0
0, 0
0, 0
0, 0
0, 0
0, 0
0, 0
0, 0
0, 0
0, 0
0, 0
0, 0
0, 0
0, 0
0, 0
0, 0
0, 0
0, 0
0, 0
0, 0
0, 0
0, 0
0, 0
0, 0
0, 0
0, 0
0, 0
0, 0
0, 0
0, 0
0, 0
0, 0
0, 0
0, 0
0, 0
0, 0
0, 0
0, 0
0, 0
0, 0
0, 0
0, 0
0, 0
0, 0
0, 0
0, 0
0, 0
#ENDOFDATA     end of spectrum data