File: host_upload/06-09-2024/ps_0852/dump3/ps__0852shot_2272.msa
#FORMAT      : EMSA/MAS spectral data file
#VERSION     : TC202v2.0 PIXL
#TITLE       : N/A
#DATE        :       Date in the format DD-MMM-YYYY, for example 07-JUL-2010
#TIME        :             The time of day at which the spectrum was recorded, in 24-hour format
#OWNER       : PIXL Flight Model       (PIXL will use this to indicate which instrument took the data.)
#NPOINTS     : 4096     Number of data points in the spectrum (This can be zero for configuration only files)
#NCOLUMNS    : 2     Number of data columns in the spectrum (This can be zero for configuration only files)
#XUNITS      : eV
#YUNITS      : COUNTS
#DATATYPE    : YY
#XPERCHAN    : 7.862, 7.881   eV per channel (separate by commas if more than one detector)
#OFFSET      : 18.5, -22.4         eV of first channel  (separate by commas if more than one detector
#SIGNALTYPE  : XRF
#YP_TEMP     : 2.235
#LIVETIME    : 8.56283, 8.56698   seconds (separate by commas if more than one detector)
#REALTIME    : 10, 10.0   seconds (separate by commas if more than one detector)
#SPECTRUM    : start of spectrum data
0, 0
0, 0
0, 0
0, 0
0, 0
0, 0
0, 0
0, 0
1, 0
0, 2
3, 7
53, 36
57, 55
5, 3
8, 5
112, 81
434, 386
107, 93
3, 6
5, 2
21, 16
80, 88
35, 25
13, 14
50, 48
64, 46
37, 18
15, 15
3, 0
2, 1
2, 4
1, 0
2, 5
6, 9
17, 14
6, 53
5, 68
5, 8
6, 9
5, 8
9, 1
8, 12
14, 8
11, 12
8, 23
7, 15
8, 9
6, 7
7, 7
10, 11
15, 8
11, 6
11, 8
28, 25
70, 49
81, 23
76, 39
468, 525
2207, 2134
1553, 1289
203, 139
22, 18
13, 19
112, 97
341, 355
218, 208
33, 25
7, 7
10, 9
6, 10
5, 8
9, 13
3, 15
5, 7
13, 5
12, 9
10, 5
9, 3
10, 3
5, 9
4, 1
4, 6
3, 10
6, 8
6, 2
1, 2
5, 2
14, 4
12, 0
2, 0
6, 2
2, 7
3, 10
3, 11
2, 2
6, 4
7, 9
3, 2
2, 6
5, 5
3, 7
2, 1
2, 4
0, 3
2, 1
3, 3
5, 2
5, 3
0, 1
4, 1
3, 0
9, 1
1, 2
2, 3
3, 8
3, 8
5, 2
1, 3
2, 1
2, 2
1, 1
1, 1
5, 2
0, 3
2, 1
0, 0
2, 2
2, 1
1, 0
1, 1
0, 2
2, 2
1, 1
0, 2
1, 0
2, 0
0, 2
1, 1
0, 1
0, 1
0, 0
0, 2
1, 2
0, 0
1, 1
0, 0
0, 1
0, 0
0, 0
0, 0
0, 0
0, 0
0, 0
0, 3
0, 0
1, 0
0, 2
0, 1
0, 0
0, 1
0, 0
0, 0
0, 0
1, 1
0, 0
0, 0
1, 0
0, 1
0, 0
0, 0
0, 0
0, 0
1, 0
0, 1
0, 0
0, 1
1, 0
0, 0
0, 0
0, 1
1, 0
0, 0
0, 0
0, 0
0, 0
0, 0
0, 0
0, 0
0, 0
1, 0
0, 1
0, 0
0, 0
0, 0
0, 0
0, 0
0, 0
0, 1
1, 0
0, 0
0, 0
0, 0
0, 0
0, 0
0, 0
0, 0
0, 0
0, 0
0, 0
0, 0
0, 0
0, 0
0, 0
0, 0
0, 0
0, 0
0, 0
1, 0
0, 0
0, 0
0, 0
0, 0
0, 0
0, 0
0, 0
0, 0
0, 0
0, 0
0, 0
0, 0
0, 0
0, 0
0, 0
0, 0
0, 0
0, 0
0, 0
0, 0
0, 0
0, 0
0, 0
0, 0
0, 0
0, 0
0, 0
0, 0
0, 0
0, 0
0, 0
0, 0
0, 0
0, 0
0, 0
0, 0
0, 0
0, 0
0, 0
0, 0
0, 0
0, 0
0, 0
0, 0
0, 0
0, 0
0, 0
0, 0
0, 0
0, 0
0, 0
0, 0
0, 0
0, 0
0, 0
0, 0
0, 0
0, 0
0, 0
0, 0
0, 0
0, 0
0, 0
0, 0
0, 0
0, 0
0, 0
0, 0
0, 0
0, 0
0, 0
0, 0
0, 0
0, 0
0, 0
0, 0
#ENDOFDATA     end of spectrum data