File: host_upload/06-09-2024/ps_0852/dump3/ps__0852shot_2448.msa
#FORMAT      : EMSA/MAS spectral data file
#VERSION     : TC202v2.0 PIXL
#TITLE       : N/A
#DATE        :       Date in the format DD-MMM-YYYY, for example 07-JUL-2010
#TIME        :             The time of day at which the spectrum was recorded, in 24-hour format
#OWNER       : PIXL Flight Model       (PIXL will use this to indicate which instrument took the data.)
#NPOINTS     : 4096     Number of data points in the spectrum (This can be zero for configuration only files)
#NCOLUMNS    : 2     Number of data columns in the spectrum (This can be zero for configuration only files)
#XUNITS      : eV
#YUNITS      : COUNTS
#DATATYPE    : YY
#XPERCHAN    : 7.862, 7.881   eV per channel (separate by commas if more than one detector)
#OFFSET      : 18.5, -22.4         eV of first channel  (separate by commas if more than one detector
#SIGNALTYPE  : XRF
#YP_TEMP     : 2.3
#LIVETIME    : 8.55544, 8.55676   seconds (separate by commas if more than one detector)
#REALTIME    : 10, 10.0   seconds (separate by commas if more than one detector)
#SPECTRUM    : start of spectrum data
0, 0
0, 0
0, 0
0, 0
0, 0
0, 0
0, 0
0, 0
2, 1
1, 2
3, 2
36, 47
46, 36
15, 4
3, 3
78, 78
389, 322
94, 76
6, 6
9, 7
48, 30
181, 197
75, 68
17, 23
73, 60
59, 68
25, 32
18, 16
5, 5
3, 2
4, 4
3, 5
5, 3
21, 10
25, 24
6, 10
3, 17
5, 6
5, 7
4, 10
3, 6
10, 10
17, 12
15, 17
9, 33
7, 12
6, 6
10, 5
9, 11
13, 17
14, 48
9, 26
12, 9
37, 37
64, 55
16, 29
46, 82
479, 583
2143, 2168
1612, 1322
216, 132
21, 14
20, 18
101, 105
324, 335
206, 185
44, 21
12, 5
19, 14
8, 8
1, 11
5, 6
5, 6
8, 8
5, 5
9, 7
6, 4
1, 3
7, 2
5, 3
5, 2
4, 3
4, 3
2, 3
7, 2
17, 3
13, 1
7, 3
9, 7
8, 2
7, 4
6, 3
3, 1
2, 3
2, 2
2, 1
4, 0
1, 0
4, 0
7, 2
5, 6
1, 9
3, 5
2, 4
1, 1
2, 3
3, 2
1, 1
2, 0
2, 4
1, 1
0, 4
1, 2
1, 0
0, 0
0, 3
1, 6
7, 2
2, 1
1, 3
4, 1
3, 1
2, 2
1, 1
2, 1
0, 1
4, 0
2, 0
0, 0
3, 2
1, 0
2, 1
1, 0
1, 1
0, 1
0, 1
1, 0
0, 1
0, 1
0, 0
1, 1
0, 0
1, 0
2, 2
0, 0
0, 0
0, 1
1, 1
0, 1
0, 1
0, 0
0, 0
0, 0
2, 0
0, 0
1, 0
0, 0
0, 3
0, 0
0, 0
0, 0
0, 0
0, 0
0, 1
1, 0
0, 0
0, 0
0, 0
1, 0
1, 0
2, 0
0, 2
0, 0
0, 0
0, 0
0, 1
0, 0
0, 2
0, 1
1, 0
0, 0
1, 0
0, 0
1, 0
0, 0
0, 0
0, 0
0, 1
0, 0
0, 0
1, 0
0, 0
0, 0
0, 0
0, 0
0, 1
0, 0
0, 0
0, 0
0, 0
0, 0
0, 0
0, 0
0, 0
0, 0
0, 0
0, 0
0, 0
0, 0
0, 0
0, 0
0, 0
0, 0
0, 0
0, 0
0, 0
0, 0
0, 0
0, 0
0, 0
0, 0
0, 0
0, 0
0, 0
0, 0
0, 0
0, 0
0, 0
0, 0
0, 0
0, 0
0, 0
0, 0
0, 0
0, 0
0, 0
0, 0
0, 0
0, 0
0, 0
0, 0
0, 0
0, 0
0, 0
0, 0
0, 0
0, 0
0, 0
0, 0
0, 0
0, 0
0, 0
0, 0
0, 0
0, 0
0, 0
0, 0
0, 0
0, 0
0, 0
0, 0
0, 0
0, 0
0, 0
0, 0
0, 0
0, 0
0, 0
0, 0
0, 0
0, 0
0, 0
0, 0
0, 0
0, 0
0, 0
0, 0
0, 0
0, 0
0, 0
0, 0
0, 0
0, 0
0, 0
0, 0
0, 0
0, 0
0, 0
0, 0
0, 0
0, 0
0, 0
0, 0
0, 0
#ENDOFDATA     end of spectrum data