File: host_upload/06-09-2024/ps_0852/dump3/ps__0852shot_2461.msa
#FORMAT      : EMSA/MAS spectral data file
#VERSION     : TC202v2.0 PIXL
#TITLE       : N/A
#DATE        :       Date in the format DD-MMM-YYYY, for example 07-JUL-2010
#TIME        :             The time of day at which the spectrum was recorded, in 24-hour format
#OWNER       : PIXL Flight Model       (PIXL will use this to indicate which instrument took the data.)
#NPOINTS     : 4096     Number of data points in the spectrum (This can be zero for configuration only files)
#NCOLUMNS    : 2     Number of data columns in the spectrum (This can be zero for configuration only files)
#XUNITS      : eV
#YUNITS      : COUNTS
#DATATYPE    : YY
#XPERCHAN    : 7.862, 7.881   eV per channel (separate by commas if more than one detector)
#OFFSET      : 18.5, -22.4         eV of first channel  (separate by commas if more than one detector
#SIGNALTYPE  : XRF
#YP_TEMP     : 2.46
#LIVETIME    : 8.57621, 8.55063   seconds (separate by commas if more than one detector)
#REALTIME    : 10, 10.0   seconds (separate by commas if more than one detector)
#SPECTRUM    : start of spectrum data
0, 0
0, 0
0, 0
0, 0
0, 0
0, 0
0, 0
0, 0
1, 1
2, 1
3, 6
44, 51
64, 55
6, 5
4, 5
96, 108
413, 411
98, 105
3, 6
1, 2
15, 22
73, 87
30, 35
20, 17
45, 39
45, 38
12, 16
18, 13
2, 5
1, 1
3, 4
3, 4
5, 3
25, 33
41, 39
6, 6
4, 11
12, 17
6, 2
3, 5
5, 4
16, 10
14, 13
14, 10
6, 6
3, 4
1, 4
3, 5
7, 12
33, 13
80, 6
46, 7
12, 14
53, 31
73, 48
41, 19
29, 37
503, 589
2134, 2339
1574, 1386
211, 127
18, 10
28, 19
112, 109
335, 339
216, 177
38, 22
13, 4
14, 7
7, 5
4, 4
1, 8
6, 15
12, 8
9, 2
6, 4
6, 4
8, 1
4, 3
3, 4
7, 4
19, 5
10, 9
3, 7
1, 3
7, 5
1, 2
2, 6
2, 1
16, 3
7, 4
4, 5
5, 0
4, 3
5, 3
3, 1
1, 5
6, 2
2, 5
7, 2
6, 4
1, 2
3, 4
2, 2
3, 3
1, 13
0, 9
4, 4
0, 4
2, 1
1, 0
2, 0
3, 1
3, 5
1, 1
4, 3
2, 3
3, 3
4, 2
2, 2
1, 2
1, 2
1, 1
1, 1
1, 2
2, 2
1, 0
0, 2
1, 1
1, 2
2, 3
1, 0
0, 1
0, 1
0, 1
0, 2
1, 3
0, 0
2, 1
0, 2
0, 0
0, 0
0, 0
0, 1
1, 0
1, 1
2, 0
0, 0
0, 0
0, 0
0, 0
0, 0
0, 0
0, 0
0, 0
0, 0
0, 0
1, 1
0, 0
0, 1
0, 0
0, 0
0, 1
1, 0
0, 0
0, 0
0, 0
0, 0
0, 0
0, 0
0, 0
0, 0
0, 0
1, 0
0, 0
0, 1
0, 2
0, 0
0, 0
0, 0
0, 0
0, 0
0, 0
0, 0
0, 1
1, 0
1, 0
0, 0
0, 0
1, 0
0, 0
0, 0
0, 0
0, 0
0, 1
0, 1
0, 1
0, 0
0, 0
0, 0
0, 0
0, 0
0, 0
0, 0
0, 1
0, 0
0, 0
0, 0
0, 0
0, 0
0, 0
0, 0
0, 0
0, 0
0, 0
0, 0
0, 0
0, 0
0, 0
0, 0
0, 0
0, 0
0, 0
0, 0
0, 0
0, 0
0, 0
0, 0
0, 0
0, 0
0, 0
0, 0
0, 0
0, 0
0, 0
0, 0
0, 0
0, 0
0, 0
0, 0
0, 0
0, 0
0, 0
0, 0
0, 0
0, 0
0, 0
0, 0
0, 0
0, 0
0, 0
0, 0
0, 0
0, 0
0, 0
0, 0
0, 0
0, 0
0, 0
0, 0
0, 0
0, 0
0, 0
0, 0
0, 0
0, 0
0, 0
0, 0
0, 0
0, 0
0, 0
0, 0
0, 0
0, 0
0, 0
0, 0
0, 0
0, 0
0, 0
0, 0
0, 0
0, 0
0, 0
0, 0
0, 0
0, 0
0, 0
0, 0
0, 0
0, 0
0, 0
0, 0
0, 0
0, 0
#ENDOFDATA     end of spectrum data