File: host_upload/06-09-2024/ps_0852/dump3/ps__0852shot_2110.msa
#FORMAT      : EMSA/MAS spectral data file
#VERSION     : TC202v2.0 PIXL
#TITLE       : N/A
#DATE        :       Date in the format DD-MMM-YYYY, for example 07-JUL-2010
#TIME        :             The time of day at which the spectrum was recorded, in 24-hour format
#OWNER       : PIXL Flight Model       (PIXL will use this to indicate which instrument took the data.)
#NPOINTS     : 4096     Number of data points in the spectrum (This can be zero for configuration only files)
#NCOLUMNS    : 2     Number of data columns in the spectrum (This can be zero for configuration only files)
#XUNITS      : eV
#YUNITS      : COUNTS
#DATATYPE    : YY
#XPERCHAN    : 7.862, 7.881   eV per channel (separate by commas if more than one detector)
#OFFSET      : 18.5, -22.4         eV of first channel  (separate by commas if more than one detector
#SIGNALTYPE  : XRF
#YP_TEMP     : 2.524
#LIVETIME    : 8.55546, 8.55881   seconds (separate by commas if more than one detector)
#REALTIME    : 10, 10.0   seconds (separate by commas if more than one detector)
#SPECTRUM    : start of spectrum data
0, 0
0, 0
0, 0
0, 0
0, 0
0, 0
0, 0
3, 1
3, 1
3, 2
2, 3
24, 39
36, 38
8, 5
7, 11
72, 77
272, 291
53, 85
3, 3
6, 5
57, 63
333, 386
154, 127
51, 46
132, 134
96, 102
34, 38
22, 26
6, 11
2, 6
5, 9
6, 8
12, 6
83, 103
122, 125
25, 28
23, 14
16, 27
7, 19
5, 7
6, 7
4, 25
20, 11
12, 8
9, 10
3, 28
8, 14
5, 3
15, 9
47, 43
51, 36
20, 21
14, 7
46, 63
56, 82
20, 23
22, 52
407, 599
2053, 2340
1502, 1383
187, 149
16, 23
19, 16
100, 105
297, 390
231, 204
26, 25
13, 3
11, 8
39, 7
28, 4
13, 6
4, 1
6, 3
5, 9
4, 4
4, 8
2, 1
5, 8
2, 6
6, 6
8, 4
9, 1
6, 5
6, 9
5, 7
4, 6
2, 7
6, 7
6, 5
6, 13
7, 11
10, 4
7, 4
0, 3
4, 4
3, 2
0, 4
1, 3
2, 4
9, 2
10, 1
3, 1
7, 1
2, 2
2, 1
4, 2
0, 4
0, 2
0, 1
3, 2
2, 2
3, 5
1, 5
1, 5
1, 3
6, 5
4, 2
0, 1
1, 2
1, 1
2, 3
0, 1
1, 2
0, 1
0, 2
0, 2
5, 1
0, 0
0, 0
1, 0
0, 2
2, 1
2, 0
0, 1
0, 0
0, 0
0, 0
1, 1
1, 2
1, 1
1, 0
1, 0
1, 0
0, 0
1, 0
2, 0
1, 0
0, 0
1, 0
0, 0
0, 0
0, 0
2, 0
0, 0
0, 0
0, 0
1, 0
0, 0
0, 1
0, 0
0, 0
1, 0
0, 0
0, 0
0, 0
0, 0
0, 0
0, 0
0, 0
0, 0
0, 0
0, 0
0, 0
0, 0
0, 0
0, 0
0, 0
0, 0
0, 0
0, 0
1, 1
0, 0
0, 0
0, 0
0, 1
0, 0
0, 0
0, 0
0, 0
0, 0
0, 0
0, 0
0, 0
0, 0
0, 0
0, 0
0, 0
0, 0
0, 0
0, 0
0, 0
0, 0
0, 0
0, 1
0, 0
0, 0
0, 0
0, 0
0, 0
0, 0
0, 0
0, 0
0, 0
0, 0
0, 0
0, 0
0, 0
0, 0
0, 0
0, 0
0, 0
0, 0
0, 0
0, 0
0, 0
0, 0
0, 0
0, 0
0, 0
0, 0
0, 0
0, 0
0, 0
0, 0
0, 0
0, 0
0, 0
0, 0
0, 0
0, 0
0, 0
0, 0
0, 0
0, 0
0, 0
0, 0
0, 0
0, 0
0, 0
0, 0
0, 0
0, 0
0, 0
0, 0
0, 0
0, 0
0, 0
0, 0
0, 0
0, 0
0, 0
0, 0
0, 0
0, 0
0, 0
0, 0
0, 0
0, 0
0, 0
0, 0
0, 0
0, 0
0, 0
0, 0
0, 0
0, 0
0, 0
0, 0
0, 0
0, 0
0, 0
0, 0
0, 0
0, 0
0, 0
0, 0
0, 0
0, 0
0, 0
0, 0
0, 0
0, 0
0, 0
#ENDOFDATA     end of spectrum data