File: host_upload/06-09-2024/ps_0852/dump3/ps__0852shot_2139.msa
#FORMAT      : EMSA/MAS spectral data file
#VERSION     : TC202v2.0 PIXL
#TITLE       : N/A
#DATE        :       Date in the format DD-MMM-YYYY, for example 07-JUL-2010
#TIME        :             The time of day at which the spectrum was recorded, in 24-hour format
#OWNER       : PIXL Flight Model       (PIXL will use this to indicate which instrument took the data.)
#NPOINTS     : 4096     Number of data points in the spectrum (This can be zero for configuration only files)
#NCOLUMNS    : 2     Number of data columns in the spectrum (This can be zero for configuration only files)
#XUNITS      : eV
#YUNITS      : COUNTS
#DATATYPE    : YY
#XPERCHAN    : 7.862, 7.881   eV per channel (separate by commas if more than one detector)
#OFFSET      : 18.5, -22.4         eV of first channel  (separate by commas if more than one detector
#SIGNALTYPE  : XRF
#YP_TEMP     : 2.267
#LIVETIME    : 8.5701, 8.36664   seconds (separate by commas if more than one detector)
#REALTIME    : 10, 10.0   seconds (separate by commas if more than one detector)
#SPECTRUM    : start of spectrum data
0, 0
0, 0
0, 0
0, 0
0, 0
0, 0
0, 0
0, 1
1, 1
23, 3
9, 1
31, 44
54, 47
6, 5
8, 3
84, 91
400, 360
81, 85
16, 12
7, 8
12, 13
77, 72
23, 24
41, 16
560, 62
815, 64
106, 23
22, 16
7, 6
2, 4
3, 4
3, 0
7, 4
36, 46
90, 70
12, 11
9, 25
10, 31
7, 12
2, 9
5, 6
19, 11
13, 7
20, 9
16, 10
12, 10
8, 13
5, 6
8, 16
18, 15
19, 6
6, 6
8, 16
41, 62
54, 54
17, 24
35, 34
470, 561
2242, 2192
1572, 1328
205, 153
20, 20
27, 36
107, 135
344, 331
223, 178
33, 26
7, 5
14, 18
5, 11
6, 6
1, 8
4, 8
2, 15
3, 8
6, 4
3, 2
3, 11
2, 3
2, 3
6, 2
3, 4
5, 5
4, 7
1, 5
7, 5
3, 6
4, 4
6, 5
1, 3
1, 9
4, 6
3, 5
0, 1
3, 4
4, 5
3, 0
1, 3
8, 4
1, 1
4, 0
2, 2
1, 2
0, 2
2, 2
4, 3
2, 7
2, 2
5, 4
4, 2
3, 1
1, 1
3, 0
0, 1
1, 2
1, 0
3, 5
3, 3
3, 0
0, 4
0, 1
4, 2
3, 6
1, 5
1, 0
1, 1
2, 2
0, 0
2, 0
0, 0
2, 0
1, 0
2, 2
1, 1
2, 0
1, 0
2, 0
0, 0
2, 1
1, 0
0, 0
0, 0
0, 0
1, 2
0, 1
1, 0
1, 1
1, 1
1, 2
0, 0
0, 0
2, 0
0, 1
1, 0
0, 0
1, 1
0, 2
0, 0
0, 0
0, 0
0, 0
0, 1
0, 0
1, 0
0, 0
0, 0
1, 2
0, 0
0, 0
0, 0
0, 0
0, 0
1, 0
0, 0
0, 0
0, 0
0, 0
0, 1
1, 0
1, 0
0, 0
0, 2
0, 0
0, 0
0, 0
0, 0
0, 0
0, 0
0, 0
0, 0
0, 0
0, 0
0, 0
0, 0
0, 0
0, 0
0, 0
0, 0
0, 0
0, 1
0, 0
0, 0
0, 0
0, 0
0, 0
0, 0
0, 0
0, 0
0, 0
0, 0
0, 0
0, 0
0, 0
0, 0
0, 0
0, 0
0, 0
0, 0
0, 0
0, 0
0, 0
0, 0
0, 0
0, 0
0, 0
0, 0
0, 0
0, 0
0, 0
0, 0
0, 0
0, 0
0, 0
0, 0
0, 0
0, 0
0, 0
0, 0
0, 0
0, 0
0, 0
0, 0
0, 0
0, 0
0, 0
0, 0
0, 0
0, 0
0, 0
0, 0
0, 0
0, 0
0, 0
0, 0
0, 0
0, 0
0, 0
0, 0
0, 0
0, 0
0, 0
0, 0
0, 0
0, 0
0, 0
0, 0
0, 0
0, 0
0, 0
0, 0
0, 0
0, 0
0, 0
0, 0
0, 0
0, 0
0, 0
0, 0
0, 0
0, 0
0, 0
0, 0
0, 0
0, 0
0, 0
0, 0
0, 0
0, 0
0, 0
0, 0
0, 0
0, 0
0, 0
0, 0
#ENDOFDATA     end of spectrum data