File: host_upload/06-09-2024/ps_0852/dump3/ps__0852shot_2468.msa
#FORMAT      : EMSA/MAS spectral data file
#VERSION     : TC202v2.0 PIXL
#TITLE       : N/A
#DATE        :       Date in the format DD-MMM-YYYY, for example 07-JUL-2010
#TIME        :             The time of day at which the spectrum was recorded, in 24-hour format
#OWNER       : PIXL Flight Model       (PIXL will use this to indicate which instrument took the data.)
#NPOINTS     : 4096     Number of data points in the spectrum (This can be zero for configuration only files)
#NCOLUMNS    : 2     Number of data columns in the spectrum (This can be zero for configuration only files)
#XUNITS      : eV
#YUNITS      : COUNTS
#DATATYPE    : YY
#XPERCHAN    : 7.862, 7.881   eV per channel (separate by commas if more than one detector)
#OFFSET      : 18.5, -22.4         eV of first channel  (separate by commas if more than one detector
#SIGNALTYPE  : XRF
#YP_TEMP     : 2.396
#LIVETIME    : 8.55908, 8.57212   seconds (separate by commas if more than one detector)
#REALTIME    : 10, 10.0   seconds (separate by commas if more than one detector)
#SPECTRUM    : start of spectrum data
0, 0
0, 0
0, 0
0, 0
0, 0
0, 0
0, 0
0, 0
4, 1
0, 1
4, 0
36, 45
57, 49
5, 3
3, 3
62, 59
284, 311
75, 71
10, 8
4, 5
84, 88
464, 513
171, 184
45, 50
115, 115
73, 85
26, 34
13, 16
10, 6
4, 8
17, 19
14, 4
8, 5
14, 21
31, 13
7, 9
4, 7
4, 10
3, 16
3, 4
6, 37
10, 59
19, 39
9, 9
6, 18
6, 20
11, 16
8, 5
14, 9
7, 17
12, 8
8, 9
10, 11
42, 48
50, 68
16, 17
34, 37
446, 612
2121, 2336
1572, 1329
173, 132
20, 10
18, 24
77, 130
332, 335
199, 188
34, 24
9, 12
19, 16
13, 8
20, 3
20, 5
6, 5
2, 3
3, 6
7, 18
4, 14
3, 10
5, 2
9, 2
7, 3
2, 5
6, 5
8, 5
5, 7
3, 2
3, 1
2, 5
10, 3
7, 3
3, 8
3, 4
4, 5
3, 2
1, 1
3, 0
1, 2
0, 4
3, 3
6, 1
5, 2
5, 4
3, 3
0, 4
4, 3
2, 2
3, 2
3, 4
1, 2
1, 1
1, 1
2, 2
3, 0
2, 2
1, 4
2, 1
1, 5
1, 3
2, 1
2, 0
0, 2
0, 1
3, 3
3, 3
1, 2
0, 1
2, 0
1, 0
2, 0
0, 1
1, 1
1, 0
1, 0
1, 0
0, 1
0, 0
0, 0
2, 0
0, 0
1, 0
1, 1
0, 0
0, 1
0, 1
0, 0
1, 1
0, 1
0, 0
0, 1
0, 0
0, 0
0, 1
0, 0
0, 0
0, 0
0, 0
0, 0
0, 0
0, 0
0, 0
1, 0
1, 0
1, 0
0, 0
0, 0
0, 0
0, 0
0, 0
1, 0
1, 0
0, 0
0, 0
1, 0
0, 0
0, 0
1, 1
0, 0
1, 0
0, 0
0, 0
0, 0
0, 0
0, 0
1, 0
0, 1
0, 0
0, 0
0, 0
0, 0
0, 0
1, 0
0, 0
0, 0
0, 0
0, 0
0, 0
0, 0
0, 1
0, 0
0, 0
0, 0
0, 0
0, 0
0, 0
0, 0
0, 0
0, 0
0, 0
0, 0
0, 0
0, 0
0, 0
0, 0
0, 0
0, 0
0, 0
0, 0
0, 0
0, 0
0, 0
0, 0
0, 0
0, 0
0, 0
0, 0
0, 0
0, 0
0, 0
0, 0
0, 0
0, 0
0, 0
0, 0
0, 0
0, 0
0, 0
0, 0
0, 0
0, 0
0, 0
0, 0
0, 0
0, 0
0, 0
0, 0
0, 0
0, 0
0, 0
0, 0
0, 0
0, 0
0, 0
0, 0
0, 0
0, 0
0, 0
0, 0
0, 0
0, 0
0, 0
0, 0
0, 0
0, 0
0, 0
0, 0
0, 0
0, 0
0, 0
0, 0
0, 0
0, 0
0, 0
0, 0
0, 0
0, 0
0, 0
0, 0
0, 0
0, 0
0, 0
0, 0
0, 0
0, 0
0, 0
0, 0
0, 0
0, 0
0, 0
0, 0
0, 0
0, 0
0, 0
0, 0
0, 0
#ENDOFDATA     end of spectrum data