File: host_upload/06-09-2024/ps_0852/dump3/ps__0852shot_2562.msa
#FORMAT      : EMSA/MAS spectral data file
#VERSION     : TC202v2.0 PIXL
#TITLE       : N/A
#DATE        :       Date in the format DD-MMM-YYYY, for example 07-JUL-2010
#TIME        :             The time of day at which the spectrum was recorded, in 24-hour format
#OWNER       : PIXL Flight Model       (PIXL will use this to indicate which instrument took the data.)
#NPOINTS     : 4096     Number of data points in the spectrum (This can be zero for configuration only files)
#NCOLUMNS    : 2     Number of data columns in the spectrum (This can be zero for configuration only files)
#XUNITS      : eV
#YUNITS      : COUNTS
#DATATYPE    : YY
#XPERCHAN    : 7.862, 7.881   eV per channel (separate by commas if more than one detector)
#OFFSET      : 18.5, -22.4         eV of first channel  (separate by commas if more than one detector
#SIGNALTYPE  : XRF
#YP_TEMP     : 2.075
#LIVETIME    : 8.5179, 8.52752   seconds (separate by commas if more than one detector)
#REALTIME    : 10, 10.0   seconds (separate by commas if more than one detector)
#SPECTRUM    : start of spectrum data
0, 0
0, 0
0, 0
0, 0
0, 0
0, 0
0, 0
0, 1
2, 0
1, 3
1, 3
38, 45
53, 53
5, 7
11, 11
97, 105
475, 482
117, 108
15, 9
14, 9
5, 5
10, 8
7, 5
14, 14
68, 62
49, 65
28, 23
16, 23
6, 5
3, 7
19, 18
8, 7
4, 3
35, 37
48, 39
14, 8
9, 7
11, 10
3, 4
5, 1
8, 8
25, 18
64, 16
53, 6
14, 9
11, 7
6, 5
2, 7
13, 8
20, 7
36, 9
33, 7
11, 5
40, 38
59, 50
29, 21
35, 69
457, 665
2185, 2341
1578, 1342
166, 109
6, 17
27, 24
88, 139
316, 345
237, 194
30, 23
9, 8
18, 20
10, 4
10, 5
1, 2
4, 4
6, 5
10, 15
3, 4
6, 3
2, 2
2, 6
6, 6
4, 12
15, 31
24, 20
29, 8
11, 3
4, 1
1, 1
4, 3
3, 2
6, 8
1, 2
0, 2
1, 3
5, 4
4, 3
1, 2
6, 3
4, 5
2, 4
4, 2
15, 4
7, 7
2, 1
4, 4
2, 6
7, 7
1, 3
3, 2
2, 2
2, 4
5, 1
1, 1
1, 5
3, 2
1, 3
3, 5
3, 1
5, 3
2, 1
0, 3
2, 0
6, 2
0, 2
1, 0
2, 0
0, 3
1, 0
1, 1
2, 0
5, 1
1, 0
1, 1
1, 1
1, 2
0, 0
2, 3
3, 1
0, 2
1, 0
1, 0
0, 0
0, 0
0, 0
1, 0
0, 1
0, 1
3, 1
1, 0
1, 1
0, 0
0, 1
0, 1
2, 0
0, 1
0, 0
0, 0
1, 0
0, 0
0, 0
0, 1
0, 0
0, 0
0, 0
0, 0
0, 0
0, 0
0, 0
1, 0
0, 0
0, 0
0, 0
1, 1
0, 0
1, 0
1, 0
0, 0
0, 0
0, 0
0, 0
0, 0
0, 0
0, 0
0, 0
0, 0
0, 0
0, 0
0, 0
0, 0
0, 0
0, 1
0, 0
0, 0
0, 0
0, 0
0, 0
1, 0
1, 0
0, 0
0, 0
0, 0
0, 0
0, 0
0, 0
0, 0
0, 0
0, 0
0, 0
0, 0
0, 0
0, 0
0, 0
0, 0
0, 0
0, 0
0, 0
0, 0
0, 0
0, 0
0, 0
0, 0
0, 0
0, 0
0, 0
0, 0
0, 0
0, 0
0, 0
0, 0
0, 0
0, 0
0, 0
0, 0
0, 0
0, 0
0, 0
0, 0
0, 0
0, 0
0, 0
0, 0
0, 0
0, 0
0, 0
0, 0
0, 0
0, 0
0, 0
0, 0
0, 0
0, 0
0, 0
0, 0
0, 0
0, 0
0, 0
0, 0
0, 0
0, 0
0, 0
0, 0
0, 0
0, 0
0, 0
0, 0
0, 0
0, 0
0, 0
0, 0
0, 0
0, 0
0, 0
0, 0
0, 0
0, 0
0, 0
0, 0
0, 0
0, 0
0, 0
0, 0
0, 0
0, 0
0, 0
0, 0
0, 0
0, 0
0, 0
0, 0
0, 0
0, 0
0, 0
0, 0
0, 0
0, 0
#ENDOFDATA     end of spectrum data