File: host_upload/06-09-2024/ps_0852/dump3/ps__0852shot_2138.msa
#FORMAT      : EMSA/MAS spectral data file
#VERSION     : TC202v2.0 PIXL
#TITLE       : N/A
#DATE        :       Date in the format DD-MMM-YYYY, for example 07-JUL-2010
#TIME        :             The time of day at which the spectrum was recorded, in 24-hour format
#OWNER       : PIXL Flight Model       (PIXL will use this to indicate which instrument took the data.)
#NPOINTS     : 4096     Number of data points in the spectrum (This can be zero for configuration only files)
#NCOLUMNS    : 2     Number of data columns in the spectrum (This can be zero for configuration only files)
#XUNITS      : eV
#YUNITS      : COUNTS
#DATATYPE    : YY
#XPERCHAN    : 7.862, 7.881   eV per channel (separate by commas if more than one detector)
#OFFSET      : 18.5, -22.4         eV of first channel  (separate by commas if more than one detector
#SIGNALTYPE  : XRF
#YP_TEMP     : 2.235
#LIVETIME    : 8.57828, 8.57536   seconds (separate by commas if more than one detector)
#REALTIME    : 10, 10.0   seconds (separate by commas if more than one detector)
#SPECTRUM    : start of spectrum data
0, 0
0, 0
0, 0
0, 0
0, 0
0, 0
0, 0
1, 0
5, 0
8, 1
2, 1
39, 37
58, 63
5, 5
4, 4
85, 90
412, 401
109, 84
5, 5
2, 2
3, 2
10, 12
11, 7
38, 8
456, 41
703, 41
154, 13
66, 14
15, 5
3, 1
1, 1
2, 1
2, 5
13, 14
14, 13
2, 8
15, 15
9, 17
4, 7
2, 6
6, 3
11, 12
32, 9
25, 12
5, 7
8, 6
6, 2
11, 5
6, 13
14, 14
18, 10
13, 6
14, 10
40, 40
77, 73
31, 35
37, 36
482, 531
2257, 2264
1661, 1373
219, 146
35, 19
22, 10
109, 143
324, 359
234, 177
36, 20
9, 12
15, 12
9, 5
4, 3
4, 2
3, 6
2, 6
1, 11
7, 2
3, 4
7, 5
3, 6
2, 7
6, 3
5, 3
3, 8
3, 7
11, 4
3, 5
4, 5
1, 6
2, 3
2, 3
5, 4
8, 3
7, 2
3, 1
0, 4
2, 2
4, 5
3, 3
4, 3
5, 2
3, 2
1, 1
2, 1
2, 2
3, 5
6, 2
2, 5
2, 3
3, 2
1, 8
2, 1
4, 1
1, 2
2, 3
1, 0
1, 4
4, 3
4, 3
1, 0
2, 0
2, 1
1, 1
3, 5
2, 3
2, 2
1, 2
4, 2
2, 0
0, 0
0, 0
1, 0
1, 1
0, 2
1, 0
0, 0
1, 1
0, 1
0, 1
1, 2
1, 1
1, 2
1, 0
0, 0
0, 1
0, 1
0, 0
1, 0
1, 1
1, 2
0, 0
0, 1
0, 0
0, 0
0, 0
1, 0
0, 0
0, 0
0, 0
0, 1
0, 0
0, 0
0, 0
0, 0
0, 0
1, 1
0, 0
0, 0
0, 0
0, 0
0, 0
0, 0
1, 1
1, 0
0, 0
0, 0
0, 0
0, 0
0, 0
0, 0
0, 1
0, 0
0, 0
1, 1
0, 0
0, 0
0, 0
0, 0
0, 0
1, 0
0, 0
0, 0
0, 0
0, 0
0, 0
0, 0
0, 0
0, 0
0, 0
0, 0
0, 0
0, 0
0, 0
0, 0
0, 0
0, 0
0, 0
0, 0
0, 0
0, 0
0, 0
0, 0
0, 0
0, 0
0, 0
0, 0
0, 0
0, 0
0, 0
0, 0
0, 0
0, 0
0, 0
0, 0
0, 0
0, 0
0, 0
0, 0
0, 0
0, 0
0, 0
0, 0
0, 0
0, 0
0, 0
0, 0
0, 0
0, 0
0, 0
0, 0
0, 0
0, 0
0, 0
0, 0
0, 0
0, 0
0, 0
0, 0
0, 0
1, 0
0, 0
0, 0
0, 0
0, 0
0, 0
0, 0
0, 0
0, 0
0, 0
0, 0
0, 0
0, 0
0, 0
0, 0
0, 0
0, 0
0, 0
0, 0
0, 0
0, 0
0, 0
0, 0
0, 0
0, 0
0, 0
0, 0
0, 0
0, 0
0, 0
0, 0
0, 0
0, 0
0, 0
0, 0
0, 0
0, 0
0, 0
0, 0
0, 0
0, 0
0, 0
0, 0
0, 0
0, 0
0, 0
#ENDOFDATA     end of spectrum data