File: host_upload/06-09-2024/ps_0852/dump3/ps__0852shot_2108.msa
#FORMAT      : EMSA/MAS spectral data file
#VERSION     : TC202v2.0 PIXL
#TITLE       : N/A
#DATE        :       Date in the format DD-MMM-YYYY, for example 07-JUL-2010
#TIME        :             The time of day at which the spectrum was recorded, in 24-hour format
#OWNER       : PIXL Flight Model       (PIXL will use this to indicate which instrument took the data.)
#NPOINTS     : 4096     Number of data points in the spectrum (This can be zero for configuration only files)
#NCOLUMNS    : 2     Number of data columns in the spectrum (This can be zero for configuration only files)
#XUNITS      : eV
#YUNITS      : COUNTS
#DATATYPE    : YY
#XPERCHAN    : 7.862, 7.881   eV per channel (separate by commas if more than one detector)
#OFFSET      : 18.5, -22.4         eV of first channel  (separate by commas if more than one detector
#SIGNALTYPE  : XRF
#YP_TEMP     : 2.364
#LIVETIME    : 8.53397, 8.52802   seconds (separate by commas if more than one detector)
#REALTIME    : 10, 10.0   seconds (separate by commas if more than one detector)
#SPECTRUM    : start of spectrum data
0, 0
0, 0
0, 0
0, 0
0, 0
0, 0
0, 0
0, 0
3, 5
1, 2
4, 1
27, 32
38, 46
2, 1
4, 4
61, 77
286, 289
81, 71
4, 6
4, 5
36, 36
172, 164
67, 59
29, 37
110, 127
68, 72
34, 23
15, 23
8, 5
1, 5
14, 9
5, 4
4, 6
32, 30
39, 36
10, 7
8, 1
8, 7
6, 5
7, 5
7, 6
4, 11
16, 18
16, 15
10, 15
5, 25
7, 25
2, 10
7, 7
20, 17
73, 36
55, 24
14, 17
28, 47
72, 65
22, 28
28, 54
465, 629
2121, 2581
1590, 1472
195, 152
15, 16
27, 25
96, 114
321, 387
264, 201
30, 28
8, 2
15, 15
45, 7
57, 3
13, 5
14, 2
8, 8
6, 4
2, 3
6, 4
4, 3
3, 4
7, 4
12, 6
7, 3
5, 4
6, 6
2, 3
1, 12
2, 7
5, 4
13, 5
6, 18
4, 11
9, 8
6, 2
2, 0
5, 8
3, 6
4, 2
1, 2
2, 3
4, 1
17, 4
8, 3
6, 4
0, 1
0, 2
2, 1
0, 1
2, 6
1, 4
2, 0
0, 3
2, 2
1, 3
0, 1
0, 2
4, 4
5, 4
1, 5
1, 2
2, 2
3, 2
2, 3
3, 3
2, 1
1, 4
1, 1
2, 2
1, 0
2, 1
1, 1
3, 0
0, 0
1, 1
2, 0
2, 0
1, 0
0, 0
0, 2
1, 0
2, 2
0, 1
1, 0
0, 0
0, 0
1, 0
0, 1
0, 0
0, 0
1, 0
1, 0
1, 0
0, 0
0, 0
1, 0
2, 0
1, 0
0, 0
1, 0
0, 0
0, 0
0, 0
0, 0
0, 0
0, 0
0, 1
0, 0
0, 0
0, 0
0, 0
0, 0
0, 0
0, 0
0, 0
2, 0
0, 0
0, 1
0, 0
0, 1
0, 0
0, 0
0, 0
0, 0
0, 0
0, 0
0, 0
0, 0
0, 0
0, 1
0, 0
0, 0
0, 0
0, 0
0, 0
0, 0
0, 0
0, 0
0, 0
0, 0
0, 0
0, 0
0, 0
0, 0
0, 0
0, 0
0, 0
0, 0
0, 0
0, 0
0, 0
0, 0
0, 0
0, 0
0, 0
0, 0
0, 0
0, 0
0, 0
0, 0
0, 0
0, 0
0, 0
0, 0
0, 0
0, 0
0, 0
0, 0
0, 0
0, 0
0, 0
0, 0
0, 0
0, 0
0, 0
0, 0
0, 0
0, 0
0, 0
0, 0
0, 0
0, 0
0, 0
0, 0
0, 0
0, 0
0, 0
0, 0
0, 0
0, 0
0, 0
0, 0
0, 0
0, 0
0, 0
0, 0
0, 0
0, 0
0, 0
0, 0
0, 0
0, 0
0, 0
0, 0
0, 0
0, 0
0, 0
0, 0
0, 0
0, 0
0, 0
0, 0
0, 0
0, 0
0, 0
0, 0
0, 0
0, 0
0, 0
0, 0
0, 0
0, 0
0, 0
0, 0
0, 0
0, 0
0, 0
0, 0
0, 0
0, 0
0, 0
0, 0
0, 0
0, 0
0, 0
0, 0
#ENDOFDATA     end of spectrum data