File: host_upload/06-09-2024/ps_0852/dump3/ps__0852shot_2357.msa
#FORMAT      : EMSA/MAS spectral data file
#VERSION     : TC202v2.0 PIXL
#TITLE       : N/A
#DATE        :       Date in the format DD-MMM-YYYY, for example 07-JUL-2010
#TIME        :             The time of day at which the spectrum was recorded, in 24-hour format
#OWNER       : PIXL Flight Model       (PIXL will use this to indicate which instrument took the data.)
#NPOINTS     : 4096     Number of data points in the spectrum (This can be zero for configuration only files)
#NCOLUMNS    : 2     Number of data columns in the spectrum (This can be zero for configuration only files)
#XUNITS      : eV
#YUNITS      : COUNTS
#DATATYPE    : YY
#XPERCHAN    : 7.862, 7.881   eV per channel (separate by commas if more than one detector)
#OFFSET      : 18.5, -22.4         eV of first channel  (separate by commas if more than one detector
#SIGNALTYPE  : XRF
#YP_TEMP     : 2.62
#LIVETIME    : 8.56989, 8.55674   seconds (separate by commas if more than one detector)
#REALTIME    : 10, 10.0   seconds (separate by commas if more than one detector)
#SPECTRUM    : start of spectrum data
0, 0
0, 0
0, 0
0, 0
0, 0
0, 0
0, 0
0, 0
0, 1
0, 0
2, 3
47, 45
67, 47
2, 1
5, 9
92, 79
427, 338
118, 81
8, 5
3, 0
3, 4
24, 34
13, 10
7, 11
34, 31
45, 37
29, 20
11, 11
8, 4
2, 9
6, 3
5, 1
4, 1
8, 9
15, 18
9, 10
8, 8
10, 2
3, 8
6, 10
3, 7
12, 9
17, 14
11, 33
5, 48
6, 23
3, 6
9, 6
12, 9
26, 11
18, 22
7, 10
11, 7
38, 35
63, 58
30, 53
44, 157
471, 649
2211, 2142
1540, 1343
168, 138
23, 19
20, 16
100, 125
323, 317
236, 152
27, 16
17, 15
17, 12
3, 12
2, 7
3, 4
5, 8
4, 13
5, 9
7, 11
8, 2
8, 5
5, 1
4, 4
10, 2
3, 3
2, 4
4, 3
0, 6
4, 4
3, 6
5, 4
4, 5
10, 2
3, 4
4, 1
2, 2
5, 6
2, 12
3, 9
4, 4
4, 2
3, 3
1, 5
3, 2
1, 4
4, 2
3, 6
3, 3
1, 0
3, 0
0, 3
0, 4
2, 4
2, 4
1, 2
5, 3
1, 0
3, 5
1, 4
2, 3
1, 3
3, 2
1, 1
1, 2
1, 0
0, 5
1, 1
0, 2
3, 1
0, 0
1, 0
5, 2
0, 2
1, 0
0, 0
0, 1
1, 0
2, 1
0, 0
2, 0
1, 0
3, 2
1, 2
0, 1
0, 0
0, 0
1, 0
0, 0
1, 1
0, 1
1, 0
2, 1
0, 1
0, 0
0, 1
1, 1
1, 0
0, 0
1, 1
0, 0
0, 0
0, 1
0, 0
0, 0
2, 0
0, 0
0, 0
0, 0
0, 0
0, 0
2, 0
0, 0
0, 0
0, 0
0, 0
1, 0
0, 0
0, 0
0, 0
0, 0
0, 0
0, 0
0, 0
0, 0
0, 0
0, 0
0, 0
0, 0
1, 0
0, 0
0, 0
0, 0
0, 1
0, 0
0, 0
0, 0
0, 0
0, 0
1, 0
0, 0
0, 1
0, 0
0, 0
0, 0
0, 0
0, 0
0, 0
0, 0
0, 0
0, 0
0, 0
0, 0
0, 0
0, 0
0, 0
0, 0
0, 0
0, 0
0, 0
0, 0
0, 0
0, 0
0, 0
0, 0
0, 0
0, 0
0, 0
0, 0
1, 0
0, 0
0, 0
0, 0
0, 0
0, 0
0, 0
0, 0
0, 0
0, 0
0, 0
0, 0
0, 0
0, 0
0, 0
0, 0
0, 0
0, 0
0, 0
0, 0
0, 0
0, 0
0, 0
0, 0
0, 0
0, 0
0, 0
0, 0
0, 0
0, 0
0, 0
0, 0
0, 0
0, 0
0, 0
0, 0
0, 0
0, 0
0, 0
0, 0
0, 0
0, 0
0, 0
0, 0
0, 0
0, 0
0, 0
0, 0
0, 0
0, 0
0, 0
0, 0
0, 0
0, 0
0, 0
0, 0
0, 0
0, 0
0, 0
0, 0
0, 0
0, 0
0, 0
0, 0
0, 0
0, 0
0, 0
0, 0
0, 0
#ENDOFDATA     end of spectrum data