File: host_upload/06-09-2024/ps_0852/dump3/ps__0852shot_2565.msa
#FORMAT      : EMSA/MAS spectral data file
#VERSION     : TC202v2.0 PIXL
#TITLE       : N/A
#DATE        :       Date in the format DD-MMM-YYYY, for example 07-JUL-2010
#TIME        :             The time of day at which the spectrum was recorded, in 24-hour format
#OWNER       : PIXL Flight Model       (PIXL will use this to indicate which instrument took the data.)
#NPOINTS     : 4096     Number of data points in the spectrum (This can be zero for configuration only files)
#NCOLUMNS    : 2     Number of data columns in the spectrum (This can be zero for configuration only files)
#XUNITS      : eV
#YUNITS      : COUNTS
#DATATYPE    : YY
#XPERCHAN    : 7.862, 7.881   eV per channel (separate by commas if more than one detector)
#OFFSET      : 18.5, -22.4         eV of first channel  (separate by commas if more than one detector
#SIGNALTYPE  : XRF
#YP_TEMP     : 2.235
#LIVETIME    : 8.55434, 8.53847   seconds (separate by commas if more than one detector)
#REALTIME    : 10, 10.0   seconds (separate by commas if more than one detector)
#SPECTRUM    : start of spectrum data
0, 0
0, 0
0, 0
0, 0
0, 0
0, 0
0, 0
0, 0
0, 1
1, 0
3, 1
53, 53
74, 51
4, 5
6, 2
113, 100
431, 416
96, 86
8, 4
0, 0
2, 0
2, 2
3, 0
5, 4
30, 7
44, 23
26, 12
15, 6
5, 0
2, 5
0, 1
2, 1
1, 9
13, 15
22, 19
1, 3
9, 6
7, 2
6, 0
44, 0
72, 5
25, 4
14, 8
9, 11
2, 6
10, 7
6, 13
4, 9
8, 12
11, 26
17, 32
28, 18
63, 14
128, 36
95, 51
18, 20
29, 40
475, 556
2277, 2273
1599, 1353
186, 139
11, 18
22, 31
98, 108
329, 353
199, 187
38, 21
14, 11
14, 11
5, 4
2, 2
3, 3
5, 7
1, 2
11, 5
9, 10
8, 8
7, 13
13, 15
20, 5
10, 7
5, 15
0, 12
1, 4
4, 8
4, 2
4, 5
0, 2
1, 4
3, 3
5, 8
2, 7
9, 14
7, 14
4, 13
1, 4
3, 6
1, 3
2, 4
1, 2
2, 3
1, 2
5, 1
0, 2
2, 1
9, 0
2, 4
4, 3
1, 2
2, 1
3, 2
1, 3
3, 2
3, 3
0, 1
4, 1
5, 6
0, 3
2, 0
3, 1
4, 1
5, 0
1, 2
2, 4
2, 3
2, 0
1, 1
2, 1
1, 3
0, 0
2, 1
2, 1
1, 0
1, 0
0, 4
0, 1
0, 0
0, 1
0, 1
0, 1
0, 2
2, 1
0, 0
0, 0
0, 1
1, 1
0, 1
1, 1
0, 0
0, 2
1, 0
0, 0
0, 1
0, 0
0, 0
0, 1
0, 2
0, 0
0, 0
0, 0
0, 1
0, 0
1, 1
1, 0
0, 0
0, 1
0, 0
0, 0
0, 0
1, 1
0, 0
0, 0
0, 1
0, 0
0, 0
0, 0
0, 0
0, 0
0, 0
0, 0
0, 0
0, 0
0, 0
0, 0
0, 0
1, 1
0, 0
0, 0
1, 0
0, 0
0, 0
0, 0
0, 0
0, 0
0, 1
1, 0
0, 0
0, 0
0, 0
1, 0
0, 0
0, 0
0, 0
0, 0
0, 0
0, 0
0, 0
0, 0
0, 0
0, 0
0, 0
0, 0
0, 0
0, 0
0, 0
0, 0
0, 0
0, 0
0, 0
0, 0
0, 0
0, 0
0, 0
0, 0
0, 0
0, 0
0, 0
0, 0
0, 0
0, 0
0, 0
0, 0
0, 0
0, 0
0, 0
0, 0
0, 0
0, 0
0, 0
0, 0
0, 0
0, 0
0, 0
0, 0
0, 0
0, 0
0, 0
0, 0
0, 0
0, 0
0, 0
0, 0
0, 0
0, 0
0, 0
0, 0
0, 0
0, 0
0, 0
0, 0
0, 0
0, 0
0, 0
0, 0
0, 0
0, 0
0, 0
0, 0
0, 0
0, 0
0, 0
0, 0
0, 0
0, 0
0, 0
0, 0
0, 0
0, 0
0, 0
0, 0
0, 0
0, 0
0, 0
0, 0
0, 0
0, 0
0, 0
0, 0
0, 0
0, 0
0, 0
0, 0
0, 0
0, 0
#ENDOFDATA     end of spectrum data