File: host_upload/06-09-2024/ps_0852/dump3/ps__0852shot_2181.msa
#FORMAT      : EMSA/MAS spectral data file
#VERSION     : TC202v2.0 PIXL
#TITLE       : N/A
#DATE        :       Date in the format DD-MMM-YYYY, for example 07-JUL-2010
#TIME        :             The time of day at which the spectrum was recorded, in 24-hour format
#OWNER       : PIXL Flight Model       (PIXL will use this to indicate which instrument took the data.)
#NPOINTS     : 4096     Number of data points in the spectrum (This can be zero for configuration only files)
#NCOLUMNS    : 2     Number of data columns in the spectrum (This can be zero for configuration only files)
#XUNITS      : eV
#YUNITS      : COUNTS
#DATATYPE    : YY
#XPERCHAN    : 7.862, 7.881   eV per channel (separate by commas if more than one detector)
#OFFSET      : 18.5, -22.4         eV of first channel  (separate by commas if more than one detector
#SIGNALTYPE  : XRF
#YP_TEMP     : 2.492
#LIVETIME    : 8.5368, 8.56375   seconds (separate by commas if more than one detector)
#REALTIME    : 10, 10.0   seconds (separate by commas if more than one detector)
#SPECTRUM    : start of spectrum data
0, 0
0, 0
0, 0
0, 0
0, 0
0, 0
0, 0
0, 0
0, 1
3, 0
0, 5
53, 49
72, 56
6, 3
3, 4
113, 78
470, 455
132, 109
7, 3
1, 2
0, 0
4, 1
3, 2
9, 7
34, 39
31, 52
20, 17
8, 13
6, 6
5, 8
10, 7
4, 2
2, 4
21, 25
28, 19
5, 7
5, 27
4, 10
1, 4
4, 5
8, 5
9, 5
13, 16
30, 29
114, 72
59, 29
11, 10
7, 6
13, 7
20, 20
10, 15
5, 11
12, 10
33, 50
59, 52
17, 20
32, 39
507, 573
2265, 2226
1643, 1311
214, 149
30, 15
28, 25
123, 114
323, 310
244, 189
36, 9
9, 8
7, 15
3, 4
9, 6
5, 18
9, 16
19, 11
22, 12
7, 4
6, 4
3, 1
4, 7
3, 1
1, 3
4, 1
2, 4
4, 2
3, 3
3, 2
6, 3
3, 3
6, 3
7, 5
7, 1
4, 0
5, 5
3, 4
3, 3
10, 4
11, 3
1, 0
1, 3
3, 1
4, 2
3, 2
2, 0
5, 2
3, 4
1, 2
6, 4
2, 3
2, 3
2, 4
4, 1
3, 0
3, 0
0, 2
1, 4
3, 3
3, 3
6, 1
5, 1
2, 1
1, 1
1, 2
3, 0
1, 1
0, 1
0, 1
2, 0
2, 0
0, 0
1, 0
2, 0
0, 2
0, 2
2, 1
1, 0
1, 0
2, 2
1, 1
0, 0
0, 0
1, 0
0, 1
0, 0
0, 1
0, 2
0, 0
2, 0
0, 0
0, 0
0, 0
0, 1
0, 0
0, 0
0, 1
0, 0
1, 0
1, 2
0, 0
0, 0
0, 1
1, 0
0, 0
0, 1
0, 0
0, 0
0, 0
0, 0
0, 0
1, 2
0, 0
0, 0
0, 0
0, 0
1, 0
0, 0
0, 0
0, 0
0, 1
2, 0
0, 0
1, 0
0, 0
1, 0
0, 0
0, 0
0, 0
0, 0
0, 1
0, 0
0, 2
0, 0
0, 0
0, 0
1, 0
0, 1
0, 0
0, 0
0, 0
0, 0
0, 0
0, 0
0, 0
0, 0
0, 0
0, 0
0, 0
0, 0
0, 0
0, 0
0, 0
0, 0
0, 0
0, 0
0, 0
0, 0
0, 0
0, 0
0, 0
0, 0
0, 0
0, 0
0, 0
0, 0
0, 0
0, 0
0, 0
0, 0
0, 0
0, 0
0, 0
0, 0
0, 0
0, 0
0, 0
0, 0
0, 0
0, 0
0, 0
0, 0
0, 0
0, 0
0, 0
0, 0
0, 0
0, 0
0, 0
0, 0
0, 0
0, 0
0, 0
0, 0
0, 0
0, 0
0, 0
0, 0
0, 0
0, 0
0, 0
0, 0
0, 0
0, 0
0, 0
0, 0
0, 0
0, 0
0, 0
0, 0
0, 0
0, 0
0, 0
0, 0
0, 0
0, 0
0, 0
0, 0
0, 0
0, 0
0, 0
0, 0
0, 0
0, 0
0, 0
0, 0
0, 0
0, 0
0, 0
0, 0
0, 0
0, 0
0, 0
0, 0
0, 0
0, 0
0, 0
#ENDOFDATA     end of spectrum data