File: host_upload/06-09-2024/ps_0852/dump3/ps__0852shot_2122.msa
#FORMAT      : EMSA/MAS spectral data file
#VERSION     : TC202v2.0 PIXL
#TITLE       : N/A
#DATE        :       Date in the format DD-MMM-YYYY, for example 07-JUL-2010
#TIME        :             The time of day at which the spectrum was recorded, in 24-hour format
#OWNER       : PIXL Flight Model       (PIXL will use this to indicate which instrument took the data.)
#NPOINTS     : 4096     Number of data points in the spectrum (This can be zero for configuration only files)
#NCOLUMNS    : 2     Number of data columns in the spectrum (This can be zero for configuration only files)
#XUNITS      : eV
#YUNITS      : COUNTS
#DATATYPE    : YY
#XPERCHAN    : 7.862, 7.881   eV per channel (separate by commas if more than one detector)
#OFFSET      : 18.5, -22.4         eV of first channel  (separate by commas if more than one detector
#SIGNALTYPE  : XRF
#YP_TEMP     : 2.332
#LIVETIME    : 8.56876, 8.57036   seconds (separate by commas if more than one detector)
#REALTIME    : 10, 10.0   seconds (separate by commas if more than one detector)
#SPECTRUM    : start of spectrum data
0, 0
0, 0
0, 0
0, 0
0, 0
0, 0
0, 0
0, 0
0, 0
1, 3
0, 1
44, 41
63, 50
6, 9
6, 4
117, 87
447, 379
131, 95
4, 7
0, 1
3, 2
13, 13
10, 2
19, 12
38, 42
60, 43
24, 22
14, 14
5, 5
3, 3
4, 3
5, 3
5, 5
37, 57
92, 90
18, 20
8, 13
20, 18
5, 21
2, 13
19, 6
33, 15
17, 16
18, 28
9, 58
5, 26
7, 11
6, 10
12, 7
26, 19
20, 19
10, 11
14, 19
58, 36
65, 55
42, 18
34, 39
432, 524
2081, 1977
1569, 1212
178, 131
20, 18
28, 18
99, 121
323, 316
227, 165
35, 23
7, 9
16, 15
8, 13
6, 8
0, 5
4, 8
5, 17
9, 15
4, 6
3, 6
3, 6
6, 4
17, 4
9, 3
8, 5
2, 5
7, 8
3, 5
3, 3
2, 4
1, 8
3, 3
1, 1
4, 6
4, 7
9, 5
12, 3
7, 4
3, 6
4, 1
4, 3
1, 2
3, 3
3, 4
2, 5
2, 2
5, 1
2, 2
2, 3
5, 5
1, 0
1, 2
1, 3
2, 2
3, 2
3, 1
2, 0
2, 7
4, 3
4, 4
4, 2
3, 3
1, 1
1, 2
0, 0
3, 1
2, 2
0, 0
0, 0
2, 1
2, 1
2, 1
1, 2
1, 1
1, 1
0, 0
0, 0
0, 3
1, 0
1, 0
0, 1
2, 0
1, 2
1, 0
1, 2
0, 0
0, 0
0, 0
0, 0
1, 1
0, 0
0, 0
1, 0
0, 0
0, 2
0, 0
1, 0
1, 0
0, 0
1, 1
1, 0
0, 0
0, 0
1, 1
0, 0
0, 0
0, 0
0, 0
1, 0
1, 0
0, 0
0, 0
1, 0
2, 0
2, 0
0, 0
0, 1
0, 0
0, 0
0, 0
0, 0
0, 0
0, 0
0, 0
0, 0
0, 0
0, 0
0, 0
0, 1
0, 1
0, 0
0, 0
0, 0
0, 0
0, 0
0, 0
0, 0
0, 0
0, 0
0, 0
0, 0
0, 0
0, 0
0, 0
0, 0
0, 0
0, 0
0, 0
0, 0
0, 1
0, 0
0, 0
0, 0
0, 0
0, 0
0, 0
0, 0
0, 0
0, 0
0, 0
0, 0
0, 0
0, 0
0, 0
0, 0
0, 0
0, 0
0, 0
0, 0
0, 0
0, 0
0, 0
0, 0
0, 0
0, 0
0, 0
0, 0
0, 0
0, 0
0, 0
0, 0
0, 0
0, 0
0, 0
0, 0
0, 0
0, 0
0, 0
0, 0
0, 0
0, 0
0, 0
0, 0
0, 0
0, 0
0, 0
0, 0
0, 0
0, 0
0, 0
0, 0
0, 0
0, 0
0, 0
0, 0
0, 0
0, 0
0, 0
0, 0
0, 0
0, 0
0, 0
0, 0
0, 0
0, 0
0, 0
0, 0
0, 0
0, 0
0, 0
0, 0
0, 0
0, 0
0, 0
0, 0
0, 0
0, 0
0, 0
0, 0
0, 0
0, 0
0, 0
0, 0
0, 0
0, 0
0, 0
0, 0
#ENDOFDATA     end of spectrum data