File: host_upload/06-09-2024/ps_0852/dump3/ps__0852shot_2389.msa
#FORMAT      : EMSA/MAS spectral data file
#VERSION     : TC202v2.0 PIXL
#TITLE       : N/A
#DATE        :       Date in the format DD-MMM-YYYY, for example 07-JUL-2010
#TIME        :             The time of day at which the spectrum was recorded, in 24-hour format
#OWNER       : PIXL Flight Model       (PIXL will use this to indicate which instrument took the data.)
#NPOINTS     : 4096     Number of data points in the spectrum (This can be zero for configuration only files)
#NCOLUMNS    : 2     Number of data columns in the spectrum (This can be zero for configuration only files)
#XUNITS      : eV
#YUNITS      : COUNTS
#DATATYPE    : YY
#XPERCHAN    : 7.862, 7.881   eV per channel (separate by commas if more than one detector)
#OFFSET      : 18.5, -22.4         eV of first channel  (separate by commas if more than one detector
#SIGNALTYPE  : XRF
#YP_TEMP     : 2.267
#LIVETIME    : 8.55167, 8.55142   seconds (separate by commas if more than one detector)
#REALTIME    : 10, 10.0   seconds (separate by commas if more than one detector)
#SPECTRUM    : start of spectrum data
0, 0
0, 0
0, 0
0, 0
0, 0
0, 0
0, 0
0, 0
1, 0
4, 1
4, 3
42, 47
59, 56
14, 4
10, 8
109, 108
436, 416
129, 111
8, 0
0, 3
1, 3
3, 6
5, 1
8, 4
67, 16
113, 23
32, 18
11, 10
4, 2
2, 4
1, 3
3, 2
3, 9
6, 22
16, 20
5, 7
5, 4
11, 7
11, 1
16, 3
21, 4
13, 9
21, 11
11, 10
1, 7
5, 13
1, 12
7, 24
6, 14
10, 39
9, 43
12, 16
22, 14
71, 39
87, 52
22, 20
41, 34
527, 549
2261, 2236
1647, 1360
198, 118
15, 20
22, 37
103, 116
377, 326
217, 185
40, 15
20, 8
21, 8
11, 6
5, 4
2, 1
0, 1
8, 3
6, 2
16, 5
8, 6
1, 13
4, 11
6, 7
13, 9
5, 9
1, 5
5, 4
2, 4
7, 2
3, 2
3, 4
4, 5
5, 4
13, 4
11, 1
8, 6
4, 14
6, 10
0, 4
7, 4
1, 6
6, 3
2, 3
3, 2
1, 2
2, 1
6, 4
2, 1
0, 2
2, 0
4, 2
2, 3
3, 0
0, 2
2, 1
1, 3
4, 4
0, 3
4, 3
5, 5
11, 3
4, 2
0, 1
2, 2
2, 2
0, 1
2, 2
1, 0
1, 0
0, 2
0, 1
2, 3
2, 0
2, 3
1, 0
1, 1
2, 3
0, 1
1, 0
0, 1
0, 1
0, 0
1, 2
1, 1
0, 2
1, 1
0, 1
0, 1
0, 2
0, 1
0, 0
2, 0
0, 0
0, 0
0, 2
0, 1
1, 0
1, 0
1, 2
1, 0
0, 0
1, 0
1, 0
1, 0
0, 1
1, 1
0, 0
0, 0
0, 0
0, 0
1, 1
2, 0
0, 0
0, 0
0, 0
1, 0
0, 1
0, 0
0, 0
0, 0
0, 0
0, 0
0, 0
0, 0
0, 1
1, 1
1, 0
0, 0
0, 0
0, 0
0, 0
0, 0
0, 0
0, 0
0, 0
0, 0
0, 0
0, 0
0, 0
0, 0
0, 0
0, 0
0, 0
0, 0
0, 0
0, 0
0, 0
0, 0
0, 0
0, 0
0, 0
0, 0
0, 0
0, 0
0, 0
0, 0
0, 0
0, 0
0, 0
0, 0
0, 0
0, 0
0, 0
0, 0
0, 0
0, 0
0, 0
0, 0
0, 0
0, 0
0, 0
0, 0
0, 0
0, 0
0, 0
0, 0
0, 0
0, 0
0, 0
0, 0
0, 0
0, 0
0, 0
0, 0
0, 0
0, 0
0, 0
0, 0
0, 0
0, 0
0, 0
0, 0
0, 0
0, 0
0, 0
0, 0
0, 0
0, 0
0, 0
0, 0
0, 0
0, 0
0, 0
0, 0
0, 0
0, 0
0, 0
0, 0
0, 0
0, 0
0, 0
0, 0
0, 0
0, 0
0, 0
0, 0
0, 0
0, 0
0, 0
0, 0
0, 0
0, 0
0, 0
0, 0
0, 0
0, 0
0, 0
0, 0
0, 0
0, 0
0, 0
0, 0
0, 0
0, 0
0, 0
0, 0
0, 0
#ENDOFDATA     end of spectrum data