File: host_upload/06-09-2024/ps_0852/dump3/ps__0852shot_2446.msa
#FORMAT      : EMSA/MAS spectral data file
#VERSION     : TC202v2.0 PIXL
#TITLE       : N/A
#DATE        :       Date in the format DD-MMM-YYYY, for example 07-JUL-2010
#TIME        :             The time of day at which the spectrum was recorded, in 24-hour format
#OWNER       : PIXL Flight Model       (PIXL will use this to indicate which instrument took the data.)
#NPOINTS     : 4096     Number of data points in the spectrum (This can be zero for configuration only files)
#NCOLUMNS    : 2     Number of data columns in the spectrum (This can be zero for configuration only files)
#XUNITS      : eV
#YUNITS      : COUNTS
#DATATYPE    : YY
#XPERCHAN    : 7.862, 7.881   eV per channel (separate by commas if more than one detector)
#OFFSET      : 18.5, -22.4         eV of first channel  (separate by commas if more than one detector
#SIGNALTYPE  : XRF
#YP_TEMP     : 2.203
#LIVETIME    : 8.56464, 8.55517   seconds (separate by commas if more than one detector)
#REALTIME    : 10, 10.0   seconds (separate by commas if more than one detector)
#SPECTRUM    : start of spectrum data
0, 0
0, 0
0, 0
0, 0
0, 0
0, 0
0, 0
0, 0
0, 1
0, 2
4, 2
54, 38
58, 58
8, 4
1, 3
86, 102
413, 449
91, 79
9, 6
1, 0
3, 2
14, 5
6, 2
7, 18
34, 80
61, 106
29, 26
25, 24
6, 5
6, 3
1, 3
7, 4
6, 7
13, 15
15, 18
11, 8
6, 8
7, 7
35, 9
39, 9
25, 8
13, 17
17, 15
35, 18
74, 11
27, 3
11, 8
10, 8
12, 12
19, 26
25, 14
10, 17
10, 15
60, 35
59, 58
33, 40
41, 44
483, 597
2241, 2275
1605, 1312
215, 133
33, 22
20, 24
96, 112
293, 360
220, 198
36, 26
18, 11
19, 20
15, 11
6, 8
3, 3
4, 5
12, 7
16, 10
7, 5
2, 3
2, 4
8, 2
7, 7
3, 6
7, 6
4, 3
7, 5
6, 6
5, 7
5, 11
3, 3
6, 3
4, 8
3, 7
7, 2
5, 6
2, 7
4, 5
4, 2
6, 7
1, 0
0, 0
3, 2
2, 3
1, 3
4, 4
4, 2
1, 1
1, 0
2, 5
4, 3
3, 1
3, 3
3, 4
4, 2
1, 2
1, 0
3, 1
1, 2
2, 2
3, 2
2, 1
1, 5
0, 4
2, 3
2, 6
3, 3
2, 0
2, 2
0, 1
2, 2
0, 1
1, 0
0, 0
4, 0
1, 1
3, 0
0, 0
0, 0
0, 0
0, 0
0, 1
1, 1
0, 1
0, 0
0, 2
0, 0
0, 3
0, 0
1, 1
2, 0
0, 0
1, 1
0, 0
0, 2
0, 0
1, 0
1, 1
1, 0
0, 0
0, 1
0, 0
0, 0
0, 0
0, 0
0, 0
0, 0
1, 1
0, 0
0, 0
0, 0
0, 1
0, 0
0, 1
0, 0
0, 0
0, 0
0, 0
1, 0
0, 0
0, 0
1, 1
0, 0
0, 0
0, 0
1, 0
0, 0
0, 0
0, 0
0, 0
0, 0
0, 0
0, 0
0, 0
0, 0
0, 0
0, 0
0, 0
0, 0
0, 1
0, 0
0, 0
0, 0
0, 0
0, 0
0, 0
0, 0
0, 0
0, 0
0, 0
0, 1
0, 0
0, 0
0, 0
0, 0
0, 0
0, 0
0, 0
0, 0
0, 0
0, 0
0, 0
0, 0
0, 0
0, 0
0, 0
0, 0
0, 0
0, 0
0, 0
0, 0
0, 0
0, 0
0, 0
0, 0
0, 0
0, 0
0, 0
0, 0
0, 0
0, 0
0, 0
0, 0
0, 0
0, 0
0, 0
0, 0
0, 0
0, 0
0, 0
0, 0
0, 0
0, 0
0, 0
0, 0
0, 0
0, 0
0, 0
0, 0
0, 0
0, 0
0, 0
0, 0
0, 0
0, 0
0, 0
0, 0
0, 0
0, 0
0, 0
0, 0
0, 0
0, 0
0, 0
0, 0
0, 0
0, 0
0, 0
0, 0
0, 0
0, 0
0, 0
0, 0
0, 0
0, 0
0, 0
0, 0
0, 0
0, 0
0, 0
0, 0
0, 0
0, 0
0, 0
0, 0
0, 0
0, 0
#ENDOFDATA     end of spectrum data