File: host_upload/06-09-2024/ps_0852/dump3/ps__0852shot_2060.msa
#FORMAT      : EMSA/MAS spectral data file
#VERSION     : TC202v2.0 PIXL
#TITLE       : N/A
#DATE        :       Date in the format DD-MMM-YYYY, for example 07-JUL-2010
#TIME        :             The time of day at which the spectrum was recorded, in 24-hour format
#OWNER       : PIXL Flight Model       (PIXL will use this to indicate which instrument took the data.)
#NPOINTS     : 4096     Number of data points in the spectrum (This can be zero for configuration only files)
#NCOLUMNS    : 2     Number of data columns in the spectrum (This can be zero for configuration only files)
#XUNITS      : eV
#YUNITS      : COUNTS
#DATATYPE    : YY
#XPERCHAN    : 7.862, 7.881   eV per channel (separate by commas if more than one detector)
#OFFSET      : 18.5, -22.4         eV of first channel  (separate by commas if more than one detector
#SIGNALTYPE  : XRF
#YP_TEMP     : 2.492
#LIVETIME    : 8.54476, 8.52161   seconds (separate by commas if more than one detector)
#REALTIME    : 10, 10.0   seconds (separate by commas if more than one detector)
#SPECTRUM    : start of spectrum data
0, 0
0, 0
0, 0
0, 0
0, 0
0, 0
0, 0
0, 0
0, 0
4, 0
0, 3
57, 48
54, 60
8, 7
2, 0
99, 101
389, 424
101, 110
6, 7
0, 2
1, 0
3, 3
2, 5
2, 2
19, 16
30, 15
19, 8
14, 10
2, 8
5, 4
0, 6
2, 3
2, 3
11, 8
14, 17
4, 2
5, 6
6, 4
3, 2
23, 1
21, 4
17, 12
20, 21
8, 15
3, 11
6, 9
6, 14
5, 15
7, 7
15, 12
17, 12
15, 8
43, 6
87, 45
70, 56
19, 26
36, 23
492, 585
2063, 2256
1541, 1448
199, 175
10, 15
18, 24
94, 110
341, 326
256, 214
54, 22
11, 4
18, 17
6, 6
6, 3
3, 6
4, 10
3, 3
4, 5
7, 5
8, 8
11, 11
10, 4
24, 12
7, 8
1, 7
1, 2
2, 4
5, 1
2, 6
1, 3
2, 5
3, 3
2, 1
4, 6
7, 9
3, 9
3, 17
3, 15
4, 8
4, 3
1, 5
0, 5
2, 1
4, 5
1, 3
2, 2
1, 2
2, 2
1, 1
3, 0
2, 4
1, 4
4, 2
3, 3
2, 2
1, 4
1, 1
2, 2
5, 5
2, 3
6, 2
6, 2
2, 1
1, 2
3, 1
0, 3
1, 2
0, 1
0, 0
2, 2
0, 1
3, 0
1, 0
3, 4
3, 1
2, 0
1, 1
0, 0
0, 1
2, 0
1, 0
2, 0
1, 1
0, 0
0, 0
0, 1
0, 1
2, 2
1, 1
1, 0
2, 0
1, 1
1, 0
0, 0
2, 0
0, 0
0, 0
3, 1
0, 1
0, 0
1, 0
0, 0
0, 0
0, 1
0, 1
1, 0
0, 0
0, 0
0, 0
0, 0
1, 0
0, 0
0, 0
0, 0
0, 0
0, 0
1, 0
0, 0
0, 0
1, 0
0, 0
0, 0
0, 0
0, 0
0, 0
0, 0
0, 1
0, 0
0, 0
0, 0
0, 1
0, 0
0, 1
0, 0
0, 1
0, 0
0, 0
0, 0
0, 1
0, 0
1, 0
0, 0
0, 0
1, 0
0, 0
0, 0
0, 0
0, 0
0, 0
0, 0
0, 0
0, 0
0, 0
0, 0
0, 0
0, 0
0, 0
0, 0
0, 0
0, 0
0, 0
0, 0
0, 0
0, 0
0, 0
0, 0
0, 0
0, 0
0, 0
0, 0
0, 0
0, 0
0, 0
0, 0
0, 0
0, 0
0, 0
0, 0
0, 0
0, 0
0, 0
0, 0
0, 0
0, 0
0, 0
0, 0
0, 0
0, 0
0, 0
0, 0
0, 0
0, 0
0, 0
0, 0
0, 0
0, 0
0, 0
0, 0
0, 0
0, 0
0, 0
0, 0
0, 0
0, 0
0, 0
0, 0
0, 0
0, 0
0, 0
0, 0
0, 0
0, 0
0, 0
0, 0
0, 0
0, 0
0, 0
0, 0
0, 0
0, 0
0, 0
0, 0
0, 0
0, 0
0, 0
0, 0
0, 0
0, 0
0, 0
0, 0
0, 0
0, 0
0, 0
0, 0
0, 0
0, 0
0, 0
#ENDOFDATA     end of spectrum data