File: host_upload/06-09-2024/ps_0852/dump3/ps__0852shot_2158.msa
#FORMAT      : EMSA/MAS spectral data file
#VERSION     : TC202v2.0 PIXL
#TITLE       : N/A
#DATE        :       Date in the format DD-MMM-YYYY, for example 07-JUL-2010
#TIME        :             The time of day at which the spectrum was recorded, in 24-hour format
#OWNER       : PIXL Flight Model       (PIXL will use this to indicate which instrument took the data.)
#NPOINTS     : 4096     Number of data points in the spectrum (This can be zero for configuration only files)
#NCOLUMNS    : 2     Number of data columns in the spectrum (This can be zero for configuration only files)
#XUNITS      : eV
#YUNITS      : COUNTS
#DATATYPE    : YY
#XPERCHAN    : 7.862, 7.881   eV per channel (separate by commas if more than one detector)
#OFFSET      : 18.5, -22.4         eV of first channel  (separate by commas if more than one detector
#SIGNALTYPE  : XRF
#YP_TEMP     : 2.428
#LIVETIME    : 8.57589, 8.55216   seconds (separate by commas if more than one detector)
#REALTIME    : 10, 10.0   seconds (separate by commas if more than one detector)
#SPECTRUM    : start of spectrum data
0, 0
0, 0
0, 0
0, 0
0, 0
0, 0
0, 0
0, 1
0, 2
3, 2
3, 0
36, 27
46, 59
8, 6
5, 5
70, 87
325, 380
85, 88
4, 4
1, 1
49, 56
209, 305
114, 128
24, 56
44, 57
52, 55
25, 31
22, 13
9, 8
5, 2
4, 2
1, 1
7, 9
69, 71
105, 113
21, 22
12, 14
14, 20
8, 6
2, 3
4, 3
10, 18
13, 26
7, 13
9, 14
5, 53
6, 55
5, 15
11, 10
21, 25
27, 26
10, 9
14, 11
32, 52
61, 59
18, 22
28, 31
412, 600
1858, 2326
1405, 1400
225, 152
18, 23
15, 29
100, 115
279, 319
176, 196
27, 28
8, 14
10, 28
7, 15
8, 4
5, 7
3, 6
6, 11
5, 5
0, 6
3, 4
6, 7
5, 2
7, 3
2, 6
2, 5
4, 5
3, 13
4, 7
0, 4
3, 5
2, 4
4, 6
2, 7
3, 9
2, 7
5, 4
3, 3
4, 4
3, 6
3, 4
1, 1
6, 4
10, 1
5, 4
4, 3
1, 3
3, 0
4, 2
1, 4
1, 1
2, 1
3, 3
0, 0
2, 3
0, 4
2, 3
1, 4
3, 5
3, 3
2, 3
2, 3
0, 1
4, 2
3, 0
1, 0
1, 2
1, 2
1, 1
0, 2
2, 2
1, 1
0, 1
2, 1
2, 1
2, 2
0, 0
2, 0
1, 2
0, 2
0, 0
0, 0
1, 1
0, 0
0, 1
0, 0
1, 2
1, 0
1, 0
0, 0
2, 0
1, 1
0, 1
0, 1
0, 1
0, 0
0, 1
0, 0
2, 1
0, 0
0, 0
1, 0
0, 0
0, 2
0, 0
1, 0
0, 0
1, 0
0, 0
0, 0
0, 0
0, 1
0, 1
0, 0
0, 0
0, 0
0, 0
0, 0
0, 0
1, 1
0, 0
0, 0
0, 0
1, 0
0, 0
0, 0
0, 0
0, 0
0, 0
0, 0
0, 0
0, 0
0, 0
0, 0
0, 0
0, 0
0, 0
0, 0
0, 0
0, 0
0, 0
0, 0
0, 0
0, 0
0, 1
0, 0
0, 0
0, 0
0, 0
0, 0
0, 0
0, 0
0, 0
0, 0
0, 0
0, 0
0, 0
0, 0
0, 0
0, 0
0, 0
0, 0
0, 0
0, 0
0, 0
0, 0
0, 0
0, 0
0, 0
0, 0
0, 0
0, 0
0, 0
0, 0
0, 0
0, 0
0, 0
0, 0
0, 0
0, 0
0, 0
0, 0
0, 0
0, 0
0, 0
0, 0
0, 0
0, 0
0, 0
0, 0
0, 0
0, 0
0, 0
0, 0
0, 0
0, 0
0, 0
0, 0
0, 0
0, 0
0, 0
0, 0
0, 0
0, 0
0, 0
0, 0
0, 0
0, 0
0, 0
0, 0
0, 0
0, 0
0, 0
0, 0
0, 0
0, 0
0, 0
0, 0
0, 0
0, 0
0, 0
0, 0
0, 0
0, 0
0, 0
0, 0
0, 0
0, 0
0, 0
0, 0
0, 0
0, 0
0, 0
0, 0
0, 0
0, 0
0, 0
0, 0
#ENDOFDATA     end of spectrum data