File: host_upload/06-09-2024/ps_0852/dump3/ps__0852shot_2480.msa
#FORMAT      : EMSA/MAS spectral data file
#VERSION     : TC202v2.0 PIXL
#TITLE       : N/A
#DATE        :       Date in the format DD-MMM-YYYY, for example 07-JUL-2010
#TIME        :             The time of day at which the spectrum was recorded, in 24-hour format
#OWNER       : PIXL Flight Model       (PIXL will use this to indicate which instrument took the data.)
#NPOINTS     : 4096     Number of data points in the spectrum (This can be zero for configuration only files)
#NCOLUMNS    : 2     Number of data columns in the spectrum (This can be zero for configuration only files)
#XUNITS      : eV
#YUNITS      : COUNTS
#DATATYPE    : YY
#XPERCHAN    : 7.862, 7.881   eV per channel (separate by commas if more than one detector)
#OFFSET      : 18.5, -22.4         eV of first channel  (separate by commas if more than one detector
#SIGNALTYPE  : XRF
#YP_TEMP     : 2.203
#LIVETIME    : 8.58167, 8.5644   seconds (separate by commas if more than one detector)
#REALTIME    : 10, 10.0   seconds (separate by commas if more than one detector)
#SPECTRUM    : start of spectrum data
0, 0
0, 0
0, 0
0, 0
0, 0
0, 0
0, 0
2, 0
0, 0
2, 1
4, 4
54, 40
71, 59
7, 2
4, 1
106, 78
426, 371
116, 88
7, 6
1, 2
3, 1
3, 3
1, 3
1, 4
20, 16
34, 26
28, 22
17, 7
5, 3
1, 2
0, 2
2, 2
9, 5
32, 4
20, 13
3, 1
5, 4
5, 5
2, 7
6, 4
6, 5
13, 6
22, 20
12, 15
7, 2
12, 4
4, 6
2, 9
19, 18
66, 41
54, 29
25, 22
15, 29
52, 43
88, 40
37, 26
31, 36
517, 484
2337, 2070
1636, 1281
175, 126
21, 14
29, 22
111, 110
314, 318
229, 182
28, 17
9, 7
13, 9
12, 5
4, 2
5, 2
4, 5
2, 8
7, 5
7, 4
7, 6
4, 5
2, 5
5, 7
2, 6
4, 7
2, 11
3, 19
3, 14
0, 5
3, 5
3, 7
3, 5
2, 6
4, 2
1, 0
4, 1
4, 2
3, 4
3, 2
2, 0
7, 2
4, 3
7, 1
3, 2
7, 6
3, 1
0, 2
1, 3
5, 2
2, 0
4, 2
1, 0
1, 1
1, 1
2, 3
1, 0
4, 3
2, 1
2, 3
9, 3
2, 3
3, 0
0, 0
3, 2
4, 3
1, 2
0, 1
1, 0
2, 0
0, 1
0, 2
0, 0
0, 1
0, 0
0, 0
0, 0
1, 1
0, 1
0, 1
1, 0
2, 3
1, 1
0, 0
1, 0
1, 0
0, 1
0, 0
1, 0
0, 0
0, 0
0, 0
0, 0
0, 1
0, 0
2, 1
0, 0
0, 0
3, 1
0, 0
0, 0
1, 0
0, 1
1, 0
0, 0
0, 1
0, 0
0, 0
0, 0
1, 0
0, 0
0, 1
0, 0
0, 0
0, 0
0, 1
0, 0
1, 0
1, 0
0, 1
0, 0
0, 0
0, 0
0, 0
0, 0
0, 0
0, 0
0, 0
0, 0
1, 1
0, 0
0, 0
0, 0
0, 0
0, 0
0, 0
0, 0
0, 0
0, 0
0, 0
0, 0
0, 0
0, 0
0, 0
0, 0
0, 0
0, 0
0, 0
0, 1
0, 0
0, 0
0, 0
0, 0
0, 0
0, 0
0, 1
0, 1
0, 0
0, 0
0, 0
0, 0
0, 0
0, 0
0, 0
0, 0
0, 0
0, 0
0, 0
0, 0
0, 0
0, 0
0, 0
0, 0
0, 0
0, 0
0, 0
0, 0
0, 0
0, 0
0, 0
0, 0
0, 0
0, 0
0, 0
0, 0
0, 0
0, 0
0, 0
0, 0
0, 0
0, 0
0, 0
0, 0
0, 0
0, 0
0, 0
0, 0
0, 0
0, 0
0, 0
0, 0
0, 0
0, 0
0, 0
0, 0
0, 0
0, 0
0, 0
0, 0
0, 0
0, 0
0, 0
0, 0
0, 0
0, 0
0, 0
0, 0
0, 0
0, 0
0, 0
0, 0
0, 0
0, 0
0, 0
0, 0
0, 0
0, 0
0, 0
0, 0
0, 0
0, 0
0, 0
0, 0
0, 0
0, 0
0, 0
0, 0
0, 0
#ENDOFDATA     end of spectrum data