File: host_upload/06-09-2024/ps_0852/dump3/ps__0852shot_2554.msa
#FORMAT      : EMSA/MAS spectral data file
#VERSION     : TC202v2.0 PIXL
#TITLE       : N/A
#DATE        :       Date in the format DD-MMM-YYYY, for example 07-JUL-2010
#TIME        :             The time of day at which the spectrum was recorded, in 24-hour format
#OWNER       : PIXL Flight Model       (PIXL will use this to indicate which instrument took the data.)
#NPOINTS     : 4096     Number of data points in the spectrum (This can be zero for configuration only files)
#NCOLUMNS    : 2     Number of data columns in the spectrum (This can be zero for configuration only files)
#XUNITS      : eV
#YUNITS      : COUNTS
#DATATYPE    : YY
#XPERCHAN    : 7.862, 7.881   eV per channel (separate by commas if more than one detector)
#OFFSET      : 18.5, -22.4         eV of first channel  (separate by commas if more than one detector
#SIGNALTYPE  : XRF
#YP_TEMP     : 2.46
#LIVETIME    : 8.54601, 8.54698   seconds (separate by commas if more than one detector)
#REALTIME    : 10, 10.0   seconds (separate by commas if more than one detector)
#SPECTRUM    : start of spectrum data
0, 0
0, 0
0, 0
0, 0
0, 0
0, 0
0, 0
0, 0
0, 0
1, 0
2, 5
55, 54
61, 40
14, 3
6, 4
102, 95
476, 446
120, 107
6, 6
1, 0
0, 2
2, 1
2, 3
9, 2
18, 23
28, 15
12, 15
13, 7
2, 7
1, 2
0, 2
0, 2
4, 3
22, 15
19, 15
2, 1
5, 1
3, 2
3, 4
3, 4
3, 6
9, 13
13, 11
10, 9
1, 5
7, 5
5, 4
3, 6
3, 4
18, 12
18, 9
7, 9
7, 18
43, 66
87, 75
47, 28
32, 30
449, 607
2296, 2291
1652, 1428
189, 154
20, 12
19, 24
113, 130
331, 322
212, 192
33, 23
22, 8
24, 15
9, 8
3, 6
4, 3
3, 4
5, 5
3, 17
2, 11
5, 4
4, 3
6, 3
5, 5
6, 3
17, 3
21, 2
3, 4
5, 1
4, 1
6, 2
6, 1
5, 2
3, 4
3, 2
3, 2
4, 2
2, 3
4, 2
2, 3
4, 0
4, 1
3, 3
5, 5
2, 2
1, 3
2, 1
2, 1
3, 3
1, 0
4, 1
1, 1
1, 3
1, 1
0, 1
4, 1
4, 1
1, 2
3, 5
5, 5
7, 3
6, 6
0, 3
1, 0
1, 0
1, 2
1, 3
1, 0
0, 1
1, 0
2, 0
1, 2
1, 1
2, 0
2, 1
2, 1
0, 1
1, 0
0, 2
1, 1
0, 1
1, 1
0, 0
0, 0
2, 0
1, 1
1, 0
0, 2
0, 0
0, 1
0, 1
1, 0
1, 0
1, 0
1, 0
1, 0
0, 0
1, 0
0, 0
0, 0
1, 0
1, 1
1, 0
0, 0
1, 0
0, 0
0, 0
0, 0
0, 0
1, 0
1, 0
0, 0
0, 0
0, 0
0, 0
1, 0
0, 0
0, 0
1, 1
0, 1
0, 0
0, 1
0, 0
1, 0
0, 0
0, 0
0, 0
0, 0
0, 0
1, 0
0, 1
0, 1
0, 0
0, 0
0, 0
0, 0
0, 0
0, 0
0, 0
0, 0
0, 0
0, 0
0, 0
0, 0
0, 0
0, 0
0, 0
0, 0
0, 0
0, 0
0, 0
0, 0
0, 0
0, 0
0, 0
0, 0
0, 1
0, 0
0, 0
0, 0
0, 0
0, 0
0, 0
0, 0
0, 0
0, 0
0, 0
0, 0
0, 0
0, 0
0, 0
0, 0
0, 0
0, 0
0, 0
0, 0
0, 0
0, 0
0, 0
0, 0
0, 0
0, 0
0, 0
0, 0
0, 0
0, 0
0, 0
0, 0
0, 0
0, 0
0, 0
0, 0
0, 0
0, 0
0, 0
0, 0
0, 0
0, 0
0, 0
0, 0
0, 0
0, 0
0, 0
0, 0
0, 0
0, 0
0, 0
0, 0
0, 0
0, 0
0, 0
0, 0
0, 0
0, 0
0, 0
0, 0
0, 0
0, 0
0, 0
0, 0
0, 0
0, 0
0, 0
0, 0
0, 0
0, 0
0, 0
0, 0
0, 0
0, 0
0, 0
0, 0
0, 0
0, 0
0, 0
0, 0
0, 0
0, 0
#ENDOFDATA     end of spectrum data