File: host_upload/06-09-2024/ps_0852/dump3/ps__0852shot_2129.msa
#FORMAT      : EMSA/MAS spectral data file
#VERSION     : TC202v2.0 PIXL
#TITLE       : N/A
#DATE        :       Date in the format DD-MMM-YYYY, for example 07-JUL-2010
#TIME        :             The time of day at which the spectrum was recorded, in 24-hour format
#OWNER       : PIXL Flight Model       (PIXL will use this to indicate which instrument took the data.)
#NPOINTS     : 4096     Number of data points in the spectrum (This can be zero for configuration only files)
#NCOLUMNS    : 2     Number of data columns in the spectrum (This can be zero for configuration only files)
#XUNITS      : eV
#YUNITS      : COUNTS
#DATATYPE    : YY
#XPERCHAN    : 7.862, 7.881   eV per channel (separate by commas if more than one detector)
#OFFSET      : 18.5, -22.4         eV of first channel  (separate by commas if more than one detector
#SIGNALTYPE  : XRF
#YP_TEMP     : 2.46
#LIVETIME    : 8.56787, 8.54167   seconds (separate by commas if more than one detector)
#REALTIME    : 10, 10.0   seconds (separate by commas if more than one detector)
#SPECTRUM    : start of spectrum data
0, 0
0, 0
0, 0
0, 0
0, 0
0, 0
0, 0
0, 0
1, 0
0, 0
3, 2
40, 36
56, 61
14, 2
4, 2
96, 124
416, 442
124, 102
8, 3
2, 2
0, 1
6, 8
5, 2
7, 13
42, 47
42, 41
25, 26
9, 9
8, 7
3, 3
2, 2
0, 2
9, 3
29, 21
47, 25
9, 3
12, 7
6, 5
11, 3
5, 3
0, 4
12, 11
15, 22
11, 15
11, 6
10, 16
8, 55
5, 102
7, 34
19, 16
16, 16
16, 10
6, 18
32, 38
51, 58
22, 31
32, 44
487, 602
2063, 2421
1476, 1369
204, 135
25, 19
39, 29
123, 119
257, 338
219, 242
22, 58
3, 13
14, 19
5, 29
3, 12
7, 6
4, 4
7, 4
7, 3
2, 4
12, 2
8, 2
4, 3
5, 0
3, 3
4, 5
5, 3
8, 3
1, 5
3, 6
1, 9
4, 8
6, 6
3, 2
2, 2
1, 2
2, 12
1, 4
3, 7
1, 1
7, 5
1, 2
3, 0
2, 3
1, 0
3, 1
1, 4
3, 4
2, 5
2, 1
1, 1
0, 2
1, 0
1, 2
1, 1
2, 2
1, 1
3, 0
0, 3
1, 6
2, 5
5, 3
0, 0
1, 1
1, 2
0, 2
5, 2
1, 0
0, 2
0, 1
0, 1
0, 0
2, 2
0, 3
1, 1
0, 1
2, 1
0, 2
1, 0
0, 0
0, 0
0, 1
1, 0
0, 0
0, 1
1, 2
1, 2
0, 0
1, 0
1, 1
0, 0
0, 0
1, 0
2, 2
0, 0
1, 0
0, 0
2, 0
0, 0
0, 0
0, 0
1, 0
0, 1
0, 1
0, 0
0, 1
1, 0
0, 0
0, 0
0, 0
0, 0
0, 0
1, 0
0, 0
0, 1
0, 1
0, 0
0, 0
1, 1
0, 0
0, 0
0, 0
0, 0
1, 0
0, 0
0, 0
0, 0
0, 0
0, 0
0, 0
1, 0
0, 0
0, 0
0, 0
0, 0
0, 0
0, 1
0, 0
0, 0
0, 0
0, 0
0, 0
0, 0
0, 0
0, 0
0, 0
0, 0
0, 0
0, 0
0, 0
0, 0
0, 0
0, 0
0, 0
0, 0
0, 0
0, 0
0, 0
0, 0
0, 0
0, 0
0, 0
0, 0
0, 0
0, 0
0, 0
0, 0
0, 0
0, 0
0, 0
0, 0
0, 0
0, 0
0, 0
0, 0
0, 0
0, 0
0, 0
0, 0
0, 0
0, 0
0, 0
0, 0
0, 0
0, 0
0, 0
1, 0
0, 0
0, 0
0, 0
0, 0
0, 0
0, 0
0, 0
0, 0
0, 0
0, 0
0, 0
0, 0
0, 0
0, 0
0, 0
0, 0
0, 0
0, 0
0, 0
0, 0
0, 0
0, 0
0, 0
0, 0
0, 0
0, 0
0, 0
0, 0
0, 0
0, 0
0, 0
0, 0
0, 0
0, 0
0, 0
0, 0
0, 0
0, 0
0, 0
0, 0
0, 0
0, 0
0, 0
0, 0
0, 0
0, 0
0, 0
0, 0
0, 0
0, 0
0, 0
#ENDOFDATA     end of spectrum data