File: host_upload/06-09-2024/ps_0852/dump3/ps__0852shot_2011.msa
#FORMAT      : EMSA/MAS spectral data file
#VERSION     : TC202v2.0 PIXL
#TITLE       : N/A
#DATE        :       Date in the format DD-MMM-YYYY, for example 07-JUL-2010
#TIME        :             The time of day at which the spectrum was recorded, in 24-hour format
#OWNER       : PIXL Flight Model       (PIXL will use this to indicate which instrument took the data.)
#NPOINTS     : 4096     Number of data points in the spectrum (This can be zero for configuration only files)
#NCOLUMNS    : 2     Number of data columns in the spectrum (This can be zero for configuration only files)
#XUNITS      : eV
#YUNITS      : COUNTS
#DATATYPE    : YY
#XPERCHAN    : 7.862, 7.881   eV per channel (separate by commas if more than one detector)
#OFFSET      : 18.5, -22.4         eV of first channel  (separate by commas if more than one detector
#SIGNALTYPE  : XRF
#YP_TEMP     : 2.396
#LIVETIME    : 8.56245, 8.56231   seconds (separate by commas if more than one detector)
#REALTIME    : 10, 10.0   seconds (separate by commas if more than one detector)
#SPECTRUM    : start of spectrum data
0, 0
0, 0
0, 0
0, 0
0, 0
0, 0
0, 0
0, 0
2, 1
2, 0
2, 3
38, 40
57, 28
6, 3
4, 2
58, 55
301, 263
88, 53
7, 3
4, 3
37, 22
111, 134
60, 48
25, 23
85, 70
77, 66
35, 35
29, 15
6, 20
3, 7
1, 1
7, 1
7, 4
28, 34
50, 25
7, 14
10, 5
13, 8
9, 8
11, 7
3, 5
13, 9
21, 7
19, 20
8, 14
4, 10
6, 6
8, 13
12, 9
8, 7
12, 7
13, 9
22, 8
46, 55
76, 54
25, 22
33, 45
556, 548
2342, 2154
1707, 1270
239, 141
14, 15
17, 30
98, 120
360, 335
259, 179
38, 22
10, 6
11, 15
9, 9
5, 6
6, 5
2, 3
8, 4
4, 2
5, 2
9, 5
7, 5
3, 4
12, 5
3, 4
5, 13
2, 8
2, 16
6, 18
3, 11
9, 6
9, 7
3, 0
4, 1
3, 5
4, 2
6, 1
3, 4
3, 5
1, 0
2, 2
3, 6
0, 1
2, 0
4, 2
4, 2
2, 3
3, 3
3, 3
4, 5
3, 5
3, 2
2, 5
2, 1
1, 2
3, 4
2, 3
1, 0
2, 2
2, 5
5, 6
3, 5
1, 3
0, 1
1, 1
0, 0
1, 0
0, 3
0, 0
3, 1
0, 1
0, 0
1, 1
2, 1
2, 1
1, 1
2, 1
0, 0
4, 0
0, 1
1, 1
2, 0
1, 2
0, 0
2, 0
3, 0
1, 0
0, 0
0, 0
0, 2
0, 0
0, 0
0, 1
0, 0
1, 0
0, 0
1, 1
0, 0
1, 0
0, 0
1, 0
1, 0
0, 0
0, 0
1, 0
0, 0
0, 0
1, 0
0, 0
1, 0
0, 0
0, 0
0, 0
0, 0
1, 0
2, 1
1, 0
0, 0
0, 0
0, 0
0, 0
1, 0
0, 0
1, 0
0, 0
0, 0
1, 0
0, 0
0, 0
0, 0
0, 0
0, 0
0, 0
0, 0
0, 0
0, 0
0, 0
0, 0
0, 0
0, 0
1, 0
0, 0
0, 0
0, 0
0, 0
0, 0
0, 0
0, 0
0, 0
0, 0
0, 0
0, 0
0, 0
0, 0
0, 0
0, 0
0, 0
0, 0
0, 0
0, 0
0, 0
1, 0
0, 0
0, 0
0, 0
0, 0
0, 0
0, 0
0, 0
0, 0
0, 0
0, 0
0, 0
0, 0
0, 0
0, 0
0, 0
0, 0
1, 0
0, 0
0, 0
0, 0
0, 0
0, 0
0, 0
0, 0
0, 0
0, 0
0, 0
0, 0
0, 0
0, 0
0, 0
0, 0
0, 0
0, 0
0, 0
0, 0
0, 0
0, 0
0, 0
0, 0
0, 0
0, 0
0, 0
0, 0
0, 0
0, 0
0, 0
0, 0
0, 0
0, 0
0, 0
0, 0
0, 0
0, 0
0, 0
0, 0
0, 0
0, 0
0, 0
0, 0
0, 0
0, 0
0, 0
0, 0
0, 0
0, 0
0, 0
0, 0
0, 0
0, 0
0, 0
0, 0
0, 0
0, 0
0, 0
0, 0
#ENDOFDATA     end of spectrum data