File: host_upload/06-09-2024/ps_0852/dump3/ps__0852shot_2019.msa
#FORMAT      : EMSA/MAS spectral data file
#VERSION     : TC202v2.0 PIXL
#TITLE       : N/A
#DATE        :       Date in the format DD-MMM-YYYY, for example 07-JUL-2010
#TIME        :             The time of day at which the spectrum was recorded, in 24-hour format
#OWNER       : PIXL Flight Model       (PIXL will use this to indicate which instrument took the data.)
#NPOINTS     : 4096     Number of data points in the spectrum (This can be zero for configuration only files)
#NCOLUMNS    : 2     Number of data columns in the spectrum (This can be zero for configuration only files)
#XUNITS      : eV
#YUNITS      : COUNTS
#DATATYPE    : YY
#XPERCHAN    : 7.862, 7.881   eV per channel (separate by commas if more than one detector)
#OFFSET      : 18.5, -22.4         eV of first channel  (separate by commas if more than one detector
#SIGNALTYPE  : XRF
#YP_TEMP     : 2.235
#LIVETIME    : 8.56699, 8.55934   seconds (separate by commas if more than one detector)
#REALTIME    : 10, 10.0   seconds (separate by commas if more than one detector)
#SPECTRUM    : start of spectrum data
0, 0
0, 0
0, 0
0, 0
0, 0
0, 0
0, 0
0, 0
1, 2
4, 1
2, 1
39, 44
69, 59
6, 4
6, 2
99, 111
418, 414
100, 97
3, 9
0, 2
7, 5
23, 25
8, 11
12, 6
43, 35
62, 38
17, 36
16, 15
0, 5
1, 2
1, 4
4, 3
9, 23
11, 79
20, 32
6, 8
0, 8
9, 5
16, 13
13, 6
17, 3
8, 13
18, 15
16, 14
6, 7
3, 13
5, 19
4, 7
15, 6
11, 19
11, 19
26, 24
33, 30
43, 49
61, 57
19, 19
34, 40
459, 562
2054, 2233
1545, 1331
194, 165
12, 24
35, 48
137, 130
352, 338
218, 210
36, 21
12, 9
22, 14
12, 5
7, 8
1, 5
1, 5
8, 5
4, 6
13, 2
11, 5
5, 10
10, 9
10, 8
5, 9
3, 1
5, 3
3, 5
6, 1
5, 4
3, 8
5, 2
2, 3
5, 3
4, 6
3, 3
3, 3
4, 4
4, 4
2, 4
3, 2
3, 3
3, 2
3, 1
2, 1
3, 4
6, 2
7, 3
3, 1
3, 2
0, 3
0, 0
1, 1
3, 2
1, 3
1, 5
2, 0
2, 1
0, 1
1, 4
7, 6
3, 5
3, 2
2, 1
0, 0
1, 2
1, 3
3, 0
0, 2
1, 0
2, 1
0, 1
0, 2
1, 2
0, 1
0, 2
1, 0
0, 1
3, 2
1, 1
0, 0
1, 0
0, 2
1, 0
0, 0
1, 0
1, 1
1, 1
0, 0
0, 1
0, 0
0, 0
1, 1
1, 0
0, 0
0, 0
0, 1
1, 0
2, 0
0, 0
0, 1
0, 0
0, 0
0, 1
1, 1
2, 1
0, 0
0, 0
0, 0
0, 0
0, 0
0, 0
0, 0
0, 0
1, 1
0, 0
0, 0
0, 0
1, 0
0, 0
0, 0
0, 0
0, 0
0, 1
0, 0
0, 0
0, 0
0, 1
0, 0
0, 0
0, 0
0, 0
0, 0
0, 0
0, 0
0, 0
0, 0
0, 0
0, 0
0, 0
0, 0
0, 0
0, 0
0, 0
0, 0
0, 0
0, 0
0, 0
0, 0
0, 0
0, 0
0, 0
0, 0
0, 0
0, 0
0, 0
0, 0
0, 0
0, 0
0, 0
0, 0
0, 0
0, 0
0, 0
0, 0
0, 0
0, 0
0, 0
0, 0
0, 0
0, 0
0, 0
0, 0
0, 0
0, 0
0, 0
0, 0
0, 0
0, 0
0, 0
0, 0
0, 0
0, 0
0, 0
0, 0
0, 0
0, 0
0, 0
0, 0
0, 0
0, 0
0, 0
0, 0
0, 0
0, 0
0, 0
0, 0
0, 0
0, 0
0, 0
0, 0
0, 0
0, 0
0, 0
0, 0
0, 0
0, 0
0, 0
0, 0
0, 0
0, 0
0, 0
0, 0
0, 0
0, 0
0, 0
0, 0
0, 0
0, 0
0, 0
0, 0
0, 0
0, 0
0, 0
0, 0
0, 0
0, 0
0, 0
0, 0
0, 0
0, 0
0, 0
0, 0
0, 0
0, 0
0, 0
0, 0
0, 0
#ENDOFDATA     end of spectrum data