File: host_upload/06-09-2024/ps_0852/dump3/ps__0852shot_2016.msa
#FORMAT      : EMSA/MAS spectral data file
#VERSION     : TC202v2.0 PIXL
#TITLE       : N/A
#DATE        :       Date in the format DD-MMM-YYYY, for example 07-JUL-2010
#TIME        :             The time of day at which the spectrum was recorded, in 24-hour format
#OWNER       : PIXL Flight Model       (PIXL will use this to indicate which instrument took the data.)
#NPOINTS     : 4096     Number of data points in the spectrum (This can be zero for configuration only files)
#NCOLUMNS    : 2     Number of data columns in the spectrum (This can be zero for configuration only files)
#XUNITS      : eV
#YUNITS      : COUNTS
#DATATYPE    : YY
#XPERCHAN    : 7.862, 7.881   eV per channel (separate by commas if more than one detector)
#OFFSET      : 18.5, -22.4         eV of first channel  (separate by commas if more than one detector
#SIGNALTYPE  : XRF
#YP_TEMP     : 2.588
#LIVETIME    : 8.55081, 8.56877   seconds (separate by commas if more than one detector)
#REALTIME    : 10, 10.0   seconds (separate by commas if more than one detector)
#SPECTRUM    : start of spectrum data
0, 0
0, 0
0, 0
0, 0
0, 0
0, 0
0, 0
0, 0
2, 0
0, 0
2, 1
38, 44
49, 53
2, 8
3, 6
89, 113
382, 435
107, 102
6, 2
1, 3
3, 10
12, 22
7, 13
11, 16
25, 31
36, 27
17, 26
18, 10
3, 10
5, 5
2, 2
1, 3
6, 3
19, 13
13, 16
3, 5
2, 10
5, 6
4, 12
2, 9
7, 5
17, 7
36, 14
43, 15
9, 8
6, 9
8, 9
4, 16
11, 15
15, 24
15, 29
12, 11
15, 12
46, 47
68, 65
38, 22
40, 53
457, 593
2080, 2328
1489, 1472
209, 177
20, 19
21, 26
91, 133
294, 373
203, 188
37, 21
2, 10
12, 20
8, 16
3, 6
5, 4
5, 2
8, 3
4, 8
7, 6
9, 8
5, 4
6, 6
3, 4
2, 6
0, 7
4, 5
3, 3
8, 5
8, 6
2, 4
6, 5
12, 6
10, 4
5, 3
2, 2
5, 2
5, 6
2, 6
0, 2
1, 5
4, 2
2, 1
3, 2
2, 0
2, 2
2, 3
3, 1
4, 0
4, 1
0, 2
5, 4
0, 4
1, 0
1, 2
0, 1
1, 4
5, 4
2, 1
2, 4
3, 8
4, 5
2, 5
1, 2
1, 0
1, 3
0, 2
2, 2
0, 2
1, 1
1, 1
0, 4
1, 0
3, 2
3, 1
1, 1
0, 2
0, 1
0, 0
0, 1
0, 1
1, 0
1, 0
0, 1
1, 1
0, 2
1, 2
1, 0
0, 0
1, 2
0, 0
0, 0
0, 0
0, 1
0, 1
2, 0
0, 1
0, 1
0, 0
0, 0
1, 1
0, 0
0, 0
0, 0
0, 0
0, 0
0, 0
0, 0
0, 1
0, 0
0, 0
0, 0
0, 0
0, 0
1, 0
0, 0
1, 2
0, 0
0, 0
0, 1
0, 0
0, 0
0, 0
0, 0
0, 0
0, 0
0, 0
0, 0
0, 0
0, 0
0, 0
0, 0
0, 0
0, 0
0, 0
0, 0
0, 0
0, 0
0, 0
0, 0
0, 0
0, 0
0, 0
0, 0
0, 0
1, 0
0, 0
0, 0
0, 0
0, 0
1, 0
0, 0
0, 0
0, 0
0, 0
0, 0
0, 0
0, 0
0, 0
0, 0
0, 0
0, 0
0, 0
0, 0
0, 0
0, 0
0, 0
0, 0
0, 0
0, 0
0, 0
0, 0
0, 0
0, 0
0, 0
0, 0
0, 0
0, 0
0, 0
0, 0
0, 0
0, 0
0, 0
0, 0
0, 0
0, 0
0, 0
0, 0
0, 0
0, 0
0, 0
0, 0
0, 0
0, 0
0, 0
0, 0
0, 0
0, 0
0, 0
0, 0
0, 0
0, 0
0, 0
0, 0
0, 0
0, 0
0, 0
0, 0
0, 0
0, 0
0, 0
0, 0
0, 0
0, 0
0, 0
0, 0
0, 0
0, 0
0, 0
0, 0
0, 0
0, 0
0, 0
0, 0
0, 0
0, 0
0, 0
0, 0
0, 0
0, 0
0, 0
0, 0
0, 0
0, 0
0, 0
0, 0
0, 0
0, 0
#ENDOFDATA     end of spectrum data