File: host_upload/06-09-2024/ps_0852/dump3/ps__0852shot_2403.msa
#FORMAT      : EMSA/MAS spectral data file
#VERSION     : TC202v2.0 PIXL
#TITLE       : N/A
#DATE        :       Date in the format DD-MMM-YYYY, for example 07-JUL-2010
#TIME        :             The time of day at which the spectrum was recorded, in 24-hour format
#OWNER       : PIXL Flight Model       (PIXL will use this to indicate which instrument took the data.)
#NPOINTS     : 4096     Number of data points in the spectrum (This can be zero for configuration only files)
#NCOLUMNS    : 2     Number of data columns in the spectrum (This can be zero for configuration only files)
#XUNITS      : eV
#YUNITS      : COUNTS
#DATATYPE    : YY
#XPERCHAN    : 7.862, 7.881   eV per channel (separate by commas if more than one detector)
#OFFSET      : 18.5, -22.4         eV of first channel  (separate by commas if more than one detector
#SIGNALTYPE  : XRF
#YP_TEMP     : 2.3
#LIVETIME    : 8.56358, 8.53622   seconds (separate by commas if more than one detector)
#REALTIME    : 10, 10.0   seconds (separate by commas if more than one detector)
#SPECTRUM    : start of spectrum data
0, 0
0, 0
0, 0
0, 0
0, 0
0, 0
0, 0
1, 0
1, 2
3, 0
4, 3
59, 51
58, 51
3, 2
5, 1
100, 83
439, 428
111, 100
3, 6
3, 2
4, 2
2, 6
6, 9
9, 11
55, 31
84, 48
20, 25
8, 15
4, 4
4, 1
5, 1
1, 3
17, 4
47, 29
52, 41
9, 12
5, 15
14, 16
7, 7
10, 9
9, 8
8, 9
11, 19
18, 9
5, 14
9, 12
5, 10
9, 15
9, 14
24, 18
27, 17
25, 9
33, 15
47, 44
52, 50
22, 21
25, 43
501, 533
2232, 2231
1673, 1344
201, 137
19, 26
24, 27
97, 124
346, 337
220, 162
31, 46
10, 22
18, 20
10, 8
4, 8
5, 6
5, 6
3, 6
4, 5
9, 11
6, 10
7, 2
10, 8
3, 3
3, 5
4, 3
4, 5
6, 0
4, 5
7, 4
8, 5
7, 4
8, 8
7, 6
3, 5
4, 4
0, 6
4, 1
6, 1
3, 2
2, 4
3, 1
1, 4
2, 1
3, 4
1, 2
2, 4
4, 4
5, 1
0, 4
0, 4
3, 4
2, 0
3, 1
4, 5
3, 3
0, 1
2, 0
0, 1
2, 2
7, 6
3, 2
2, 3
0, 3
1, 2
3, 1
5, 0
0, 3
1, 0
3, 0
2, 1
0, 2
0, 0
0, 0
1, 2
0, 2
0, 2
2, 0
2, 0
0, 0
0, 0
0, 0
1, 0
2, 0
0, 0
1, 1
0, 0
0, 2
0, 0
2, 1
0, 1
0, 0
1, 2
1, 0
2, 0
1, 0
0, 0
0, 0
0, 0
1, 1
0, 0
1, 0
1, 0
0, 0
0, 0
0, 0
0, 0
0, 0
0, 0
0, 0
1, 0
0, 0
0, 0
1, 0
0, 0
0, 0
0, 1
0, 1
0, 0
0, 0
1, 1
0, 0
0, 0
0, 0
0, 0
0, 0
0, 1
0, 0
0, 0
0, 0
0, 0
0, 0
0, 0
0, 0
1, 0
0, 0
0, 0
0, 0
0, 0
0, 0
0, 0
0, 1
0, 0
0, 0
0, 0
0, 0
0, 0
0, 0
0, 0
0, 0
0, 0
0, 0
0, 0
0, 0
0, 0
0, 0
0, 0
0, 0
0, 0
0, 0
0, 0
0, 0
0, 0
0, 0
0, 0
0, 0
0, 0
0, 0
0, 0
0, 0
0, 0
0, 0
0, 0
0, 0
0, 0
0, 0
0, 0
0, 0
0, 0
0, 0
0, 0
0, 0
0, 0
0, 0
0, 0
0, 0
0, 0
0, 0
0, 0
0, 0
0, 0
0, 0
0, 0
0, 0
0, 0
0, 0
0, 0
0, 0
0, 0
0, 0
0, 0
0, 0
0, 0
0, 0
0, 0
0, 0
0, 0
0, 0
0, 0
0, 0
0, 0
0, 0
0, 0
0, 0
0, 0
0, 0
0, 0
0, 0
0, 0
0, 0
0, 0
0, 0
0, 0
0, 0
0, 0
0, 0
0, 0
0, 0
0, 0
0, 0
0, 0
0, 0
0, 0
0, 0
0, 0
0, 0
0, 0
0, 0
#ENDOFDATA     end of spectrum data