File: host_upload/06-09-2024/ps_0852/dump3/ps__0852shot_2167.msa
#FORMAT      : EMSA/MAS spectral data file
#VERSION     : TC202v2.0 PIXL
#TITLE       : N/A
#DATE        :       Date in the format DD-MMM-YYYY, for example 07-JUL-2010
#TIME        :             The time of day at which the spectrum was recorded, in 24-hour format
#OWNER       : PIXL Flight Model       (PIXL will use this to indicate which instrument took the data.)
#NPOINTS     : 4096     Number of data points in the spectrum (This can be zero for configuration only files)
#NCOLUMNS    : 2     Number of data columns in the spectrum (This can be zero for configuration only files)
#XUNITS      : eV
#YUNITS      : COUNTS
#DATATYPE    : YY
#XPERCHAN    : 7.862, 7.881   eV per channel (separate by commas if more than one detector)
#OFFSET      : 18.5, -22.4         eV of first channel  (separate by commas if more than one detector
#SIGNALTYPE  : XRF
#YP_TEMP     : 2.652
#LIVETIME    : 8.55061, 8.5729   seconds (separate by commas if more than one detector)
#REALTIME    : 10, 10.0   seconds (separate by commas if more than one detector)
#SPECTRUM    : start of spectrum data
0, 0
0, 0
0, 0
0, 0
0, 0
0, 0
0, 0
0, 0
1, 0
2, 0
2, 4
57, 57
67, 57
11, 9
3, 7
102, 116
434, 420
115, 99
8, 6
0, 2
2, 0
3, 2
5, 3
13, 2
16, 19
25, 19
16, 18
10, 10
3, 1
1, 0
2, 2
1, 2
4, 5
26, 37
45, 50
15, 8
5, 5
5, 10
3, 3
2, 2
3, 1
7, 11
11, 19
6, 6
6, 4
7, 4
8, 6
2, 6
7, 11
36, 13
104, 11
42, 9
11, 7
52, 55
107, 60
40, 15
34, 34
448, 587
2078, 2258
1638, 1343
206, 141
11, 11
16, 29
96, 124
316, 339
217, 194
27, 24
8, 5
17, 10
7, 7
3, 5
0, 8
6, 11
7, 0
10, 8
7, 7
10, 3
5, 4
4, 3
7, 4
16, 0
26, 6
18, 9
6, 3
6, 6
5, 3
3, 7
3, 4
3, 6
0, 4
3, 3
2, 3
2, 1
1, 4
4, 4
2, 3
0, 2
2, 2
1, 3
6, 1
9, 0
3, 3
3, 3
3, 3
3, 0
1, 1
1, 2
3, 1
3, 1
3, 2
5, 3
1, 1
0, 6
1, 2
2, 1
2, 1
3, 3
5, 4
3, 2
0, 0
2, 0
1, 1
0, 1
2, 2
1, 3
1, 0
0, 2
1, 1
0, 1
0, 1
1, 2
1, 3
1, 0
1, 0
0, 1
1, 1
1, 0
0, 1
1, 1
2, 1
3, 0
0, 1
1, 0
2, 1
2, 0
1, 0
2, 1
1, 2
1, 0
1, 1
0, 1
1, 1
0, 0
0, 1
0, 1
0, 0
1, 0
0, 0
0, 0
0, 0
0, 0
0, 0
0, 1
0, 0
0, 0
1, 0
0, 0
2, 0
0, 2
0, 0
0, 0
0, 1
0, 0
0, 1
0, 0
0, 0
0, 0
0, 1
0, 0
0, 0
0, 0
0, 0
1, 0
0, 0
0, 1
0, 0
0, 0
0, 0
0, 0
0, 0
0, 1
0, 0
0, 0
0, 0
0, 0
0, 0
0, 0
0, 0
0, 0
0, 0
0, 0
0, 0
0, 0
0, 0
0, 0
0, 0
1, 0
0, 0
0, 0
0, 0
0, 0
0, 0
0, 0
0, 0
0, 0
0, 0
0, 0
0, 0
0, 0
0, 0
0, 0
0, 0
0, 0
0, 0
0, 0
0, 0
0, 0
0, 0
0, 0
0, 0
0, 0
0, 0
0, 0
0, 0
0, 0
0, 0
0, 0
0, 0
0, 0
0, 0
0, 0
0, 0
0, 0
0, 0
0, 0
0, 0
0, 0
0, 0
0, 0
0, 0
0, 0
0, 0
0, 0
0, 0
0, 0
0, 0
0, 0
0, 0
0, 0
0, 0
0, 0
0, 0
0, 0
0, 0
0, 0
0, 0
0, 0
0, 0
0, 0
0, 0
0, 0
0, 0
0, 0
0, 0
0, 0
0, 0
0, 0
0, 0
0, 0
0, 0
0, 0
0, 0
0, 0
0, 0
0, 0
0, 0
0, 0
0, 0
0, 0
0, 0
0, 0
0, 0
0, 0
0, 0
#ENDOFDATA     end of spectrum data