File: host_upload/06-09-2024/ps_0852/dump3/ps__0852shot_2514.msa
#FORMAT      : EMSA/MAS spectral data file
#VERSION     : TC202v2.0 PIXL
#TITLE       : N/A
#DATE        :       Date in the format DD-MMM-YYYY, for example 07-JUL-2010
#TIME        :             The time of day at which the spectrum was recorded, in 24-hour format
#OWNER       : PIXL Flight Model       (PIXL will use this to indicate which instrument took the data.)
#NPOINTS     : 4096     Number of data points in the spectrum (This can be zero for configuration only files)
#NCOLUMNS    : 2     Number of data columns in the spectrum (This can be zero for configuration only files)
#XUNITS      : eV
#YUNITS      : COUNTS
#DATATYPE    : YY
#XPERCHAN    : 7.862, 7.881   eV per channel (separate by commas if more than one detector)
#OFFSET      : 18.5, -22.4         eV of first channel  (separate by commas if more than one detector
#SIGNALTYPE  : XRF
#YP_TEMP     : 2.3
#LIVETIME    : 8.55781, 8.55867   seconds (separate by commas if more than one detector)
#REALTIME    : 10, 10.0   seconds (separate by commas if more than one detector)
#SPECTRUM    : start of spectrum data
0, 0
0, 0
0, 0
0, 0
0, 0
0, 0
0, 0
0, 0
0, 1
1, 2
2, 1
48, 54
61, 64
6, 4
5, 5
94, 107
383, 401
87, 97
4, 9
1, 0
21, 19
106, 154
59, 79
23, 15
40, 52
55, 50
27, 30
10, 8
4, 11
2, 2
8, 4
1, 4
5, 4
15, 8
14, 12
3, 2
9, 6
7, 11
8, 18
11, 9
1, 16
10, 21
16, 21
14, 14
3, 14
4, 78
4, 26
5, 12
12, 9
27, 14
29, 9
12, 5
12, 15
37, 59
56, 69
14, 20
37, 31
441, 622
2037, 2524
1536, 1460
184, 121
14, 12
21, 33
98, 130
328, 360
226, 210
24, 25
1, 11
16, 20
10, 9
4, 2
5, 8
0, 10
3, 6
5, 13
5, 9
4, 9
4, 6
3, 5
5, 2
6, 3
4, 7
5, 8
5, 6
9, 3
3, 6
6, 5
3, 4
2, 8
7, 10
0, 13
0, 5
5, 2
3, 4
2, 2
5, 6
5, 3
3, 3
5, 4
8, 1
5, 2
4, 1
4, 1
4, 5
5, 5
2, 3
1, 5
2, 3
3, 1
1, 1
0, 2
2, 1
3, 4
1, 1
3, 2
1, 0
3, 2
2, 0
1, 6
2, 4
1, 5
2, 2
2, 4
1, 2
2, 0
0, 0
0, 1
2, 1
0, 1
0, 0
0, 1
0, 0
2, 0
1, 1
0, 0
1, 1
1, 0
1, 2
0, 0
2, 0
0, 0
0, 1
0, 3
0, 0
0, 1
0, 2
0, 1
0, 1
0, 1
0, 1
1, 0
0, 0
0, 0
0, 1
0, 0
1, 0
0, 0
1, 0
0, 0
0, 0
0, 1
0, 0
0, 0
0, 0
0, 1
0, 0
2, 0
2, 0
0, 1
0, 0
1, 1
0, 0
0, 0
1, 0
0, 0
0, 0
0, 1
2, 0
0, 0
0, 0
0, 0
0, 0
1, 0
0, 0
0, 0
0, 1
0, 0
0, 0
0, 0
0, 0
0, 0
0, 0
0, 0
0, 0
0, 1
0, 0
0, 0
0, 0
0, 0
0, 0
0, 0
0, 0
0, 0
0, 0
0, 0
0, 0
0, 0
1, 1
0, 0
0, 0
0, 0
0, 0
0, 0
0, 0
0, 0
0, 0
0, 0
0, 0
0, 0
0, 0
0, 0
0, 0
0, 0
0, 0
0, 0
0, 0
0, 0
0, 0
0, 0
0, 0
0, 0
0, 0
0, 0
0, 0
0, 0
0, 0
0, 0
0, 0
0, 0
0, 0
0, 0
0, 0
0, 0
0, 0
0, 0
0, 0
0, 0
0, 0
0, 0
0, 0
0, 0
0, 0
0, 0
0, 0
0, 0
0, 0
0, 0
0, 0
0, 0
0, 0
0, 0
0, 0
0, 0
0, 0
0, 0
0, 0
0, 0
0, 0
0, 0
0, 0
0, 0
0, 0
0, 0
0, 0
0, 0
0, 0
0, 0
0, 0
0, 0
0, 0
0, 0
0, 0
0, 0
0, 0
0, 0
0, 0
0, 0
0, 0
0, 0
0, 0
0, 0
0, 0
0, 0
0, 0
#ENDOFDATA     end of spectrum data