File: host_upload/06-09-2024/ps_0852/dump3/ps__0852shot_2025.msa
#FORMAT      : EMSA/MAS spectral data file
#VERSION     : TC202v2.0 PIXL
#TITLE       : N/A
#DATE        :       Date in the format DD-MMM-YYYY, for example 07-JUL-2010
#TIME        :             The time of day at which the spectrum was recorded, in 24-hour format
#OWNER       : PIXL Flight Model       (PIXL will use this to indicate which instrument took the data.)
#NPOINTS     : 4096     Number of data points in the spectrum (This can be zero for configuration only files)
#NCOLUMNS    : 2     Number of data columns in the spectrum (This can be zero for configuration only files)
#XUNITS      : eV
#YUNITS      : COUNTS
#DATATYPE    : YY
#XPERCHAN    : 7.862, 7.881   eV per channel (separate by commas if more than one detector)
#OFFSET      : 18.5, -22.4         eV of first channel  (separate by commas if more than one detector
#SIGNALTYPE  : XRF
#YP_TEMP     : 2.428
#LIVETIME    : 8.5581, 8.56648   seconds (separate by commas if more than one detector)
#REALTIME    : 10, 10.0   seconds (separate by commas if more than one detector)
#SPECTRUM    : start of spectrum data
0, 0
0, 0
0, 0
0, 0
0, 0
0, 0
0, 0
0, 0
1, 1
3, 0
1, 3
37, 65
49, 60
7, 3
5, 6
102, 99
434, 454
111, 110
3, 3
2, 2
0, 2
2, 4
2, 1
5, 6
39, 46
59, 52
31, 28
12, 13
6, 4
2, 4
5, 1
0, 3
1, 34
8, 96
17, 33
10, 6
9, 5
15, 4
3, 3
6, 4
19, 3
16, 8
19, 16
12, 11
4, 9
6, 13
5, 7
10, 4
8, 9
10, 24
6, 37
21, 30
40, 19
59, 35
77, 64
27, 18
43, 49
483, 584
2120, 2370
1589, 1345
218, 149
10, 24
13, 41
105, 122
321, 364
231, 175
44, 33
18, 10
18, 17
7, 11
4, 3
9, 3
3, 6
8, 10
7, 12
8, 8
6, 2
7, 9
8, 13
3, 14
6, 7
4, 3
3, 4
8, 2
7, 10
4, 18
3, 7
5, 2
5, 2
5, 6
4, 3
5, 3
4, 3
1, 2
3, 3
3, 2
1, 1
1, 0
4, 3
1, 2
1, 3
5, 8
1, 6
1, 4
6, 2
3, 2
1, 1
5, 3
2, 1
3, 2
1, 2
2, 4
3, 1
5, 4
4, 3
5, 3
3, 3
5, 5
1, 2
1, 1
1, 2
1, 3
3, 4
3, 0
1, 1
1, 1
2, 2
1, 2
3, 0
0, 2
1, 0
1, 1
2, 1
0, 0
0, 1
0, 1
0, 0
1, 1
0, 0
1, 1
2, 0
0, 0
2, 0
0, 0
1, 1
2, 0
1, 1
0, 0
1, 0
0, 0
0, 0
0, 0
1, 0
0, 0
0, 1
0, 2
0, 1
0, 1
0, 1
0, 1
1, 1
0, 0
0, 0
0, 1
0, 1
0, 1
0, 0
0, 0
0, 1
0, 0
0, 1
0, 0
1, 0
0, 0
0, 0
0, 0
0, 0
0, 0
0, 1
0, 0
0, 0
0, 0
0, 0
0, 0
0, 0
0, 0
0, 0
0, 0
0, 0
0, 0
0, 0
0, 0
0, 0
0, 0
0, 0
0, 1
0, 1
0, 0
0, 0
0, 0
0, 0
0, 0
0, 0
0, 0
0, 0
0, 0
0, 0
0, 0
0, 0
0, 0
0, 1
0, 0
0, 0
0, 0
0, 0
0, 0
0, 0
0, 0
0, 0
0, 0
0, 0
0, 0
0, 0
0, 0
0, 0
0, 0
0, 0
0, 0
0, 0
0, 0
0, 0
0, 0
0, 0
0, 0
0, 0
0, 0
0, 0
0, 0
0, 0
0, 0
0, 0
0, 0
0, 0
0, 0
0, 0
0, 0
0, 0
0, 0
0, 0
0, 0
0, 0
0, 0
0, 0
0, 0
0, 0
0, 0
0, 0
0, 0
0, 0
0, 0
0, 0
0, 0
0, 0
0, 0
0, 0
0, 0
0, 0
0, 0
0, 0
0, 0
0, 0
0, 0
0, 0
0, 0
0, 0
0, 0
0, 0
0, 0
0, 0
0, 0
0, 0
0, 0
0, 0
0, 0
0, 0
0, 0
0, 0
0, 0
0, 0
0, 0
0, 0
0, 0
0, 0
0, 0
#ENDOFDATA     end of spectrum data