File: host_upload/06-09-2024/ps_0852/dump3/ps__0852shot_2302.msa
#FORMAT      : EMSA/MAS spectral data file
#VERSION     : TC202v2.0 PIXL
#TITLE       : N/A
#DATE        :       Date in the format DD-MMM-YYYY, for example 07-JUL-2010
#TIME        :             The time of day at which the spectrum was recorded, in 24-hour format
#OWNER       : PIXL Flight Model       (PIXL will use this to indicate which instrument took the data.)
#NPOINTS     : 4096     Number of data points in the spectrum (This can be zero for configuration only files)
#NCOLUMNS    : 2     Number of data columns in the spectrum (This can be zero for configuration only files)
#XUNITS      : eV
#YUNITS      : COUNTS
#DATATYPE    : YY
#XPERCHAN    : 7.862, 7.881   eV per channel (separate by commas if more than one detector)
#OFFSET      : 18.5, -22.4         eV of first channel  (separate by commas if more than one detector
#SIGNALTYPE  : XRF
#YP_TEMP     : 2.043
#LIVETIME    : 8.56855, 8.57274   seconds (separate by commas if more than one detector)
#REALTIME    : 10, 10.0   seconds (separate by commas if more than one detector)
#SPECTRUM    : start of spectrum data
0, 0
0, 0
0, 0
0, 0
0, 0
0, 0
0, 0
0, 0
0, 0
0, 0
2, 2
52, 40
63, 50
9, 8
6, 8
106, 96
480, 399
111, 85
2, 4
2, 2
3, 0
4, 3
2, 2
3, 4
24, 21
47, 25
27, 19
17, 9
5, 2
2, 1
1, 3
4, 1
7, 7
19, 13
21, 16
5, 6
5, 6
7, 7
4, 1
1, 3
4, 7
11, 6
15, 11
5, 8
4, 5
12, 5
6, 6
7, 7
8, 5
24, 14
34, 6
16, 25
10, 30
56, 35
63, 49
27, 13
44, 30
534, 558
2311, 2175
1684, 1277
186, 135
19, 17
23, 17
116, 132
372, 357
254, 191
45, 26
19, 13
11, 20
12, 10
8, 1
4, 3
7, 1
4, 7
11, 4
7, 1
3, 6
4, 4
4, 9
6, 9
9, 3
3, 3
4, 11
4, 21
7, 23
3, 9
1, 3
2, 7
3, 5
3, 7
3, 2
2, 3
1, 2
2, 0
4, 5
1, 1
1, 4
2, 2
3, 3
2, 4
7, 3
1, 2
1, 3
5, 6
1, 5
3, 4
3, 5
7, 1
0, 2
1, 1
1, 2
4, 3
4, 3
7, 3
2, 3
2, 4
4, 6
3, 5
3, 1
1, 0
0, 0
1, 1
3, 1
1, 0
2, 1
0, 0
0, 2
2, 2
0, 2
2, 0
1, 0
1, 2
0, 0
1, 0
0, 1
1, 1
0, 1
3, 1
0, 0
0, 1
0, 1
1, 0
3, 2
1, 1
0, 1
1, 0
2, 0
1, 0
1, 0
0, 0
0, 0
0, 0
0, 0
0, 0
2, 0
0, 0
0, 0
0, 2
2, 0
0, 1
1, 1
0, 0
1, 0
0, 0
1, 0
1, 1
0, 1
0, 0
0, 2
1, 1
0, 0
0, 1
1, 0
0, 0
0, 0
0, 0
0, 0
0, 0
0, 0
0, 0
0, 0
0, 0
0, 0
1, 0
0, 0
0, 0
0, 0
0, 1
0, 0
0, 0
0, 0
0, 0
0, 0
0, 0
0, 0
0, 0
0, 0
0, 0
0, 0
0, 1
0, 0
0, 0
0, 0
0, 0
0, 0
0, 0
0, 0
0, 0
0, 0
0, 1
0, 0
0, 0
0, 0
0, 0
0, 0
0, 0
0, 0
0, 0
0, 0
0, 0
0, 0
0, 0
0, 0
0, 0
0, 0
0, 0
0, 0
0, 0
0, 0
0, 0
0, 0
0, 0
0, 0
0, 0
0, 0
0, 0
0, 0
0, 0
0, 0
0, 0
0, 0
0, 0
0, 0
0, 0
0, 0
0, 0
0, 0
0, 0
0, 0
0, 0
0, 0
0, 0
0, 0
0, 0
0, 0
0, 0
0, 0
0, 0
0, 0
0, 0
0, 0
0, 0
0, 0
0, 0
0, 0
0, 0
0, 0
0, 0
0, 0
0, 0
0, 0
0, 0
0, 0
0, 0
0, 0
0, 0
0, 0
0, 0
0, 0
0, 0
0, 0
0, 0
0, 0
0, 0
0, 0
0, 0
0, 0
0, 0
0, 0
0, 0
0, 0
0, 0
0, 0
0, 0
#ENDOFDATA     end of spectrum data