File: host_upload/06-09-2024/ps_0852/dump3/ps__0852shot_2373.msa
#FORMAT      : EMSA/MAS spectral data file
#VERSION     : TC202v2.0 PIXL
#TITLE       : N/A
#DATE        :       Date in the format DD-MMM-YYYY, for example 07-JUL-2010
#TIME        :             The time of day at which the spectrum was recorded, in 24-hour format
#OWNER       : PIXL Flight Model       (PIXL will use this to indicate which instrument took the data.)
#NPOINTS     : 4096     Number of data points in the spectrum (This can be zero for configuration only files)
#NCOLUMNS    : 2     Number of data columns in the spectrum (This can be zero for configuration only files)
#XUNITS      : eV
#YUNITS      : COUNTS
#DATATYPE    : YY
#XPERCHAN    : 7.862, 7.881   eV per channel (separate by commas if more than one detector)
#OFFSET      : 18.5, -22.4         eV of first channel  (separate by commas if more than one detector
#SIGNALTYPE  : XRF
#YP_TEMP     : 2.267
#LIVETIME    : 8.56967, 8.56177   seconds (separate by commas if more than one detector)
#REALTIME    : 10, 10.0   seconds (separate by commas if more than one detector)
#SPECTRUM    : start of spectrum data
0, 0
0, 0
0, 0
0, 0
0, 0
0, 0
0, 0
0, 0
0, 1
1, 1
5, 2
50, 56
90, 61
7, 6
4, 8
102, 83
447, 367
105, 86
7, 5
0, 0
3, 3
7, 4
4, 7
16, 8
28, 16
29, 24
15, 23
15, 13
3, 5
0, 1
2, 1
1, 2
3, 1
17, 11
29, 24
4, 5
6, 3
12, 14
0, 26
1, 13
5, 4
8, 9
19, 31
62, 35
90, 2
27, 6
9, 2
4, 5
9, 7
14, 12
13, 5
10, 7
12, 8
33, 41
68, 64
19, 22
27, 36
531, 602
2282, 2337
1651, 1345
226, 144
73, 18
69, 15
120, 104
337, 375
243, 200
25, 30
6, 13
13, 12
9, 14
1, 2
3, 1
2, 3
5, 1
3, 5
3, 9
6, 6
8, 3
7, 2
3, 4
7, 9
5, 2
7, 5
3, 6
2, 13
5, 26
5, 7
10, 2
7, 2
18, 2
21, 2
5, 5
7, 0
3, 6
2, 0
3, 3
2, 8
5, 2
3, 2
1, 5
1, 0
2, 3
1, 5
3, 3
3, 5
2, 5
2, 2
1, 2
5, 2
0, 3
0, 3
1, 1
5, 3
1, 1
4, 3
7, 1
7, 2
2, 2
2, 1
2, 3
3, 0
4, 3
4, 4
0, 0
1, 0
2, 1
2, 2
2, 2
1, 2
3, 1
2, 0
1, 1
2, 1
2, 1
1, 2
1, 1
1, 0
2, 1
0, 1
0, 0
1, 1
0, 0
0, 0
0, 0
0, 0
0, 0
1, 0
0, 1
1, 0
0, 1
1, 0
0, 0
0, 0
1, 0
1, 0
0, 0
0, 0
0, 0
2, 1
0, 1
0, 0
1, 0
1, 0
0, 0
0, 1
0, 0
0, 0
0, 0
0, 0
0, 0
0, 1
0, 0
0, 0
1, 0
1, 0
1, 0
0, 0
0, 0
0, 0
0, 0
1, 0
0, 0
0, 0
0, 0
0, 0
0, 0
0, 1
0, 0
0, 0
0, 0
0, 0
0, 0
0, 0
0, 0
0, 1
0, 1
0, 0
0, 0
0, 0
0, 0
0, 0
0, 1
0, 0
0, 0
1, 0
0, 0
0, 0
0, 0
0, 0
0, 0
0, 0
0, 0
0, 0
0, 0
0, 0
0, 0
0, 0
0, 0
0, 0
0, 0
0, 0
0, 0
0, 0
0, 0
0, 0
0, 0
0, 0
0, 0
0, 0
0, 0
0, 0
0, 0
0, 0
0, 0
0, 0
0, 0
0, 0
0, 0
0, 0
0, 0
0, 0
0, 0
0, 0
0, 0
0, 0
0, 0
0, 0
0, 0
0, 0
0, 0
0, 0
0, 0
0, 0
0, 0
0, 0
0, 0
0, 0
0, 0
0, 0
0, 0
0, 0
0, 0
0, 0
0, 0
0, 0
0, 0
0, 0
0, 0
0, 0
0, 0
0, 0
0, 0
0, 0
0, 0
0, 0
0, 0
0, 0
0, 0
0, 0
0, 0
0, 0
0, 0
0, 0
0, 0
0, 0
0, 0
0, 0
0, 0
0, 0
0, 0
0, 0
0, 0
0, 0
0, 0
#ENDOFDATA     end of spectrum data