File: host_upload/06-09-2024/ps_0852/dump3/ps__0852shot_2202.msa
#FORMAT      : EMSA/MAS spectral data file
#VERSION     : TC202v2.0 PIXL
#TITLE       : N/A
#DATE        :       Date in the format DD-MMM-YYYY, for example 07-JUL-2010
#TIME        :             The time of day at which the spectrum was recorded, in 24-hour format
#OWNER       : PIXL Flight Model       (PIXL will use this to indicate which instrument took the data.)
#NPOINTS     : 4096     Number of data points in the spectrum (This can be zero for configuration only files)
#NCOLUMNS    : 2     Number of data columns in the spectrum (This can be zero for configuration only files)
#XUNITS      : eV
#YUNITS      : COUNTS
#DATATYPE    : YY
#XPERCHAN    : 7.862, 7.881   eV per channel (separate by commas if more than one detector)
#OFFSET      : 18.5, -22.4         eV of first channel  (separate by commas if more than one detector
#SIGNALTYPE  : XRF
#YP_TEMP     : 2.332
#LIVETIME    : 8.56574, 8.56187   seconds (separate by commas if more than one detector)
#REALTIME    : 10, 10.0   seconds (separate by commas if more than one detector)
#SPECTRUM    : start of spectrum data
0, 0
0, 0
0, 0
0, 0
0, 0
0, 0
0, 0
0, 0
0, 0
0, 0
1, 3
46, 51
51, 83
7, 4
7, 3
96, 109
434, 425
123, 106
6, 6
2, 0
1, 0
2, 4
3, 2
4, 7
17, 22
41, 18
21, 16
18, 14
4, 1
3, 2
2, 2
3, 1
2, 4
10, 9
19, 11
3, 4
21, 8
17, 5
3, 2
1, 1
24, 3
141, 13
125, 11
20, 8
8, 6
5, 5
6, 10
5, 8
6, 9
8, 10
7, 17
11, 16
6, 15
28, 47
52, 52
18, 23
42, 38
462, 597
2240, 2342
1693, 1410
216, 199
19, 58
16, 40
102, 124
325, 353
216, 202
44, 21
34, 7
19, 12
8, 4
2, 7
3, 5
4, 9
4, 11
5, 7
4, 3
6, 3
4, 3
4, 3
6, 7
4, 3
6, 8
5, 6
4, 4
4, 3
3, 3
3, 9
3, 7
2, 3
1, 1
5, 2
3, 2
4, 3
3, 4
4, 3
4, 3
0, 4
2, 2
1, 4
0, 6
3, 4
0, 1
1, 1
0, 3
4, 2
2, 2
2, 1
2, 1
3, 4
3, 4
1, 2
0, 3
3, 3
3, 1
2, 3
5, 2
2, 9
2, 3
1, 0
0, 0
2, 1
1, 1
2, 0
2, 0
0, 0
4, 0
2, 0
1, 0
1, 2
2, 2
2, 1
3, 0
0, 1
3, 1
1, 1
2, 0
1, 2
0, 0
1, 0
2, 0
0, 1
0, 2
0, 1
0, 0
1, 1
0, 1
0, 0
1, 0
2, 0
0, 0
0, 1
0, 0
0, 1
0, 0
2, 0
0, 0
0, 0
1, 1
0, 0
1, 0
1, 2
0, 0
1, 0
0, 0
0, 0
0, 1
0, 0
0, 1
0, 0
0, 0
0, 0
0, 1
0, 0
0, 0
0, 0
0, 2
0, 0
0, 0
0, 0
0, 0
0, 0
0, 0
1, 0
0, 0
0, 0
0, 0
0, 0
0, 0
0, 0
0, 0
0, 0
0, 0
0, 1
0, 0
0, 0
0, 0
0, 0
0, 0
0, 0
0, 0
0, 0
0, 0
1, 0
0, 0
0, 0
0, 0
0, 0
0, 0
0, 0
0, 1
0, 0
0, 0
0, 0
0, 0
0, 0
0, 0
0, 0
0, 0
0, 0
0, 0
0, 0
0, 0
0, 0
0, 0
0, 0
0, 0
0, 0
0, 0
0, 0
0, 0
0, 0
0, 0
0, 0
0, 0
0, 0
0, 0
0, 0
0, 0
0, 0
0, 0
0, 0
0, 0
0, 0
0, 0
0, 0
0, 0
0, 0
0, 0
0, 0
0, 0
0, 0
0, 0
0, 0
0, 0
0, 0
0, 0
0, 0
0, 0
0, 0
0, 0
0, 0
0, 0
0, 0
0, 0
0, 0
0, 0
0, 0
0, 0
0, 0
0, 0
0, 0
0, 0
0, 0
0, 0
0, 0
0, 0
0, 0
0, 0
0, 0
0, 0
0, 0
0, 0
0, 0
0, 0
0, 0
0, 0
0, 0
0, 0
0, 0
0, 0
0, 0
0, 0
0, 0
0, 0
#ENDOFDATA     end of spectrum data