File: host_upload/06-09-2024/ps_0852/dump3/ps__0852shot_2443.msa
#FORMAT      : EMSA/MAS spectral data file
#VERSION     : TC202v2.0 PIXL
#TITLE       : N/A
#DATE        :       Date in the format DD-MMM-YYYY, for example 07-JUL-2010
#TIME        :             The time of day at which the spectrum was recorded, in 24-hour format
#OWNER       : PIXL Flight Model       (PIXL will use this to indicate which instrument took the data.)
#NPOINTS     : 4096     Number of data points in the spectrum (This can be zero for configuration only files)
#NCOLUMNS    : 2     Number of data columns in the spectrum (This can be zero for configuration only files)
#XUNITS      : eV
#YUNITS      : COUNTS
#DATATYPE    : YY
#XPERCHAN    : 7.862, 7.881   eV per channel (separate by commas if more than one detector)
#OFFSET      : 18.5, -22.4         eV of first channel  (separate by commas if more than one detector
#SIGNALTYPE  : XRF
#YP_TEMP     : 2.364
#LIVETIME    : 8.56465, 8.56163   seconds (separate by commas if more than one detector)
#REALTIME    : 10, 10.0   seconds (separate by commas if more than one detector)
#SPECTRUM    : start of spectrum data
0, 0
0, 0
0, 0
0, 0
0, 0
0, 0
0, 0
0, 1
2, 5
3, 23
3, 4
41, 54
59, 62
6, 6
3, 9
86, 103
446, 471
112, 106
6, 7
0, 7
1, 1
4, 5
0, 5
6, 71
34, 1125
30, 1653
16, 210
10, 10
3, 6
2, 5
6, 2
1, 2
1, 0
5, 7
16, 16
2, 8
5, 36
5, 33
6, 5
7, 4
3, 0
4, 7
8, 9
15, 10
12, 6
7, 6
4, 5
5, 4
5, 8
13, 9
9, 11
6, 7
7, 9
31, 39
55, 51
16, 20
24, 37
447, 588
2117, 2440
1548, 1436
180, 159
28, 45
11, 30
87, 121
332, 343
207, 181
18, 26
6, 10
11, 18
7, 6
10, 4
4, 6
7, 2
13, 9
19, 5
10, 4
6, 2
2, 5
6, 3
9, 4
5, 1
1, 3
1, 2
5, 3
4, 8
4, 4
7, 5
9, 4
4, 5
1, 1
2, 3
2, 2
5, 8
0, 2
4, 3
8, 2
5, 5
6, 3
3, 5
3, 9
3, 1
1, 5
1, 4
2, 2
4, 2
1, 5
1, 1
2, 2
1, 2
2, 2
5, 2
2, 2
3, 6
1, 3
3, 0
1, 1
6, 7
3, 5
1, 2
0, 1
2, 2
0, 2
4, 1
3, 1
4, 2
0, 0
1, 1
1, 0
1, 1
0, 0
0, 2
0, 0
0, 1
1, 1
1, 2
1, 0
1, 1
0, 2
0, 0
2, 1
0, 0
0, 0
0, 0
0, 0
0, 2
2, 0
1, 2
1, 0
0, 0
2, 1
0, 0
0, 0
1, 0
0, 0
0, 0
1, 1
0, 0
0, 1
2, 1
0, 0
0, 1
1, 0
0, 0
1, 1
1, 1
0, 1
0, 2
0, 1
0, 0
1, 0
0, 1
0, 0
0, 0
0, 0
0, 0
0, 1
0, 0
0, 0
0, 1
0, 0
0, 1
0, 0
0, 0
0, 0
0, 0
1, 0
0, 0
0, 0
0, 0
0, 0
0, 0
0, 0
0, 0
0, 0
0, 0
0, 0
0, 0
0, 0
0, 0
0, 0
0, 0
0, 0
0, 0
0, 1
0, 0
0, 0
0, 0
0, 0
0, 0
0, 0
0, 0
0, 1
0, 0
0, 0
0, 0
0, 0
0, 0
0, 1
0, 0
0, 0
0, 0
0, 0
0, 0
0, 0
0, 0
0, 0
0, 0
0, 0
0, 0
0, 0
0, 0
0, 0
0, 0
0, 0
0, 0
0, 0
0, 0
0, 0
0, 0
0, 0
0, 0
0, 0
0, 0
0, 0
0, 0
0, 0
0, 0
0, 0
0, 0
0, 0
0, 0
0, 0
0, 0
0, 0
0, 0
0, 0
0, 0
0, 0
0, 0
0, 0
0, 0
0, 0
0, 0
0, 0
0, 0
0, 0
0, 0
0, 0
0, 0
0, 0
0, 0
0, 0
0, 0
0, 0
0, 0
0, 0
0, 0
0, 0
0, 0
0, 0
0, 0
0, 0
0, 0
0, 0
0, 0
0, 0
0, 0
0, 0
0, 0
0, 0
0, 0
0, 0
0, 0
0, 0
#ENDOFDATA     end of spectrum data