File: host_upload/06-09-2024/ps_0852/dump3/ps__0852shot_2173.msa
#FORMAT      : EMSA/MAS spectral data file
#VERSION     : TC202v2.0 PIXL
#TITLE       : N/A
#DATE        :       Date in the format DD-MMM-YYYY, for example 07-JUL-2010
#TIME        :             The time of day at which the spectrum was recorded, in 24-hour format
#OWNER       : PIXL Flight Model       (PIXL will use this to indicate which instrument took the data.)
#NPOINTS     : 4096     Number of data points in the spectrum (This can be zero for configuration only files)
#NCOLUMNS    : 2     Number of data columns in the spectrum (This can be zero for configuration only files)
#XUNITS      : eV
#YUNITS      : COUNTS
#DATATYPE    : YY
#XPERCHAN    : 7.862, 7.881   eV per channel (separate by commas if more than one detector)
#OFFSET      : 18.5, -22.4         eV of first channel  (separate by commas if more than one detector
#SIGNALTYPE  : XRF
#YP_TEMP     : 2.46
#LIVETIME    : 8.56642, 8.54998   seconds (separate by commas if more than one detector)
#REALTIME    : 10, 10.0   seconds (separate by commas if more than one detector)
#SPECTRUM    : start of spectrum data
0, 0
0, 0
0, 0
0, 0
0, 0
0, 0
0, 0
0, 1
1, 0
1, 0
3, 2
25, 42
42, 58
5, 9
6, 6
73, 84
365, 417
113, 90
3, 4
1, 2
18, 14
62, 78
33, 33
12, 15
41, 51
41, 46
12, 22
16, 17
4, 8
1, 1
3, 1
2, 6
2, 5
8, 11
11, 11
5, 12
4, 4
2, 6
4, 2
6, 3
17, 1
55, 9
24, 9
42, 15
16, 2
4, 7
1, 6
5, 3
6, 11
12, 23
14, 23
17, 22
12, 34
45, 71
50, 70
23, 23
45, 37
413, 630
1924, 2355
1381, 1396
168, 137
18, 30
13, 26
101, 135
318, 337
221, 215
36, 27
4, 11
13, 20
10, 14
6, 7
5, 4
1, 3
3, 2
8, 7
3, 4
3, 5
6, 5
4, 3
3, 0
3, 2
5, 6
1, 3
7, 3
13, 3
8, 6
8, 7
6, 7
4, 5
4, 2
6, 5
6, 7
5, 5
6, 2
4, 1
6, 4
1, 3
3, 4
2, 1
3, 3
2, 2
3, 6
0, 5
2, 1
2, 2
0, 1
4, 4
2, 6
3, 8
2, 2
2, 2
0, 3
3, 1
1, 2
4, 0
1, 2
3, 3
6, 4
0, 1
0, 2
1, 2
1, 1
0, 2
3, 4
0, 0
0, 2
1, 1
1, 0
1, 1
3, 2
1, 0
0, 0
0, 2
2, 1
0, 1
2, 1
1, 2
1, 0
0, 0
0, 1
0, 1
1, 0
0, 0
0, 2
0, 1
0, 0
0, 0
0, 1
1, 3
0, 0
0, 0
0, 0
1, 1
0, 0
2, 0
0, 0
1, 1
0, 0
0, 1
0, 0
0, 1
0, 0
0, 1
0, 0
1, 0
0, 1
2, 0
1, 0
1, 0
0, 1
0, 0
1, 0
0, 0
0, 0
0, 0
0, 0
0, 0
0, 0
0, 0
0, 0
0, 0
0, 0
0, 0
0, 2
0, 1
0, 0
0, 0
0, 1
0, 0
0, 0
0, 0
1, 0
0, 0
0, 0
0, 0
0, 0
0, 0
0, 0
0, 0
0, 0
0, 0
0, 0
0, 1
0, 0
0, 0
0, 0
0, 0
0, 0
0, 0
0, 0
0, 0
0, 0
0, 0
0, 0
0, 0
0, 0
0, 0
0, 0
0, 0
0, 0
0, 0
0, 0
0, 0
0, 0
0, 0
0, 0
0, 0
0, 0
0, 0
0, 0
0, 0
0, 0
0, 0
0, 0
0, 0
0, 0
0, 0
0, 0
0, 0
0, 0
0, 0
0, 0
0, 0
0, 0
0, 0
0, 0
0, 0
0, 0
0, 0
0, 0
0, 0
0, 0
0, 0
0, 0
0, 0
0, 0
0, 0
0, 0
0, 0
0, 0
0, 0
0, 0
0, 0
0, 0
0, 0
0, 0
0, 0
0, 0
0, 0
0, 0
0, 0
0, 0
0, 0
0, 0
0, 0
0, 0
0, 0
0, 0
0, 0
0, 0
0, 0
0, 0
0, 0
0, 0
0, 0
0, 0
0, 0
0, 0
0, 0
0, 0
0, 0
0, 0
0, 0
0, 0
#ENDOFDATA     end of spectrum data