File: host_upload/06-09-2024/ps_0852/dump3/ps__0852shot_2355.msa
#FORMAT      : EMSA/MAS spectral data file
#VERSION     : TC202v2.0 PIXL
#TITLE       : N/A
#DATE        :       Date in the format DD-MMM-YYYY, for example 07-JUL-2010
#TIME        :             The time of day at which the spectrum was recorded, in 24-hour format
#OWNER       : PIXL Flight Model       (PIXL will use this to indicate which instrument took the data.)
#NPOINTS     : 4096     Number of data points in the spectrum (This can be zero for configuration only files)
#NCOLUMNS    : 2     Number of data columns in the spectrum (This can be zero for configuration only files)
#XUNITS      : eV
#YUNITS      : COUNTS
#DATATYPE    : YY
#XPERCHAN    : 7.862, 7.881   eV per channel (separate by commas if more than one detector)
#OFFSET      : 18.5, -22.4         eV of first channel  (separate by commas if more than one detector
#SIGNALTYPE  : XRF
#YP_TEMP     : 2.043
#LIVETIME    : 8.56523, 8.55033   seconds (separate by commas if more than one detector)
#REALTIME    : 10, 10.0   seconds (separate by commas if more than one detector)
#SPECTRUM    : start of spectrum data
0, 0
0, 0
0, 0
0, 0
0, 0
0, 0
0, 0
0, 0
1, 3
0, 2
3, 3
40, 34
61, 33
3, 4
7, 4
113, 93
453, 428
106, 88
7, 3
5, 2
11, 14
96, 99
35, 38
18, 15
55, 56
59, 49
26, 28
14, 17
7, 5
2, 5
2, 4
2, 1
3, 3
13, 9
11, 19
6, 29
3, 50
9, 10
13, 8
2, 3
8, 3
8, 5
16, 18
11, 11
8, 9
4, 6
7, 8
6, 9
5, 7
14, 9
9, 14
6, 6
14, 10
46, 36
69, 42
59, 21
75, 44
430, 593
1976, 2128
1499, 1307
187, 151
16, 27
17, 22
95, 112
301, 343
241, 158
29, 20
8, 4
15, 13
7, 12
4, 6
4, 18
5, 6
12, 12
16, 4
14, 4
8, 4
9, 7
8, 8
1, 8
0, 6
2, 4
1, 5
6, 2
1, 8
3, 1
3, 4
8, 2
14, 4
5, 5
3, 4
5, 4
3, 4
6, 10
2, 2
3, 7
2, 2
1, 5
2, 1
3, 1
1, 2
1, 2
1, 2
3, 4
0, 1
0, 4
2, 1
2, 2
3, 1
4, 1
4, 1
8, 0
4, 0
1, 1
2, 5
3, 2
4, 2
1, 1
2, 0
1, 0
2, 1
0, 2
2, 5
0, 4
1, 3
0, 0
2, 2
0, 0
0, 1
0, 1
0, 1
0, 2
0, 0
1, 0
0, 0
1, 1
1, 0
0, 1
0, 0
3, 0
2, 2
1, 2
0, 0
1, 1
2, 0
0, 0
2, 1
0, 0
1, 1
1, 0
0, 0
0, 1
0, 0
0, 0
1, 1
0, 1
1, 0
0, 0
0, 0
0, 0
1, 0
0, 0
0, 0
0, 0
1, 0
0, 0
0, 0
0, 0
1, 1
0, 0
0, 0
0, 0
0, 1
0, 0
0, 0
0, 0
0, 0
0, 0
0, 0
0, 0
0, 0
0, 0
0, 0
1, 0
0, 1
0, 1
0, 0
0, 0
0, 0
0, 0
0, 0
0, 0
0, 0
0, 0
1, 0
0, 0
0, 0
0, 0
0, 0
0, 0
0, 0
0, 0
1, 0
0, 0
0, 0
0, 0
0, 0
0, 0
0, 0
0, 0
0, 0
0, 0
0, 0
0, 0
0, 0
0, 0
0, 0
0, 0
0, 1
0, 0
0, 0
0, 0
0, 0
0, 0
0, 0
0, 0
0, 0
0, 0
0, 0
0, 0
0, 0
0, 0
0, 0
0, 0
0, 0
0, 0
0, 0
0, 0
0, 0
0, 0
0, 0
0, 0
0, 0
0, 0
0, 0
0, 0
0, 0
0, 0
0, 0
0, 0
0, 0
0, 0
0, 0
0, 0
0, 0
0, 0
0, 0
0, 0
0, 0
0, 0
0, 0
0, 0
0, 0
0, 0
0, 0
0, 0
0, 0
0, 0
0, 0
0, 0
0, 0
0, 0
0, 0
0, 0
0, 0
0, 0
0, 0
0, 0
0, 0
0, 0
0, 0
0, 0
0, 0
0, 0
0, 0
0, 0
0, 0
0, 0
0, 0
0, 0
0, 0
0, 0
0, 0
0, 0
#ENDOFDATA     end of spectrum data