File: host_upload/06-09-2024/ps_0852/dump3/ps__0852shot_2285.msa
#FORMAT      : EMSA/MAS spectral data file
#VERSION     : TC202v2.0 PIXL
#TITLE       : N/A
#DATE        :       Date in the format DD-MMM-YYYY, for example 07-JUL-2010
#TIME        :             The time of day at which the spectrum was recorded, in 24-hour format
#OWNER       : PIXL Flight Model       (PIXL will use this to indicate which instrument took the data.)
#NPOINTS     : 4096     Number of data points in the spectrum (This can be zero for configuration only files)
#NCOLUMNS    : 2     Number of data columns in the spectrum (This can be zero for configuration only files)
#XUNITS      : eV
#YUNITS      : COUNTS
#DATATYPE    : YY
#XPERCHAN    : 7.862, 7.881   eV per channel (separate by commas if more than one detector)
#OFFSET      : 18.5, -22.4         eV of first channel  (separate by commas if more than one detector
#SIGNALTYPE  : XRF
#YP_TEMP     : 2.332
#LIVETIME    : 8.54297, 8.52211   seconds (separate by commas if more than one detector)
#REALTIME    : 10, 10.0   seconds (separate by commas if more than one detector)
#SPECTRUM    : start of spectrum data
0, 0
0, 0
0, 0
0, 0
0, 0
0, 0
0, 0
1, 0
0, 2
1, 1
3, 4
36, 46
56, 68
6, 5
1, 9
76, 84
333, 412
76, 88
1, 8
1, 3
50, 50
285, 319
137, 99
28, 28
63, 61
44, 44
30, 28
14, 8
3, 3
6, 2
11, 20
11, 11
4, 6
27, 22
22, 30
5, 6
8, 4
10, 8
9, 9
3, 7
6, 7
16, 10
16, 13
9, 8
5, 5
4, 14
5, 14
2, 9
6, 9
18, 15
28, 19
20, 8
26, 11
139, 47
117, 70
21, 29
24, 41
420, 585
1914, 2498
1355, 1494
178, 144
11, 18
17, 20
93, 126
343, 391
197, 183
34, 30
7, 14
17, 14
14, 13
7, 7
3, 4
2, 4
4, 4
8, 5
5, 8
6, 3
1, 1
4, 4
3, 9
3, 6
4, 4
2, 9
4, 4
5, 4
10, 6
8, 5
6, 3
1, 1
8, 1
8, 5
4, 8
3, 8
2, 8
0, 6
3, 3
3, 5
6, 3
3, 3
0, 2
3, 2
1, 1
1, 5
0, 2
5, 3
2, 4
8, 2
8, 5
3, 1
1, 6
2, 1
5, 2
1, 2
0, 2
1, 5
2, 4
4, 3
1, 2
4, 1
2, 1
1, 0
2, 3
3, 2
3, 4
1, 0
1, 1
0, 1
2, 2
2, 1
0, 0
2, 0
0, 2
2, 0
2, 0
1, 0
0, 0
1, 0
0, 1
0, 0
1, 0
0, 1
2, 1
2, 1
0, 0
0, 0
4, 0
1, 0
0, 0
0, 0
0, 0
0, 3
2, 0
0, 0
1, 0
1, 0
0, 0
0, 0
0, 0
0, 0
0, 2
0, 0
0, 1
0, 1
0, 0
0, 0
1, 0
1, 1
0, 0
1, 0
0, 0
0, 0
0, 0
0, 0
0, 0
0, 0
0, 0
0, 2
0, 0
0, 0
0, 1
0, 0
0, 1
1, 1
1, 0
1, 0
1, 0
0, 0
1, 0
1, 0
0, 0
0, 0
0, 1
0, 0
0, 0
0, 0
0, 0
0, 0
0, 0
0, 0
0, 0
0, 0
0, 0
0, 0
0, 1
0, 0
0, 0
0, 0
0, 0
0, 0
0, 0
0, 0
0, 0
0, 0
0, 0
0, 0
0, 0
0, 0
0, 0
0, 0
0, 0
0, 0
0, 0
0, 0
0, 0
0, 0
0, 0
0, 0
0, 0
0, 0
0, 0
0, 0
0, 0
0, 0
0, 0
0, 0
0, 0
0, 0
0, 0
0, 0
0, 0
0, 0
0, 0
0, 0
0, 0
0, 0
0, 0
0, 0
0, 0
0, 0
0, 0
0, 0
0, 0
0, 0
0, 0
0, 0
0, 0
0, 0
0, 0
0, 0
0, 0
0, 0
0, 0
0, 0
0, 0
0, 0
0, 0
0, 0
0, 0
0, 0
0, 0
0, 0
0, 0
0, 0
0, 0
0, 0
0, 0
0, 0
0, 0
0, 0
0, 0
0, 0
0, 0
0, 0
0, 0
0, 0
0, 0
0, 0
0, 0
0, 0
0, 0
0, 0
0, 0
0, 0
0, 0
#ENDOFDATA     end of spectrum data