File: host_upload/06-09-2024/ps_0852/dump3/ps__0852shot_2497.msa
#FORMAT      : EMSA/MAS spectral data file
#VERSION     : TC202v2.0 PIXL
#TITLE       : N/A
#DATE        :       Date in the format DD-MMM-YYYY, for example 07-JUL-2010
#TIME        :             The time of day at which the spectrum was recorded, in 24-hour format
#OWNER       : PIXL Flight Model       (PIXL will use this to indicate which instrument took the data.)
#NPOINTS     : 4096     Number of data points in the spectrum (This can be zero for configuration only files)
#NCOLUMNS    : 2     Number of data columns in the spectrum (This can be zero for configuration only files)
#XUNITS      : eV
#YUNITS      : COUNTS
#DATATYPE    : YY
#XPERCHAN    : 7.862, 7.881   eV per channel (separate by commas if more than one detector)
#OFFSET      : 18.5, -22.4         eV of first channel  (separate by commas if more than one detector
#SIGNALTYPE  : XRF
#YP_TEMP     : 2.556
#LIVETIME    : 8.5636, 8.55238   seconds (separate by commas if more than one detector)
#REALTIME    : 10, 10.0   seconds (separate by commas if more than one detector)
#SPECTRUM    : start of spectrum data
0, 0
0, 0
0, 0
0, 0
0, 0
0, 0
0, 0
0, 0
1, 0
4, 0
3, 1
37, 17
60, 50
6, 2
8, 3
118, 91
495, 393
116, 99
6, 5
0, 2
2, 4
9, 4
8, 5
24, 15
114, 90
70, 72
33, 32
19, 20
9, 5
4, 8
1, 1
1, 6
4, 1
37, 30
65, 44
14, 20
15, 8
19, 13
4, 7
3, 4
8, 2
15, 16
10, 15
16, 14
14, 5
8, 6
7, 7
4, 8
15, 9
66, 69
49, 39
18, 5
19, 12
44, 37
70, 57
21, 21
34, 40
462, 544
2338, 2022
1639, 1227
219, 120
14, 15
24, 15
96, 115
355, 332
237, 187
32, 25
7, 9
16, 14
11, 11
16, 1
10, 2
4, 13
9, 5
9, 7
14, 4
6, 4
5, 5
8, 1
5, 2
4, 4
4, 2
4, 0
6, 5
2, 12
2, 30
7, 21
3, 6
2, 7
7, 2
2, 2
3, 4
2, 2
1, 3
2, 2
2, 1
3, 1
1, 4
3, 2
3, 4
2, 5
1, 6
1, 1
2, 1
1, 1
4, 1
0, 1
8, 3
3, 1
0, 4
2, 2
3, 2
0, 2
1, 1
1, 2
2, 1
0, 1
2, 2
4, 2
2, 2
0, 4
1, 1
1, 0
1, 0
3, 1
0, 0
3, 3
1, 0
1, 0
2, 3
1, 2
0, 0
0, 0
1, 0
1, 1
3, 3
0, 0
1, 1
2, 0
1, 1
1, 0
0, 1
0, 0
0, 1
0, 1
0, 0
0, 0
2, 1
0, 0
1, 0
1, 1
0, 1
2, 0
1, 1
0, 0
0, 0
0, 1
0, 0
1, 0
0, 0
1, 0
0, 0
0, 0
1, 1
0, 0
0, 0
1, 0
1, 0
2, 0
0, 0
1, 0
0, 0
0, 0
0, 0
1, 0
1, 0
0, 1
0, 0
0, 0
0, 0
0, 0
0, 1
1, 0
0, 0
1, 0
0, 0
0, 0
1, 0
0, 0
0, 0
1, 0
0, 0
0, 0
0, 0
0, 0
1, 0
0, 0
0, 0
0, 0
0, 0
0, 0
0, 0
0, 0
0, 0
0, 0
0, 0
0, 0
0, 0
0, 1
0, 0
0, 0
0, 0
0, 0
0, 0
0, 0
0, 0
0, 0
0, 0
0, 0
0, 0
0, 0
0, 0
0, 0
0, 0
0, 0
0, 0
0, 0
0, 0
0, 0
0, 0
0, 0
0, 0
0, 0
0, 0
0, 0
0, 0
0, 0
0, 0
0, 0
0, 0
0, 0
0, 0
0, 0
0, 0
0, 0
0, 0
0, 0
0, 0
0, 0
0, 0
0, 0
0, 0
0, 0
0, 0
0, 0
0, 0
0, 0
0, 0
0, 0
0, 0
0, 0
0, 0
0, 0
0, 0
0, 0
0, 0
0, 0
0, 0
0, 0
0, 0
0, 0
0, 0
0, 0
0, 0
0, 0
0, 0
0, 0
0, 0
0, 0
0, 0
0, 0
0, 0
0, 0
0, 0
0, 0
0, 0
0, 0
0, 0
0, 0
0, 0
0, 0
0, 0
0, 0
0, 0
#ENDOFDATA     end of spectrum data