File: host_upload/06-09-2024/ps_0852/dump3/ps__0852shot_2503.msa
#FORMAT      : EMSA/MAS spectral data file
#VERSION     : TC202v2.0 PIXL
#TITLE       : N/A
#DATE        :       Date in the format DD-MMM-YYYY, for example 07-JUL-2010
#TIME        :             The time of day at which the spectrum was recorded, in 24-hour format
#OWNER       : PIXL Flight Model       (PIXL will use this to indicate which instrument took the data.)
#NPOINTS     : 4096     Number of data points in the spectrum (This can be zero for configuration only files)
#NCOLUMNS    : 2     Number of data columns in the spectrum (This can be zero for configuration only files)
#XUNITS      : eV
#YUNITS      : COUNTS
#DATATYPE    : YY
#XPERCHAN    : 7.862, 7.881   eV per channel (separate by commas if more than one detector)
#OFFSET      : 18.5, -22.4         eV of first channel  (separate by commas if more than one detector
#SIGNALTYPE  : XRF
#YP_TEMP     : 2.075
#LIVETIME    : 8.55736, 8.54779   seconds (separate by commas if more than one detector)
#REALTIME    : 10, 10.0   seconds (separate by commas if more than one detector)
#SPECTRUM    : start of spectrum data
0, 0
0, 0
0, 0
0, 0
0, 0
0, 0
0, 0
0, 0
1, 0
2, 0
3, 4
49, 36
60, 36
4, 9
8, 6
87, 66
367, 359
97, 69
4, 3
1, 1
2, 1
4, 4
2, 3
13, 5
42, 29
52, 39
57, 26
17, 8
6, 3
10, 2
1, 1
2, 2
2, 2
23, 10
17, 21
6, 5
5, 4
3, 3
9, 8
5, 4
14, 20
61, 52
54, 32
15, 26
8, 19
26, 15
17, 15
18, 12
185, 178
1162, 784
801, 499
112, 41
40, 24
105, 84
228, 193
102, 75
26, 34
399, 429
1913, 1901
1334, 1108
156, 105
18, 16
15, 23
96, 77
278, 269
194, 160
27, 17
7, 5
10, 8
4, 6
3, 0
5, 2
5, 3
7, 5
5, 3
7, 6
5, 9
2, 4
3, 4
7, 6
2, 4
6, 3
4, 2
3, 6
4, 9
7, 2
6, 16
4, 8
3, 3
1, 0
2, 3
2, 2
2, 1
3, 2
5, 5
4, 9
2, 2
3, 2
6, 4
1, 3
1, 2
3, 2
6, 1
6, 1
1, 3
1, 4
1, 3
2, 2
2, 4
6, 3
2, 1
0, 0
1, 3
0, 0
1, 2
2, 5
5, 2
4, 3
1, 1
0, 2
1, 1
1, 2
2, 1
1, 0
0, 1
1, 1
1, 0
0, 1
1, 0
0, 3
1, 2
0, 0
0, 1
1, 1
0, 1
0, 1
0, 0
0, 0
0, 0
0, 0
0, 0
0, 0
1, 0
0, 1
1, 0
0, 0
1, 1
0, 1
0, 1
1, 0
0, 1
0, 0
0, 0
0, 0
0, 0
0, 1
1, 0
2, 0
0, 0
0, 1
0, 1
2, 0
1, 0
0, 0
0, 0
1, 1
0, 0
0, 2
0, 0
0, 0
0, 0
0, 0
0, 1
0, 0
0, 0
0, 0
0, 0
0, 0
0, 0
0, 0
0, 1
0, 0
0, 1
1, 0
0, 0
0, 0
0, 0
0, 0
0, 0
0, 1
0, 0
0, 0
0, 0
0, 0
0, 0
0, 0
1, 0
0, 0
0, 0
0, 0
0, 0
0, 0
0, 0
0, 0
0, 0
0, 0
0, 0
0, 0
0, 0
0, 0
0, 0
0, 0
0, 0
0, 0
0, 0
0, 0
0, 0
0, 0
0, 0
0, 0
0, 0
1, 0
0, 0
0, 0
0, 0
0, 0
0, 0
0, 0
0, 0
0, 0
0, 0
0, 0
0, 0
0, 0
0, 0
0, 0
0, 0
0, 0
0, 0
0, 0
0, 0
0, 0
0, 0
0, 0
0, 0
0, 0
0, 0
0, 0
0, 0
0, 0
0, 0
0, 0
0, 0
0, 0
0, 0
0, 0
0, 0
0, 0
0, 0
0, 0
0, 0
0, 0
0, 0
0, 0
0, 0
0, 0
0, 0
0, 0
0, 0
0, 0
0, 0
0, 0
0, 0
0, 0
0, 0
0, 0
0, 0
0, 0
0, 0
0, 0
0, 0
0, 0
0, 0
0, 0
0, 0
0, 0
0, 0
0, 0
0, 0
0, 0
0, 0
0, 0
0, 0
0, 0
#ENDOFDATA     end of spectrum data