File: host_upload/06-09-2024/ps_0852/dump3/ps__0852shot_2297.msa
#FORMAT      : EMSA/MAS spectral data file
#VERSION     : TC202v2.0 PIXL
#TITLE       : N/A
#DATE        :       Date in the format DD-MMM-YYYY, for example 07-JUL-2010
#TIME        :             The time of day at which the spectrum was recorded, in 24-hour format
#OWNER       : PIXL Flight Model       (PIXL will use this to indicate which instrument took the data.)
#NPOINTS     : 4096     Number of data points in the spectrum (This can be zero for configuration only files)
#NCOLUMNS    : 2     Number of data columns in the spectrum (This can be zero for configuration only files)
#XUNITS      : eV
#YUNITS      : COUNTS
#DATATYPE    : YY
#XPERCHAN    : 7.862, 7.881   eV per channel (separate by commas if more than one detector)
#OFFSET      : 18.5, -22.4         eV of first channel  (separate by commas if more than one detector
#SIGNALTYPE  : XRF
#YP_TEMP     : 2.332
#LIVETIME    : 8.53485, 8.5673   seconds (separate by commas if more than one detector)
#REALTIME    : 10, 10.0   seconds (separate by commas if more than one detector)
#SPECTRUM    : start of spectrum data
0, 0
0, 0
0, 0
0, 0
0, 0
0, 0
0, 0
0, 0
0, 0
0, 1
1, 2
42, 50
47, 62
4, 5
7, 5
100, 97
446, 396
106, 83
3, 2
0, 4
1, 2
15, 19
10, 8
2, 18
34, 31
39, 29
35, 20
14, 16
3, 5
1, 0
1, 2
2, 6
3, 3
12, 12
23, 22
9, 5
4, 3
4, 10
4, 15
7, 7
4, 5
8, 9
15, 27
19, 17
6, 4
10, 5
17, 9
18, 4
19, 8
50, 17
44, 19
31, 9
23, 9
42, 41
53, 68
26, 25
19, 43
473, 529
2421, 2177
1673, 1263
212, 119
40, 18
36, 29
108, 130
377, 333
240, 193
34, 22
6, 4
7, 13
8, 8
4, 9
5, 7
6, 5
6, 5
8, 4
8, 5
6, 3
3, 2
7, 5
3, 1
3, 3
8, 3
6, 4
3, 3
12, 9
2, 12
2, 9
6, 2
5, 2
3, 3
6, 4
2, 5
2, 3
6, 3
2, 2
1, 3
5, 5
2, 4
1, 0
2, 2
1, 2
0, 3
3, 2
1, 4
2, 7
1, 6
2, 5
4, 2
1, 1
2, 2
1, 2
4, 1
1, 1
3, 0
2, 6
0, 4
4, 3
9, 4
0, 0
1, 1
0, 1
3, 1
3, 4
2, 0
3, 2
1, 0
3, 1
1, 2
3, 2
1, 3
3, 2
1, 1
1, 1
0, 2
2, 1
1, 0
0, 1
0, 0
0, 2
0, 0
0, 0
1, 2
0, 2
0, 1
2, 1
0, 0
1, 1
0, 1
0, 3
0, 0
0, 2
0, 0
0, 0
1, 0
0, 0
0, 0
1, 1
1, 0
0, 2
0, 0
0, 0
0, 0
1, 0
0, 0
0, 0
0, 0
0, 0
0, 1
1, 0
0, 0
0, 0
0, 0
1, 0
1, 0
0, 0
1, 0
0, 1
0, 0
0, 0
0, 0
0, 0
0, 0
0, 0
0, 1
0, 0
0, 0
0, 0
0, 0
0, 0
1, 0
0, 0
0, 0
1, 0
0, 0
0, 0
0, 0
0, 0
0, 0
0, 0
0, 0
0, 0
0, 0
0, 0
0, 0
0, 0
0, 0
0, 0
0, 0
1, 0
0, 0
0, 0
0, 0
0, 0
0, 0
0, 0
0, 0
0, 0
0, 0
0, 0
0, 0
0, 0
0, 0
0, 0
0, 0
0, 0
0, 0
0, 0
0, 0
0, 0
0, 0
0, 0
0, 0
0, 0
0, 0
0, 0
0, 0
0, 0
0, 0
0, 0
0, 0
0, 0
0, 0
0, 0
0, 0
0, 0
0, 0
0, 0
0, 0
0, 0
0, 0
0, 0
0, 0
0, 0
0, 0
0, 0
0, 0
0, 0
0, 0
0, 0
0, 0
0, 0
0, 0
0, 0
0, 0
0, 0
0, 0
0, 0
0, 0
0, 0
0, 0
0, 0
0, 0
0, 0
0, 0
0, 0
0, 0
0, 0
0, 0
0, 0
0, 0
0, 0
0, 0
0, 0
0, 0
0, 0
0, 0
0, 0
0, 0
0, 0
0, 0
0, 0
0, 0
0, 0
0, 0
#ENDOFDATA     end of spectrum data