File: host_upload/06-09-2024/ps_0852/dump3/ps__0852shot_2198.msa
#FORMAT      : EMSA/MAS spectral data file
#VERSION     : TC202v2.0 PIXL
#TITLE       : N/A
#DATE        :       Date in the format DD-MMM-YYYY, for example 07-JUL-2010
#TIME        :             The time of day at which the spectrum was recorded, in 24-hour format
#OWNER       : PIXL Flight Model       (PIXL will use this to indicate which instrument took the data.)
#NPOINTS     : 4096     Number of data points in the spectrum (This can be zero for configuration only files)
#NCOLUMNS    : 2     Number of data columns in the spectrum (This can be zero for configuration only files)
#XUNITS      : eV
#YUNITS      : COUNTS
#DATATYPE    : YY
#XPERCHAN    : 7.862, 7.881   eV per channel (separate by commas if more than one detector)
#OFFSET      : 18.5, -22.4         eV of first channel  (separate by commas if more than one detector
#SIGNALTYPE  : XRF
#YP_TEMP     : 2.3
#LIVETIME    : 8.57663, 8.55181   seconds (separate by commas if more than one detector)
#REALTIME    : 10, 10.0   seconds (separate by commas if more than one detector)
#SPECTRUM    : start of spectrum data
0, 0
0, 0
0, 0
0, 0
0, 0
0, 0
0, 0
0, 0
0, 0
2, 2
2, 2
49, 40
76, 40
5, 5
5, 3
96, 92
435, 411
117, 91
5, 4
2, 2
2, 0
4, 5
4, 2
6, 7
41, 35
31, 44
31, 17
15, 9
7, 3
2, 2
0, 2
11, 1
39, 1
40, 8
30, 15
4, 6
2, 1
5, 8
5, 1
4, 2
3, 7
10, 19
11, 19
16, 14
6, 6
9, 7
7, 6
4, 9
13, 13
33, 28
28, 22
20, 12
27, 12
61, 28
81, 39
36, 19
25, 38
538, 555
2262, 2302
1723, 1304
222, 150
22, 21
30, 24
139, 100
346, 347
262, 192
35, 21
9, 5
8, 8
15, 5
2, 3
4, 2
6, 4
4, 8
4, 9
7, 4
8, 7
4, 7
0, 7
7, 5
7, 3
9, 4
14, 4
9, 2
5, 0
7, 5
6, 5
7, 1
5, 3
4, 2
5, 3
2, 2
4, 5
3, 4
6, 3
4, 2
3, 4
2, 3
2, 0
2, 3
0, 0
2, 2
3, 0
0, 2
6, 3
6, 2
5, 2
0, 1
0, 3
2, 3
1, 1
1, 4
2, 1
1, 2
2, 4
2, 4
7, 6
5, 2
3, 2
1, 0
1, 2
3, 2
2, 0
1, 0
1, 1
0, 0
0, 1
1, 3
1, 0
1, 1
1, 2
0, 2
2, 1
1, 0
0, 0
0, 1
2, 1
1, 2
3, 2
1, 0
0, 0
2, 0
1, 0
0, 0
0, 1
0, 0
0, 0
0, 0
1, 1
0, 0
2, 0
0, 0
0, 1
1, 1
0, 0
0, 1
1, 0
0, 1
0, 1
0, 0
0, 0
0, 0
0, 0
1, 0
0, 1
0, 0
0, 0
0, 1
0, 0
0, 0
0, 0
1, 1
0, 0
2, 0
0, 0
1, 0
0, 1
0, 0
0, 0
0, 0
2, 1
0, 0
0, 0
0, 0
1, 0
0, 0
0, 0
0, 1
0, 0
0, 0
0, 0
0, 0
1, 0
0, 0
0, 0
0, 1
0, 0
0, 0
0, 0
0, 0
0, 0
0, 0
0, 0
1, 0
0, 0
0, 0
0, 0
0, 0
0, 0
0, 0
0, 0
0, 1
0, 0
0, 0
0, 0
0, 0
0, 0
0, 0
0, 0
0, 0
0, 0
0, 0
0, 0
0, 0
0, 0
0, 0
0, 0
0, 0
0, 0
0, 0
0, 0
0, 0
0, 0
0, 0
0, 0
0, 0
0, 0
0, 0
0, 0
0, 0
0, 0
0, 0
0, 0
0, 0
0, 0
0, 0
0, 0
0, 0
0, 0
0, 0
0, 0
0, 0
0, 0
0, 0
0, 0
0, 0
0, 0
0, 0
0, 0
0, 0
0, 0
0, 0
0, 0
0, 0
0, 0
0, 0
0, 0
0, 0
0, 0
0, 0
0, 0
0, 0
0, 0
0, 0
0, 0
0, 0
0, 0
0, 0
0, 0
0, 0
0, 0
0, 0
0, 0
0, 0
0, 0
0, 0
0, 0
0, 0
0, 0
0, 0
0, 0
0, 0
0, 0
0, 0
#ENDOFDATA     end of spectrum data