File: host_upload/06-09-2024/ps_0852/dump3/ps__0852shot_2283.msa
#FORMAT      : EMSA/MAS spectral data file
#VERSION     : TC202v2.0 PIXL
#TITLE       : N/A
#DATE        :       Date in the format DD-MMM-YYYY, for example 07-JUL-2010
#TIME        :             The time of day at which the spectrum was recorded, in 24-hour format
#OWNER       : PIXL Flight Model       (PIXL will use this to indicate which instrument took the data.)
#NPOINTS     : 4096     Number of data points in the spectrum (This can be zero for configuration only files)
#NCOLUMNS    : 2     Number of data columns in the spectrum (This can be zero for configuration only files)
#XUNITS      : eV
#YUNITS      : COUNTS
#DATATYPE    : YY
#XPERCHAN    : 7.862, 7.881   eV per channel (separate by commas if more than one detector)
#OFFSET      : 18.5, -22.4         eV of first channel  (separate by commas if more than one detector
#SIGNALTYPE  : XRF
#YP_TEMP     : 2.396
#LIVETIME    : 8.55992, 8.52522   seconds (separate by commas if more than one detector)
#REALTIME    : 10, 10.0   seconds (separate by commas if more than one detector)
#SPECTRUM    : start of spectrum data
0, 0
0, 0
0, 0
0, 0
0, 0
0, 0
0, 0
0, 0
0, 0
0, 2
1, 1
39, 36
55, 55
7, 8
7, 4
108, 135
476, 501
140, 126
7, 7
1, 4
12, 7
39, 50
25, 19
12, 8
35, 28
26, 37
13, 16
13, 17
5, 3
3, 4
3, 3
2, 5
9, 12
156, 177
232, 286
55, 27
24, 39
38, 36
12, 3
7, 4
4, 3
8, 11
7, 11
7, 7
8, 3
9, 4
6, 14
6, 16
9, 16
53, 42
64, 17
22, 6
14, 9
61, 44
89, 50
30, 16
26, 34
371, 454
1591, 1755
1129, 1073
119, 113
10, 13
12, 20
61, 103
245, 313
173, 144
45, 13
17, 11
11, 9
7, 12
3, 6
3, 4
3, 7
1, 7
6, 5
4, 5
9, 5
7, 4
1, 4
4, 5
3, 6
11, 10
11, 5
2, 7
6, 9
5, 0
5, 3
3, 5
3, 1
8, 4
5, 5
4, 1
2, 3
1, 3
1, 3
4, 4
1, 6
5, 5
1, 3
2, 5
2, 2
3, 4
5, 0
3, 4
6, 1
3, 3
3, 3
5, 2
4, 1
5, 2
2, 4
3, 3
5, 4
3, 2
0, 2
5, 3
1, 2
4, 3
1, 1
2, 1
3, 2
0, 0
1, 2
1, 1
2, 1
1, 0
1, 0
0, 2
2, 1
0, 1
1, 1
1, 0
2, 1
1, 3
0, 1
2, 0
1, 1
0, 0
0, 0
0, 0
0, 0
0, 0
0, 0
0, 1
0, 2
0, 0
0, 0
0, 1
0, 0
1, 1
0, 0
0, 1
0, 0
0, 0
0, 0
0, 2
0, 0
1, 1
0, 0
0, 0
0, 0
0, 0
0, 0
0, 0
0, 0
0, 0
1, 1
1, 0
0, 1
0, 1
1, 0
0, 0
0, 0
0, 0
0, 0
0, 1
0, 0
0, 1
0, 0
0, 0
0, 0
0, 0
0, 0
0, 0
0, 1
0, 0
0, 0
0, 0
0, 0
0, 0
0, 0
0, 1
0, 0
0, 0
0, 0
0, 0
0, 0
0, 0
0, 0
0, 0
0, 0
0, 0
0, 0
0, 0
0, 0
0, 0
0, 0
0, 0
0, 0
0, 0
0, 0
0, 0
0, 0
0, 0
0, 0
0, 0
0, 0
0, 0
0, 0
0, 0
0, 0
0, 0
0, 0
0, 0
0, 0
0, 0
0, 0
0, 0
0, 0
0, 0
0, 0
0, 0
0, 0
0, 0
0, 0
0, 0
0, 0
0, 0
0, 0
0, 0
0, 0
0, 0
0, 0
0, 0
0, 0
0, 0
0, 0
0, 0
0, 0
0, 0
0, 0
0, 0
0, 0
0, 0
0, 0
0, 0
0, 0
0, 0
0, 0
0, 0
0, 0
0, 0
0, 0
0, 0
0, 0
0, 0
0, 0
0, 0
0, 0
0, 0
0, 0
0, 0
0, 0
0, 0
0, 0
0, 0
0, 0
0, 0
0, 0
0, 0
0, 0
0, 0
0, 0
0, 0
0, 0
0, 0
0, 0
0, 0
0, 0
0, 0
0, 0
0, 0
0, 0
0, 0
#ENDOFDATA     end of spectrum data