File: host_upload/06-09-2024/ps_0852/dump3/ps__0852shot_2008.msa
#FORMAT      : EMSA/MAS spectral data file
#VERSION     : TC202v2.0 PIXL
#TITLE       : N/A
#DATE        :       Date in the format DD-MMM-YYYY, for example 07-JUL-2010
#TIME        :             The time of day at which the spectrum was recorded, in 24-hour format
#OWNER       : PIXL Flight Model       (PIXL will use this to indicate which instrument took the data.)
#NPOINTS     : 4096     Number of data points in the spectrum (This can be zero for configuration only files)
#NCOLUMNS    : 2     Number of data columns in the spectrum (This can be zero for configuration only files)
#XUNITS      : eV
#YUNITS      : COUNTS
#DATATYPE    : YY
#XPERCHAN    : 7.862, 7.881   eV per channel (separate by commas if more than one detector)
#OFFSET      : 18.5, -22.4         eV of first channel  (separate by commas if more than one detector
#SIGNALTYPE  : XRF
#YP_TEMP     : 2.235
#LIVETIME    : 8.61065, 8.53428   seconds (separate by commas if more than one detector)
#REALTIME    : 10, 10.0   seconds (separate by commas if more than one detector)
#SPECTRUM    : start of spectrum data
0, 0
0, 0
0, 0
0, 0
0, 0
0, 0
0, 0
0, 0
1, 0
1, 0
1, 1
38, 38
50, 60
3, 8
5, 5
117, 87
367, 425
115, 75
5, 5
1, 0
1, 5
2, 6
3, 2
6, 7
28, 45
36, 33
32, 19
29, 10
7, 5
2, 1
6, 2
3, 3
4, 8
12, 12
19, 18
5, 1
2, 4
6, 4
32, 4
14, 3
19, 3
12, 9
6, 6
4, 38
6, 23
9, 15
5, 9
3, 10
4, 7
11, 16
25, 11
47, 3
53, 8
66, 42
69, 57
21, 16
42, 31
497, 630
2123, 2247
1571, 1340
227, 133
24, 19
22, 24
105, 130
343, 372
223, 208
36, 22
3, 9
17, 13
6, 4
5, 4
5, 2
1, 5
7, 5
4, 4
17, 8
34, 5
8, 24
7, 17
1, 10
4, 7
7, 4
5, 3
5, 3
3, 2
3, 5
4, 3
6, 5
3, 6
2, 1
2, 5
1, 3
5, 7
2, 11
2, 9
3, 4
1, 2
3, 7
2, 1
2, 0
1, 0
4, 1
5, 1
4, 4
3, 2
4, 1
3, 1
5, 3
1, 4
4, 3
0, 1
1, 1
2, 2
3, 3
0, 2
4, 2
5, 3
5, 6
1, 3
2, 0
2, 0
0, 1
2, 2
2, 0
4, 1
3, 1
0, 0
1, 1
0, 1
0, 1
1, 1
2, 1
0, 1
1, 0
0, 0
2, 2
0, 1
0, 0
1, 1
0, 0
0, 0
1, 2
0, 0
0, 1
2, 1
1, 0
0, 1
4, 1
0, 1
0, 0
1, 1
0, 1
0, 1
0, 0
0, 0
1, 0
0, 0
0, 0
0, 0
1, 0
0, 0
0, 2
0, 0
0, 0
0, 0
0, 0
0, 1
0, 0
0, 0
1, 0
1, 0
1, 0
0, 1
1, 0
0, 0
0, 0
0, 0
0, 0
0, 0
0, 0
0, 0
0, 1
1, 0
0, 0
0, 0
0, 0
0, 0
0, 0
1, 1
0, 0
0, 1
0, 0
0, 0
0, 0
0, 0
0, 0
0, 0
0, 0
0, 0
0, 0
0, 0
0, 0
0, 0
0, 0
0, 0
0, 1
0, 0
0, 0
0, 0
0, 0
0, 0
0, 0
0, 0
0, 0
0, 0
0, 0
0, 0
0, 0
0, 0
0, 0
0, 0
0, 0
0, 0
0, 0
0, 0
0, 0
0, 0
0, 0
0, 0
0, 0
0, 0
0, 0
0, 0
0, 0
0, 0
0, 0
0, 0
0, 0
0, 0
0, 0
0, 0
0, 0
0, 0
0, 0
0, 0
0, 0
0, 0
0, 0
0, 0
0, 0
0, 0
0, 0
0, 0
0, 0
0, 0
0, 0
0, 0
0, 0
0, 0
0, 0
0, 0
0, 0
0, 0
0, 0
0, 0
0, 0
0, 0
0, 0
0, 0
0, 0
0, 0
0, 0
0, 0
0, 0
0, 0
0, 0
0, 0
0, 0
0, 0
0, 0
0, 0
0, 0
0, 0
0, 0
0, 0
0, 0
0, 0
0, 0
0, 0
0, 0
0, 0
0, 0
0, 0
0, 0
#ENDOFDATA     end of spectrum data