File: host_upload/06-09-2024/ps_0852/dump3/ps__0852shot_2170.msa
#FORMAT      : EMSA/MAS spectral data file
#VERSION     : TC202v2.0 PIXL
#TITLE       : N/A
#DATE        :       Date in the format DD-MMM-YYYY, for example 07-JUL-2010
#TIME        :             The time of day at which the spectrum was recorded, in 24-hour format
#OWNER       : PIXL Flight Model       (PIXL will use this to indicate which instrument took the data.)
#NPOINTS     : 4096     Number of data points in the spectrum (This can be zero for configuration only files)
#NCOLUMNS    : 2     Number of data columns in the spectrum (This can be zero for configuration only files)
#XUNITS      : eV
#YUNITS      : COUNTS
#DATATYPE    : YY
#XPERCHAN    : 7.862, 7.881   eV per channel (separate by commas if more than one detector)
#OFFSET      : 18.5, -22.4         eV of first channel  (separate by commas if more than one detector
#SIGNALTYPE  : XRF
#YP_TEMP     : 2.428
#LIVETIME    : 8.5592, 8.55054   seconds (separate by commas if more than one detector)
#REALTIME    : 10, 10.0   seconds (separate by commas if more than one detector)
#SPECTRUM    : start of spectrum data
0, 0
0, 0
0, 0
0, 0
0, 0
0, 0
0, 0
0, 0
1, 0
2, 0
2, 4
36, 37
74, 66
2, 7
3, 7
79, 87
346, 371
103, 70
5, 7
0, 4
27, 49
138, 240
58, 82
6, 22
26, 41
29, 37
18, 18
14, 16
4, 8
1, 1
3, 1
4, 0
6, 6
14, 37
28, 64
7, 27
8, 29
4, 14
5, 7
2, 4
6, 4
8, 10
12, 12
10, 11
3, 5
6, 10
3, 18
4, 8
8, 14
35, 26
71, 23
35, 10
10, 9
48, 47
85, 53
41, 17
26, 34
409, 594
2022, 2152
1420, 1341
206, 145
13, 22
17, 18
120, 101
310, 379
190, 187
33, 27
6, 6
5, 16
9, 5
1, 1
3, 8
11, 8
6, 7
4, 5
2, 4
8, 3
3, 4
1, 4
5, 6
11, 4
17, 5
12, 7
6, 6
6, 3
7, 7
4, 4
4, 5
5, 4
1, 4
2, 4
5, 2
3, 8
2, 7
0, 2
2, 2
4, 0
2, 5
2, 2
9, 2
6, 2
8, 1
2, 2
3, 2
2, 0
1, 3
1, 2
3, 2
0, 5
3, 2
3, 2
4, 6
0, 1
3, 6
2, 1
3, 2
5, 4
5, 5
4, 2
0, 1
2, 0
2, 2
1, 2
3, 1
1, 2
0, 0
1, 1
2, 0
1, 0
1, 2
0, 2
1, 0
2, 0
0, 0
1, 2
1, 2
1, 1
2, 1
0, 0
0, 1
1, 0
1, 1
1, 0
0, 1
1, 0
2, 1
0, 0
1, 1
0, 2
0, 0
0, 1
0, 0
2, 0
0, 0
0, 0
0, 0
0, 0
0, 1
0, 0
0, 0
1, 0
0, 1
0, 0
2, 0
1, 0
0, 0
0, 0
0, 0
0, 0
0, 1
1, 0
1, 0
0, 2
0, 0
0, 3
0, 0
0, 0
0, 0
0, 0
0, 0
0, 1
0, 0
0, 0
0, 0
0, 0
1, 0
0, 0
0, 0
0, 0
0, 0
0, 0
0, 0
0, 0
0, 0
0, 0
0, 1
0, 0
0, 0
0, 0
0, 0
0, 0
0, 0
1, 0
0, 0
0, 0
0, 0
0, 0
0, 0
0, 0
0, 0
0, 0
0, 0
0, 0
0, 0
0, 0
0, 0
0, 0
0, 0
0, 0
0, 0
0, 0
0, 0
0, 0
0, 0
0, 0
0, 0
0, 0
0, 0
0, 0
0, 0
0, 0
0, 0
0, 0
0, 0
0, 0
0, 0
0, 0
0, 0
0, 0
0, 0
0, 0
0, 0
0, 0
0, 0
0, 0
0, 0
0, 0
0, 0
0, 0
0, 0
0, 0
0, 0
0, 0
0, 0
0, 0
0, 0
0, 0
0, 0
0, 0
0, 0
0, 0
0, 0
0, 0
0, 0
0, 0
0, 0
0, 0
0, 0
0, 0
0, 0
0, 0
0, 0
0, 0
0, 0
0, 0
0, 0
0, 0
0, 0
0, 0
0, 0
0, 0
0, 0
0, 0
0, 0
0, 0
0, 0
0, 0
0, 0
0, 0
0, 0
0, 0
0, 0
0, 0
0, 0
#ENDOFDATA     end of spectrum data