File: host_upload/06-09-2024/ps_0852/dump3/ps__0852shot_2351.msa
#FORMAT      : EMSA/MAS spectral data file
#VERSION     : TC202v2.0 PIXL
#TITLE       : N/A
#DATE        :       Date in the format DD-MMM-YYYY, for example 07-JUL-2010
#TIME        :             The time of day at which the spectrum was recorded, in 24-hour format
#OWNER       : PIXL Flight Model       (PIXL will use this to indicate which instrument took the data.)
#NPOINTS     : 4096     Number of data points in the spectrum (This can be zero for configuration only files)
#NCOLUMNS    : 2     Number of data columns in the spectrum (This can be zero for configuration only files)
#XUNITS      : eV
#YUNITS      : COUNTS
#DATATYPE    : YY
#XPERCHAN    : 7.862, 7.881   eV per channel (separate by commas if more than one detector)
#OFFSET      : 18.5, -22.4         eV of first channel  (separate by commas if more than one detector
#SIGNALTYPE  : XRF
#YP_TEMP     : 2.171
#LIVETIME    : 8.56222, 8.55382   seconds (separate by commas if more than one detector)
#REALTIME    : 10, 10.0   seconds (separate by commas if more than one detector)
#SPECTRUM    : start of spectrum data
0, 0
0, 0
0, 0
0, 0
0, 0
0, 0
0, 0
0, 0
0, 2
2, 1
2, 2
43, 45
48, 53
3, 6
7, 4
98, 85
375, 436
95, 86
2, 4
1, 1
3, 3
23, 17
12, 9
8, 12
32, 52
49, 42
18, 27
7, 13
1, 4
1, 4
0, 9
4, 4
3, 2
18, 14
39, 29
5, 11
3, 5
4, 7
5, 4
4, 5
8, 1
14, 8
26, 16
13, 11
8, 3
4, 6
2, 6
2, 9
10, 13
20, 43
10, 25
11, 13
15, 18
45, 51
52, 58
20, 23
28, 51
454, 615
2106, 2290
1593, 1337
201, 152
11, 25
22, 31
105, 109
332, 348
231, 180
32, 26
13, 14
11, 28
11, 23
1, 5
3, 5
1, 2
4, 3
6, 3
9, 5
7, 3
7, 6
2, 3
2, 5
3, 4
6, 3
10, 5
9, 3
11, 2
4, 4
9, 5
4, 3
1, 4
1, 5
5, 5
2, 8
9, 3
12, 3
10, 4
5, 1
2, 6
5, 4
1, 4
0, 4
3, 1
2, 5
3, 1
2, 0
2, 3
1, 3
2, 3
3, 2
3, 3
0, 1
1, 3
4, 2
1, 0
2, 2
2, 4
2, 2
2, 5
3, 0
0, 0
3, 0
0, 0
0, 4
2, 1
2, 1
1, 2
1, 1
4, 3
1, 1
1, 2
1, 0
1, 1
0, 1
2, 2
1, 0
1, 1
1, 1
0, 1
2, 0
0, 1
0, 2
0, 0
1, 1
0, 0
3, 1
0, 0
1, 1
1, 0
0, 1
0, 1
0, 0
0, 0
0, 0
0, 0
0, 0
0, 1
0, 1
0, 2
1, 0
0, 0
0, 0
0, 1
0, 0
0, 0
0, 0
0, 0
0, 0
1, 0
0, 0
1, 1
0, 0
0, 1
0, 0
1, 0
1, 0
0, 0
0, 0
0, 0
0, 0
0, 0
0, 0
0, 0
0, 0
0, 0
1, 0
0, 0
0, 0
2, 0
0, 1
1, 0
1, 0
0, 0
0, 0
0, 0
0, 0
0, 0
0, 1
0, 0
0, 0
0, 0
0, 0
0, 0
0, 0
0, 0
0, 0
0, 0
0, 0
0, 0
0, 0
0, 0
0, 0
0, 0
0, 0
0, 0
0, 0
0, 0
0, 0
0, 0
0, 0
0, 0
0, 0
0, 0
0, 0
0, 0
0, 0
0, 0
0, 0
0, 0
0, 0
0, 0
0, 0
0, 0
0, 0
0, 0
0, 0
0, 0
0, 0
0, 0
0, 0
0, 0
0, 0
0, 0
0, 0
0, 0
0, 0
0, 0
0, 0
0, 0
0, 0
0, 0
0, 0
0, 0
0, 0
0, 0
0, 0
0, 0
0, 0
0, 0
0, 0
0, 0
0, 0
0, 0
0, 0
0, 0
0, 0
0, 0
0, 0
0, 0
0, 0
0, 0
0, 0
0, 0
0, 0
0, 0
0, 0
0, 0
0, 0
0, 0
0, 0
0, 0
0, 0
0, 0
0, 0
0, 0
0, 0
0, 0
0, 0
0, 0
0, 0
0, 0
0, 0
0, 0
0, 0
0, 0
0, 0
#ENDOFDATA     end of spectrum data