File: host_upload/06-09-2024/ps_0852/dump3/ps__0852shot_2546.msa
#FORMAT      : EMSA/MAS spectral data file
#VERSION     : TC202v2.0 PIXL
#TITLE       : N/A
#DATE        :       Date in the format DD-MMM-YYYY, for example 07-JUL-2010
#TIME        :             The time of day at which the spectrum was recorded, in 24-hour format
#OWNER       : PIXL Flight Model       (PIXL will use this to indicate which instrument took the data.)
#NPOINTS     : 4096     Number of data points in the spectrum (This can be zero for configuration only files)
#NCOLUMNS    : 2     Number of data columns in the spectrum (This can be zero for configuration only files)
#XUNITS      : eV
#YUNITS      : COUNTS
#DATATYPE    : YY
#XPERCHAN    : 7.862, 7.881   eV per channel (separate by commas if more than one detector)
#OFFSET      : 18.5, -22.4         eV of first channel  (separate by commas if more than one detector
#SIGNALTYPE  : XRF
#YP_TEMP     : 2.139
#LIVETIME    : 8.56647, 8.56197   seconds (separate by commas if more than one detector)
#REALTIME    : 10, 10.0   seconds (separate by commas if more than one detector)
#SPECTRUM    : start of spectrum data
0, 0
0, 0
0, 0
0, 0
0, 0
0, 0
0, 0
0, 0
1, 0
0, 1
5, 1
51, 49
72, 69
7, 7
4, 6
105, 100
495, 442
102, 81
8, 6
1, 1
2, 5
5, 3
3, 4
7, 6
37, 32
55, 52
25, 25
18, 15
7, 6
5, 6
2, 0
1, 2
4, 7
47, 46
53, 45
6, 10
14, 5
25, 5
34, 7
5, 2
6, 9
14, 9
16, 21
12, 42
7, 53
10, 10
13, 6
6, 5
7, 11
17, 20
33, 11
48, 6
14, 12
28, 38
86, 53
101, 32
72, 39
489, 571
2245, 2199
1623, 1367
202, 133
31, 21
38, 22
141, 127
367, 350
234, 205
28, 18
7, 9
12, 9
14, 11
8, 4
3, 7
6, 5
7, 6
10, 8
43, 2
39, 4
12, 3
12, 4
2, 3
2, 4
2, 4
6, 1
4, 3
4, 3
2, 3
2, 2
1, 7
3, 5
5, 8
5, 2
3, 5
3, 3
5, 6
1, 4
3, 5
4, 2
2, 2
6, 2
4, 4
5, 0
4, 4
5, 3
5, 0
4, 2
1, 2
3, 5
3, 1
3, 2
1, 3
4, 1
4, 0
1, 2
5, 1
1, 2
3, 3
5, 1
2, 4
2, 1
0, 3
1, 3
1, 0
4, 3
3, 0
2, 0
0, 1
0, 1
1, 1
2, 0
1, 0
1, 2
0, 0
1, 0
1, 0
0, 2
0, 0
1, 1
2, 3
1, 0
2, 1
0, 0
0, 1
1, 1
0, 0
0, 0
1, 0
0, 0
1, 0
0, 0
0, 1
0, 1
1, 0
0, 0
0, 0
1, 0
0, 0
0, 0
0, 0
1, 2
0, 1
0, 0
2, 0
0, 0
0, 0
0, 0
0, 0
0, 0
1, 0
1, 0
0, 0
0, 0
0, 0
1, 0
0, 0
0, 0
0, 0
0, 0
0, 0
0, 0
0, 0
0, 1
0, 0
0, 0
1, 0
0, 1
0, 0
0, 0
0, 0
0, 0
0, 0
0, 0
0, 0
0, 0
0, 0
0, 0
0, 0
0, 0
0, 0
0, 0
0, 0
0, 0
0, 0
0, 0
0, 0
0, 0
0, 0
0, 0
0, 0
0, 0
0, 0
0, 0
0, 0
0, 0
0, 0
0, 0
0, 0
0, 0
0, 0
0, 0
0, 0
0, 0
0, 0
0, 0
0, 0
0, 0
0, 0
0, 0
0, 0
0, 0
0, 0
0, 0
0, 0
0, 0
0, 0
0, 0
0, 0
0, 0
0, 0
0, 0
0, 0
0, 0
0, 0
0, 0
0, 0
0, 0
0, 0
0, 0
0, 0
0, 0
0, 0
0, 0
0, 0
0, 0
0, 0
0, 0
0, 0
0, 0
0, 0
0, 0
0, 0
0, 0
0, 0
0, 0
0, 0
0, 0
0, 0
0, 0
0, 0
0, 0
0, 0
0, 0
0, 0
0, 0
0, 0
0, 0
0, 0
0, 0
0, 0
0, 0
0, 0
0, 0
0, 0
0, 0
0, 0
0, 0
0, 0
0, 0
0, 0
0, 0
0, 0
0, 0
0, 0
0, 0
0, 0
#ENDOFDATA     end of spectrum data