File: host_upload/06-09-2024/ps_0852/dump3/ps__0852shot_2458.msa
#FORMAT      : EMSA/MAS spectral data file
#VERSION     : TC202v2.0 PIXL
#TITLE       : N/A
#DATE        :       Date in the format DD-MMM-YYYY, for example 07-JUL-2010
#TIME        :             The time of day at which the spectrum was recorded, in 24-hour format
#OWNER       : PIXL Flight Model       (PIXL will use this to indicate which instrument took the data.)
#NPOINTS     : 4096     Number of data points in the spectrum (This can be zero for configuration only files)
#NCOLUMNS    : 2     Number of data columns in the spectrum (This can be zero for configuration only files)
#XUNITS      : eV
#YUNITS      : COUNTS
#DATATYPE    : YY
#XPERCHAN    : 7.862, 7.881   eV per channel (separate by commas if more than one detector)
#OFFSET      : 18.5, -22.4         eV of first channel  (separate by commas if more than one detector
#SIGNALTYPE  : XRF
#YP_TEMP     : 2.235
#LIVETIME    : 8.54539, 8.54694   seconds (separate by commas if more than one detector)
#REALTIME    : 10, 10.0   seconds (separate by commas if more than one detector)
#SPECTRUM    : start of spectrum data
0, 0
0, 0
0, 0
0, 0
0, 0
0, 0
0, 0
0, 0
0, 0
1, 1
3, 2
43, 41
61, 72
6, 9
4, 4
109, 99
440, 506
103, 92
6, 5
0, 3
2, 6
29, 25
10, 7
11, 6
18, 29
24, 20
22, 13
13, 14
3, 4
2, 1
2, 1
3, 1
2, 4
9, 12
17, 13
2, 4
3, 1
3, 4
3, 3
2, 4
3, 1
6, 5
10, 16
6, 10
4, 3
11, 8
5, 6
6, 5
14, 5
44, 15
94, 17
49, 7
16, 6
41, 57
107, 50
43, 21
35, 31
465, 584
2099, 2426
1475, 1426
197, 148
14, 16
12, 19
69, 116
324, 371
210, 202
26, 32
4, 7
5, 14
14, 8
3, 4
7, 8
10, 10
3, 4
4, 5
7, 2
7, 4
8, 6
4, 0
10, 6
14, 4
27, 7
17, 9
6, 4
5, 3
7, 6
6, 4
5, 3
3, 5
3, 8
1, 4
1, 4
2, 2
4, 3
4, 3
2, 1
1, 1
1, 2
7, 3
3, 1
10, 5
4, 2
2, 2
4, 1
1, 0
2, 2
1, 2
2, 3
3, 2
3, 2
6, 2
1, 1
4, 3
0, 4
1, 3
3, 3
6, 5
3, 11
2, 2
4, 1
2, 2
0, 1
4, 2
1, 1
0, 1
1, 0
1, 0
0, 0
0, 2
1, 1
2, 1
1, 1
1, 1
0, 0
2, 2
3, 0
2, 2
0, 1
1, 4
0, 1
2, 0
0, 2
1, 1
0, 1
1, 0
1, 0
0, 0
0, 0
0, 0
1, 0
1, 1
1, 2
0, 0
0, 0
1, 2
1, 0
0, 2
1, 0
1, 1
1, 0
0, 0
0, 0
0, 0
0, 1
0, 0
0, 0
0, 0
1, 0
0, 1
0, 0
0, 2
0, 1
0, 0
0, 0
0, 0
0, 0
1, 0
0, 0
1, 0
0, 0
0, 0
1, 0
1, 0
0, 1
0, 0
0, 0
0, 0
0, 0
0, 0
0, 0
0, 1
0, 0
0, 0
0, 0
0, 0
0, 0
0, 0
0, 0
0, 0
0, 0
0, 0
0, 0
0, 0
0, 0
1, 0
0, 1
0, 0
0, 0
0, 1
1, 0
0, 0
0, 0
0, 0
0, 0
0, 0
0, 0
0, 0
0, 0
0, 0
0, 0
0, 0
0, 0
0, 0
0, 0
0, 0
0, 0
0, 0
0, 0
0, 0
0, 0
0, 0
0, 0
0, 0
0, 0
0, 0
0, 0
0, 0
0, 0
0, 0
0, 0
0, 0
0, 0
0, 0
0, 0
0, 0
0, 0
0, 0
0, 0
0, 0
0, 0
0, 0
0, 0
0, 0
0, 0
0, 0
0, 0
0, 0
0, 0
0, 0
0, 0
0, 0
0, 0
0, 0
0, 0
0, 0
0, 0
0, 0
0, 0
0, 0
0, 0
0, 0
0, 0
0, 0
0, 0
0, 0
0, 0
0, 0
0, 0
0, 0
0, 0
0, 0
0, 0
0, 0
0, 0
0, 0
0, 0
0, 0
0, 0
0, 0
0, 0
0, 0
0, 0
0, 0
0, 0
#ENDOFDATA     end of spectrum data