File: host_upload/06-09-2024/ps_0852/dump3/ps__0852shot_2396.msa
#FORMAT      : EMSA/MAS spectral data file
#VERSION     : TC202v2.0 PIXL
#TITLE       : N/A
#DATE        :       Date in the format DD-MMM-YYYY, for example 07-JUL-2010
#TIME        :             The time of day at which the spectrum was recorded, in 24-hour format
#OWNER       : PIXL Flight Model       (PIXL will use this to indicate which instrument took the data.)
#NPOINTS     : 4096     Number of data points in the spectrum (This can be zero for configuration only files)
#NCOLUMNS    : 2     Number of data columns in the spectrum (This can be zero for configuration only files)
#XUNITS      : eV
#YUNITS      : COUNTS
#DATATYPE    : YY
#XPERCHAN    : 7.862, 7.881   eV per channel (separate by commas if more than one detector)
#OFFSET      : 18.5, -22.4         eV of first channel  (separate by commas if more than one detector
#SIGNALTYPE  : XRF
#YP_TEMP     : 2.396
#LIVETIME    : 8.57474, 8.55967   seconds (separate by commas if more than one detector)
#REALTIME    : 10, 10.0   seconds (separate by commas if more than one detector)
#SPECTRUM    : start of spectrum data
0, 0
0, 0
0, 0
0, 0
0, 0
0, 0
0, 0
0, 0
1, 1
2, 2
0, 5
34, 40
45, 41
4, 7
5, 2
99, 104
394, 425
103, 126
5, 11
0, 1
1, 0
4, 7
5, 3
12, 14
43, 55
44, 60
33, 30
8, 16
2, 7
4, 0
3, 5
2, 2
3, 4
12, 8
12, 8
5, 6
2, 5
3, 4
5, 9
19, 6
17, 3
10, 13
16, 20
14, 5
5, 3
6, 4
5, 3
6, 29
7, 63
9, 30
21, 12
11, 10
8, 11
37, 56
67, 42
19, 19
39, 36
439, 678
2092, 2633
1529, 1466
198, 158
10, 33
20, 22
104, 137
335, 420
247, 220
21, 23
7, 6
10, 11
14, 12
7, 4
5, 5
2, 8
2, 16
9, 3
4, 7
5, 4
4, 4
4, 3
4, 3
5, 1
5, 4
3, 6
5, 7
1, 24
2, 17
1, 5
5, 4
6, 0
5, 3
18, 3
17, 0
11, 1
4, 2
0, 2
2, 9
4, 4
5, 10
1, 2
3, 2
0, 1
1, 3
1, 3
1, 4
3, 2
0, 5
1, 1
1, 4
2, 7
2, 6
4, 2
2, 1
2, 1
4, 1
4, 1
5, 5
2, 7
4, 5
0, 3
3, 2
1, 2
0, 1
1, 2
1, 8
0, 0
0, 1
0, 2
1, 2
1, 0
2, 1
1, 0
0, 1
0, 2
2, 1
0, 0
1, 1
1, 0
0, 0
3, 0
2, 0
1, 0
1, 0
0, 0
0, 0
0, 0
1, 2
0, 0
0, 0
1, 0
0, 1
2, 1
0, 0
1, 1
1, 0
3, 1
0, 0
0, 0
0, 0
1, 0
0, 0
0, 0
0, 1
0, 0
0, 0
1, 0
1, 0
0, 0
0, 0
0, 0
1, 0
1, 0
0, 0
1, 0
1, 0
0, 0
0, 0
0, 0
0, 0
1, 0
0, 0
0, 0
0, 0
0, 0
0, 0
0, 0
0, 0
0, 0
0, 0
0, 0
0, 0
0, 0
0, 0
0, 0
0, 0
0, 0
0, 0
0, 0
0, 0
1, 0
0, 0
1, 0
0, 0
0, 0
0, 0
0, 0
0, 0
0, 0
0, 0
0, 0
0, 0
0, 0
0, 0
0, 0
0, 0
0, 0
0, 0
0, 0
0, 0
0, 0
0, 0
0, 0
0, 0
0, 0
0, 0
0, 0
0, 0
0, 0
0, 0
0, 0
0, 0
0, 0
0, 0
0, 0
0, 0
0, 0
0, 0
0, 0
0, 0
0, 0
0, 0
0, 0
0, 0
0, 0
0, 0
0, 0
0, 0
0, 0
0, 0
0, 0
0, 0
0, 0
0, 0
0, 0
0, 0
0, 0
0, 0
0, 0
0, 0
0, 0
0, 0
0, 0
0, 0
0, 0
0, 0
0, 0
0, 0
0, 0
0, 0
0, 0
0, 0
0, 0
0, 0
0, 0
0, 0
0, 0
0, 0
0, 0
0, 0
0, 0
0, 0
0, 0
0, 0
0, 0
0, 0
0, 0
0, 0
0, 0
0, 0
0, 0
0, 0
0, 0
0, 0
0, 0
0, 0
#ENDOFDATA     end of spectrum data