File: host_upload/06-09-2024/ps_0852/dump3/ps__0852shot_2404.msa
#FORMAT      : EMSA/MAS spectral data file
#VERSION     : TC202v2.0 PIXL
#TITLE       : N/A
#DATE        :       Date in the format DD-MMM-YYYY, for example 07-JUL-2010
#TIME        :             The time of day at which the spectrum was recorded, in 24-hour format
#OWNER       : PIXL Flight Model       (PIXL will use this to indicate which instrument took the data.)
#NPOINTS     : 4096     Number of data points in the spectrum (This can be zero for configuration only files)
#NCOLUMNS    : 2     Number of data columns in the spectrum (This can be zero for configuration only files)
#XUNITS      : eV
#YUNITS      : COUNTS
#DATATYPE    : YY
#XPERCHAN    : 7.862, 7.881   eV per channel (separate by commas if more than one detector)
#OFFSET      : 18.5, -22.4         eV of first channel  (separate by commas if more than one detector
#SIGNALTYPE  : XRF
#YP_TEMP     : 2.3
#LIVETIME    : 8.54413, 8.5438   seconds (separate by commas if more than one detector)
#REALTIME    : 10, 10.0   seconds (separate by commas if more than one detector)
#SPECTRUM    : start of spectrum data
0, 0
0, 0
0, 0
0, 0
0, 0
0, 0
1, 0
1, 0
0, 1
2, 2
2, 3
50, 36
70, 60
4, 4
14, 3
123, 98
438, 404
142, 89
6, 2
3, 1
6, 3
6, 7
5, 3
8, 4
36, 33
45, 30
17, 20
9, 11
8, 3
4, 6
1, 2
3, 2
16, 0
22, 10
28, 16
17, 6
12, 9
11, 3
9, 6
6, 9
5, 8
8, 5
21, 12
13, 9
8, 3
4, 13
9, 18
6, 16
12, 12
20, 19
31, 11
98, 10
95, 13
53, 44
52, 54
30, 18
19, 33
527, 560
2295, 2197
1694, 1346
179, 134
21, 32
23, 30
108, 96
351, 337
231, 173
29, 21
12, 13
11, 10
9, 7
8, 7
2, 0
5, 3
5, 2
8, 11
5, 8
4, 7
3, 12
6, 4
4, 2
5, 5
5, 2
7, 4
3, 2
3, 2
4, 2
10, 1
7, 0
3, 7
1, 3
2, 7
8, 9
0, 12
4, 11
3, 5
3, 1
6, 0
2, 1
5, 2
3, 2
3, 3
2, 1
1, 1
1, 3
3, 1
2, 3
4, 2
2, 0
6, 0
4, 1
1, 4
0, 2
3, 1
2, 0
4, 3
4, 2
1, 2
5, 3
2, 4
2, 1
2, 1
4, 3
2, 2
3, 1
1, 1
3, 1
1, 6
4, 0
3, 0
0, 2
1, 3
0, 2
1, 2
1, 1
2, 0
2, 1
1, 0
1, 0
3, 2
0, 0
0, 0
2, 0
0, 1
1, 1
3, 0
0, 2
0, 0
0, 1
0, 0
0, 0
0, 0
0, 1
0, 0
1, 1
0, 0
0, 0
2, 0
0, 0
0, 0
0, 0
0, 0
0, 0
0, 0
2, 0
0, 0
0, 1
0, 0
0, 0
1, 0
0, 0
1, 0
1, 0
0, 0
0, 0
0, 0
0, 1
0, 0
0, 0
0, 0
0, 1
0, 0
0, 0
0, 0
0, 0
0, 0
0, 0
0, 1
0, 0
0, 0
0, 0
0, 0
0, 0
1, 0
0, 0
1, 0
0, 0
0, 0
0, 0
0, 0
0, 0
0, 0
0, 0
0, 0
0, 0
1, 0
0, 0
0, 0
0, 0
1, 0
0, 0
0, 0
0, 0
0, 0
0, 1
0, 0
0, 0
0, 0
0, 0
0, 0
0, 0
0, 0
0, 0
0, 0
0, 0
0, 0
0, 0
0, 0
0, 0
0, 0
0, 0
0, 0
0, 0
0, 0
0, 0
0, 0
0, 0
0, 0
0, 0
0, 0
0, 0
0, 0
0, 0
0, 0
0, 0
0, 0
0, 0
0, 0
0, 0
0, 0
0, 0
0, 0
0, 0
0, 0
0, 0
0, 0
0, 0
0, 0
0, 0
0, 0
0, 0
0, 0
0, 0
0, 0
0, 0
0, 0
0, 0
0, 0
0, 0
0, 0
0, 0
0, 0
0, 0
0, 0
0, 0
0, 0
0, 0
0, 0
0, 0
0, 0
0, 0
0, 0
0, 0
0, 0
0, 0
0, 0
0, 0
0, 0
0, 0
0, 0
0, 0
0, 0
0, 0
0, 0
0, 0
#ENDOFDATA     end of spectrum data