File: host_upload/06-09-2024/ps_0852/dump3/ps__0852shot_2494.msa
#FORMAT      : EMSA/MAS spectral data file
#VERSION     : TC202v2.0 PIXL
#TITLE       : N/A
#DATE        :       Date in the format DD-MMM-YYYY, for example 07-JUL-2010
#TIME        :             The time of day at which the spectrum was recorded, in 24-hour format
#OWNER       : PIXL Flight Model       (PIXL will use this to indicate which instrument took the data.)
#NPOINTS     : 4096     Number of data points in the spectrum (This can be zero for configuration only files)
#NCOLUMNS    : 2     Number of data columns in the spectrum (This can be zero for configuration only files)
#XUNITS      : eV
#YUNITS      : COUNTS
#DATATYPE    : YY
#XPERCHAN    : 7.862, 7.881   eV per channel (separate by commas if more than one detector)
#OFFSET      : 18.5, -22.4         eV of first channel  (separate by commas if more than one detector
#SIGNALTYPE  : XRF
#YP_TEMP     : 2.428
#LIVETIME    : 8.53509, 8.57268   seconds (separate by commas if more than one detector)
#REALTIME    : 10, 10.0   seconds (separate by commas if more than one detector)
#SPECTRUM    : start of spectrum data
0, 0
0, 0
0, 0
0, 0
0, 0
0, 0
0, 0
0, 2
0, 0
0, 0
1, 5
33, 39
60, 49
4, 2
3, 6
84, 117
484, 519
114, 114
8, 6
3, 2
2, 4
18, 18
5, 7
8, 4
26, 26
39, 41
31, 30
26, 11
2, 4
0, 3
2, 4
3, 6
4, 4
95, 119
164, 152
27, 19
20, 17
19, 26
11, 8
3, 7
13, 26
24, 30
21, 25
10, 6
6, 8
11, 8
8, 7
9, 6
12, 14
25, 26
22, 19
10, 10
11, 14
33, 45
48, 56
24, 26
29, 34
436, 547
1810, 2146
1438, 1275
174, 115
16, 41
24, 66
107, 122
294, 311
226, 163
29, 20
8, 10
11, 11
10, 6
6, 2
4, 2
5, 1
15, 3
9, 3
2, 5
6, 7
1, 7
4, 3
3, 8
4, 4
4, 3
5, 6
3, 3
2, 5
6, 3
5, 9
4, 8
4, 3
3, 12
10, 16
20, 1
17, 5
2, 2
2, 4
4, 6
2, 5
2, 3
3, 7
3, 3
3, 1
4, 4
2, 4
3, 2
5, 2
6, 3
7, 4
7, 1
1, 2
2, 7
2, 3
3, 2
2, 1
3, 3
3, 2
1, 1
2, 2
3, 5
3, 3
2, 0
3, 2
1, 3
2, 0
2, 2
0, 0
0, 2
0, 2
1, 1
2, 2
2, 3
1, 1
0, 1
2, 0
0, 0
0, 1
3, 3
2, 2
0, 0
1, 0
1, 0
0, 1
0, 1
1, 2
0, 0
2, 1
1, 1
1, 0
0, 0
0, 0
0, 0
1, 1
0, 0
0, 0
1, 1
1, 0
0, 0
0, 0
0, 0
0, 1
0, 0
0, 1
0, 1
0, 0
0, 0
1, 0
1, 1
0, 0
0, 0
0, 0
0, 0
0, 1
2, 1
0, 0
0, 0
0, 0
0, 1
0, 0
0, 0
0, 0
0, 0
0, 0
0, 0
0, 1
1, 0
0, 0
0, 0
0, 0
0, 0
0, 0
0, 0
0, 0
0, 0
0, 0
0, 1
0, 0
0, 0
0, 0
0, 0
0, 0
1, 0
0, 0
0, 1
0, 1
0, 0
0, 0
0, 0
0, 0
0, 0
0, 0
0, 1
0, 0
0, 0
0, 0
0, 0
0, 0
0, 0
0, 0
0, 0
0, 0
0, 0
0, 0
0, 0
0, 0
0, 0
0, 0
0, 0
0, 0
0, 0
0, 0
0, 0
0, 0
0, 0
0, 0
0, 0
0, 0
0, 0
0, 0
0, 0
0, 0
0, 0
0, 0
0, 0
0, 0
0, 0
0, 0
0, 0
0, 0
0, 0
0, 0
0, 0
0, 0
0, 0
0, 0
0, 0
0, 0
0, 0
0, 0
0, 0
0, 0
0, 0
0, 0
0, 0
0, 0
0, 0
0, 0
0, 0
0, 0
0, 0
0, 0
0, 0
0, 0
0, 0
0, 0
0, 0
0, 0
0, 0
0, 0
0, 0
0, 0
0, 0
0, 0
0, 0
0, 0
0, 0
0, 0
0, 0
0, 0
0, 0
0, 0
0, 0
0, 0
0, 0
0, 0
0, 0
#ENDOFDATA     end of spectrum data