File: host_upload/06-09-2024/ps_0852/dump3/ps__0852shot_2235.msa
#FORMAT      : EMSA/MAS spectral data file
#VERSION     : TC202v2.0 PIXL
#TITLE       : N/A
#DATE        :       Date in the format DD-MMM-YYYY, for example 07-JUL-2010
#TIME        :             The time of day at which the spectrum was recorded, in 24-hour format
#OWNER       : PIXL Flight Model       (PIXL will use this to indicate which instrument took the data.)
#NPOINTS     : 4096     Number of data points in the spectrum (This can be zero for configuration only files)
#NCOLUMNS    : 2     Number of data columns in the spectrum (This can be zero for configuration only files)
#XUNITS      : eV
#YUNITS      : COUNTS
#DATATYPE    : YY
#XPERCHAN    : 7.862, 7.881   eV per channel (separate by commas if more than one detector)
#OFFSET      : 18.5, -22.4         eV of first channel  (separate by commas if more than one detector
#SIGNALTYPE  : XRF
#YP_TEMP     : 2.428
#LIVETIME    : 8.51871, 8.53274   seconds (separate by commas if more than one detector)
#REALTIME    : 10, 10.0   seconds (separate by commas if more than one detector)
#SPECTRUM    : start of spectrum data
0, 0
0, 0
0, 0
0, 0
0, 0
0, 0
0, 0
0, 0
0, 2
1, 0
3, 4
45, 47
64, 47
5, 9
9, 5
84, 102
438, 395
90, 92
2, 4
4, 2
1, 1
3, 7
2, 7
11, 8
29, 27
55, 39
39, 14
12, 10
4, 2
2, 3
4, 7
6, 3
4, 3
15, 20
23, 17
9, 4
5, 2
2, 7
3, 4
13, 3
15, 6
20, 9
9, 9
14, 9
4, 13
4, 35
4, 40
5, 11
3, 12
20, 19
12, 8
11, 12
25, 9
54, 30
66, 57
16, 15
27, 39
472, 551
2289, 2327
1645, 1334
189, 147
17, 15
21, 22
87, 131
330, 347
243, 208
34, 29
6, 17
14, 37
14, 41
8, 12
13, 3
2, 3
8, 4
6, 5
7, 7
5, 7
5, 5
11, 4
21, 8
8, 4
4, 6
6, 4
2, 5
2, 2
6, 3
1, 10
4, 22
9, 9
4, 2
8, 5
4, 2
3, 2
5, 1
3, 6
2, 2
3, 0
0, 4
5, 2
7, 1
5, 3
4, 1
5, 2
2, 4
3, 2
6, 0
1, 2
2, 3
0, 7
2, 4
2, 3
3, 4
3, 4
1, 4
1, 0
3, 4
7, 5
5, 3
3, 2
1, 1
2, 5
7, 0
3, 3
3, 1
3, 1
0, 2
0, 2
2, 2
0, 3
1, 2
3, 3
0, 1
3, 0
1, 0
0, 0
0, 1
2, 2
1, 0
0, 1
0, 1
1, 0
0, 0
0, 0
1, 0
1, 1
0, 0
0, 1
0, 0
0, 0
2, 1
0, 0
0, 0
1, 0
0, 0
0, 1
0, 1
1, 1
0, 0
0, 0
0, 0
2, 0
1, 0
0, 0
0, 0
0, 0
1, 0
0, 0
0, 0
0, 0
0, 1
0, 0
0, 1
0, 0
0, 0
0, 0
0, 0
0, 0
0, 0
0, 0
0, 0
0, 0
0, 0
0, 0
0, 1
0, 0
0, 0
0, 0
0, 0
0, 0
0, 1
0, 0
0, 0
0, 0
0, 0
0, 0
0, 0
0, 0
0, 0
0, 0
0, 0
0, 0
0, 0
0, 0
0, 0
0, 0
0, 0
0, 0
0, 0
0, 0
0, 0
0, 0
0, 0
0, 0
0, 0
0, 0
0, 0
0, 0
0, 0
0, 0
0, 0
0, 0
0, 0
0, 0
0, 0
0, 0
0, 0
0, 0
0, 0
0, 0
0, 0
0, 0
0, 0
0, 0
0, 0
0, 0
0, 0
0, 0
0, 0
0, 0
0, 0
0, 0
0, 0
0, 0
0, 0
0, 0
0, 0
0, 0
0, 0
0, 0
0, 0
0, 0
0, 0
0, 0
0, 0
0, 0
0, 0
0, 0
0, 0
0, 0
0, 0
0, 0
0, 0
0, 0
0, 0
0, 0
0, 0
0, 0
0, 0
0, 0
0, 0
0, 0
0, 0
0, 0
0, 0
0, 0
0, 0
0, 0
0, 0
0, 0
0, 0
0, 0
0, 0
0, 0
0, 0
0, 0
0, 0
0, 0
0, 0
0, 0
0, 0
0, 0
0, 0
0, 0
0, 0
#ENDOFDATA     end of spectrum data