File: host_upload/06-09-2024/ps_0852/dump3/ps__0852shot_2164.msa
#FORMAT      : EMSA/MAS spectral data file
#VERSION     : TC202v2.0 PIXL
#TITLE       : N/A
#DATE        :       Date in the format DD-MMM-YYYY, for example 07-JUL-2010
#TIME        :             The time of day at which the spectrum was recorded, in 24-hour format
#OWNER       : PIXL Flight Model       (PIXL will use this to indicate which instrument took the data.)
#NPOINTS     : 4096     Number of data points in the spectrum (This can be zero for configuration only files)
#NCOLUMNS    : 2     Number of data columns in the spectrum (This can be zero for configuration only files)
#XUNITS      : eV
#YUNITS      : COUNTS
#DATATYPE    : YY
#XPERCHAN    : 7.862, 7.881   eV per channel (separate by commas if more than one detector)
#OFFSET      : 18.5, -22.4         eV of first channel  (separate by commas if more than one detector
#SIGNALTYPE  : XRF
#YP_TEMP     : 2.3
#LIVETIME    : 8.54972, 8.55267   seconds (separate by commas if more than one detector)
#REALTIME    : 10, 10.0   seconds (separate by commas if more than one detector)
#SPECTRUM    : start of spectrum data
0, 0
0, 0
0, 0
0, 0
0, 0
0, 0
0, 0
0, 0
1, 2
0, 1
4, 4
29, 47
53, 60
6, 7
1, 4
65, 84
314, 347
61, 91
7, 5
7, 5
57, 58
289, 296
140, 140
21, 33
82, 82
39, 42
24, 37
10, 18
3, 11
0, 7
13, 17
5, 10
2, 2
24, 25
43, 41
9, 5
6, 12
4, 9
10, 4
2, 3
5, 7
5, 13
12, 13
9, 13
6, 5
9, 17
7, 17
4, 7
7, 16
19, 18
36, 28
22, 6
30, 15
88, 44
88, 49
32, 17
13, 49
376, 603
1916, 2368
1383, 1473
190, 162
19, 14
24, 19
92, 131
311, 310
203, 193
27, 29
6, 15
18, 10
31, 4
26, 3
12, 5
5, 4
5, 5
4, 1
2, 7
8, 5
4, 6
4, 7
2, 8
3, 5
3, 5
4, 4
4, 1
5, 7
4, 7
7, 8
5, 4
6, 6
4, 6
2, 8
6, 11
3, 2
5, 3
4, 10
5, 5
4, 7
2, 5
0, 2
5, 3
3, 1
5, 3
5, 1
0, 1
2, 3
4, 3
2, 2
0, 2
4, 4
0, 2
1, 2
2, 2
2, 1
3, 0
3, 0
4, 7
3, 6
1, 3
2, 0
0, 1
0, 1
2, 1
0, 5
1, 5
1, 1
2, 0
0, 7
1, 0
4, 0
2, 4
2, 0
0, 0
0, 1
0, 0
0, 1
1, 1
1, 1
1, 0
0, 0
1, 0
1, 3
0, 1
1, 0
0, 2
2, 1
1, 0
0, 0
1, 1
0, 0
0, 0
0, 0
0, 0
3, 0
0, 0
0, 0
1, 0
0, 0
0, 1
0, 0
1, 0
0, 0
1, 0
0, 0
0, 0
0, 0
0, 1
0, 0
0, 0
0, 0
0, 0
0, 0
1, 0
0, 0
0, 0
0, 0
1, 0
0, 0
0, 1
0, 0
1, 0
0, 0
0, 0
0, 0
0, 0
0, 1
0, 0
0, 0
0, 0
0, 0
0, 1
0, 1
0, 0
0, 0
0, 0
0, 0
0, 0
0, 0
0, 0
1, 0
0, 0
0, 0
0, 0
0, 0
1, 0
0, 0
0, 0
0, 0
0, 0
0, 0
0, 0
0, 0
0, 0
0, 0
0, 0
0, 0
0, 0
0, 0
0, 0
0, 0
0, 0
0, 0
0, 0
0, 0
0, 0
0, 0
0, 0
0, 0
0, 0
0, 0
0, 0
0, 0
0, 0
0, 0
0, 0
0, 0
0, 0
0, 0
0, 0
0, 0
0, 0
0, 0
0, 0
0, 0
0, 0
0, 0
0, 0
0, 0
0, 0
0, 0
0, 0
0, 0
0, 0
0, 0
0, 0
0, 0
0, 0
0, 0
0, 0
0, 0
0, 0
0, 0
0, 0
0, 0
0, 0
0, 0
0, 0
0, 0
0, 0
0, 0
0, 0
0, 0
0, 0
0, 0
0, 0
0, 0
0, 0
0, 0
0, 0
0, 0
0, 0
0, 0
0, 0
0, 0
0, 0
0, 0
0, 0
0, 0
0, 0
0, 0
0, 0
0, 0
0, 0
0, 0
0, 0
#ENDOFDATA     end of spectrum data