File: host_upload/06-09-2024/ps_0852/dump3/ps__0852shot_2515.msa
#FORMAT      : EMSA/MAS spectral data file
#VERSION     : TC202v2.0 PIXL
#TITLE       : N/A
#DATE        :       Date in the format DD-MMM-YYYY, for example 07-JUL-2010
#TIME        :             The time of day at which the spectrum was recorded, in 24-hour format
#OWNER       : PIXL Flight Model       (PIXL will use this to indicate which instrument took the data.)
#NPOINTS     : 4096     Number of data points in the spectrum (This can be zero for configuration only files)
#NCOLUMNS    : 2     Number of data columns in the spectrum (This can be zero for configuration only files)
#XUNITS      : eV
#YUNITS      : COUNTS
#DATATYPE    : YY
#XPERCHAN    : 7.862, 7.881   eV per channel (separate by commas if more than one detector)
#OFFSET      : 18.5, -22.4         eV of first channel  (separate by commas if more than one detector
#SIGNALTYPE  : XRF
#YP_TEMP     : 2.203
#LIVETIME    : 8.55764, 8.54831   seconds (separate by commas if more than one detector)
#REALTIME    : 10, 10.0   seconds (separate by commas if more than one detector)
#SPECTRUM    : start of spectrum data
0, 0
0, 0
0, 0
0, 0
0, 0
0, 0
0, 0
1, 3
2, 7
3, 2
3, 3
34, 56
40, 55
3, 2
2, 6
61, 99
271, 344
71, 70
7, 4
4, 6
71, 75
374, 469
156, 178
37, 47
100, 95
77, 76
36, 35
16, 20
6, 7
4, 3
15, 14
14, 8
11, 6
19, 19
20, 26
3, 13
5, 12
9, 9
7, 9
8, 17
7, 53
9, 133
10, 54
11, 15
9, 7
4, 19
5, 13
2, 11
3, 10
12, 13
10, 19
11, 6
14, 8
28, 45
63, 64
17, 23
30, 39
457, 618
1970, 2364
1445, 1398
174, 121
14, 13
25, 24
112, 118
329, 367
232, 194
33, 28
8, 10
4, 22
10, 8
14, 0
9, 3
8, 5
3, 7
2, 9
5, 13
4, 12
6, 11
2, 8
2, 5
5, 5
6, 14
8, 9
14, 8
8, 2
5, 3
5, 2
3, 6
3, 4
5, 3
3, 5
5, 2
4, 3
3, 1
2, 5
2, 4
6, 4
0, 4
3, 8
3, 2
4, 0
3, 5
2, 6
3, 5
1, 1
2, 1
2, 6
4, 1
1, 1
4, 1
1, 3
2, 5
3, 4
1, 3
1, 4
0, 2
2, 4
1, 1
3, 1
1, 0
3, 2
0, 2
0, 1
1, 2
1, 2
1, 2
2, 0
1, 2
1, 1
1, 2
0, 0
1, 0
1, 1
0, 0
1, 1
2, 0
0, 1
2, 2
0, 0
1, 0
0, 0
1, 1
0, 1
0, 1
0, 1
0, 0
0, 0
1, 0
0, 0
0, 0
1, 0
0, 0
0, 0
0, 0
0, 0
0, 0
0, 0
0, 0
0, 0
0, 0
0, 0
0, 0
0, 0
1, 0
0, 0
0, 0
0, 0
0, 0
0, 0
1, 0
1, 0
0, 0
1, 0
0, 0
0, 0
0, 0
0, 0
0, 0
0, 0
0, 1
0, 0
0, 1
0, 0
1, 1
0, 0
0, 0
0, 0
0, 0
0, 0
0, 0
0, 0
0, 0
0, 0
0, 0
0, 0
0, 0
0, 0
0, 0
0, 0
0, 0
0, 0
0, 0
0, 0
0, 0
0, 0
0, 0
0, 0
1, 0
0, 0
0, 0
0, 0
0, 0
0, 0
0, 0
0, 0
0, 0
1, 0
0, 0
0, 0
0, 0
0, 0
0, 0
0, 0
0, 0
0, 0
0, 0
0, 0
0, 0
0, 0
0, 0
0, 0
0, 0
0, 0
0, 0
0, 0
0, 0
0, 0
0, 0
0, 0
0, 0
0, 0
0, 0
0, 0
0, 0
0, 0
0, 0
0, 0
0, 0
0, 0
0, 0
0, 0
0, 0
0, 0
0, 0
0, 0
0, 0
0, 0
0, 0
0, 0
0, 0
0, 0
0, 0
0, 0
0, 0
0, 0
0, 0
0, 0
0, 0
0, 0
0, 0
0, 0
0, 0
0, 0
0, 0
0, 0
0, 0
0, 0
0, 0
0, 0
0, 0
0, 0
0, 0
0, 0
0, 0
0, 0
0, 0
0, 0
0, 0
0, 0
0, 0
0, 0
0, 0
0, 0
0, 0
#ENDOFDATA     end of spectrum data