File: host_upload/06-09-2024/ps_0852/dump3/ps__0852shot_2069.msa
#FORMAT      : EMSA/MAS spectral data file
#VERSION     : TC202v2.0 PIXL
#TITLE       : N/A
#DATE        :       Date in the format DD-MMM-YYYY, for example 07-JUL-2010
#TIME        :             The time of day at which the spectrum was recorded, in 24-hour format
#OWNER       : PIXL Flight Model       (PIXL will use this to indicate which instrument took the data.)
#NPOINTS     : 4096     Number of data points in the spectrum (This can be zero for configuration only files)
#NCOLUMNS    : 2     Number of data columns in the spectrum (This can be zero for configuration only files)
#XUNITS      : eV
#YUNITS      : COUNTS
#DATATYPE    : YY
#XPERCHAN    : 7.862, 7.881   eV per channel (separate by commas if more than one detector)
#OFFSET      : 18.5, -22.4         eV of first channel  (separate by commas if more than one detector
#SIGNALTYPE  : XRF
#YP_TEMP     : 2.716
#LIVETIME    : 8.55336, 8.55849   seconds (separate by commas if more than one detector)
#REALTIME    : 10, 10.0   seconds (separate by commas if more than one detector)
#SPECTRUM    : start of spectrum data
0, 0
0, 0
0, 0
0, 0
0, 0
0, 0
0, 0
0, 0
1, 3
1, 1
1, 3
46, 47
66, 64
3, 10
4, 3
76, 106
383, 479
100, 110
6, 8
1, 0
2, 4
2, 3
11, 5
5, 7
17, 23
29, 33
21, 27
11, 20
4, 1
4, 2
2, 2
1, 3
1, 6
6, 8
13, 14
12, 2
49, 4
53, 10
7, 3
2, 3
9, 1
20, 10
30, 11
9, 14
7, 11
6, 13
8, 37
4, 11
8, 9
15, 16
4, 30
2, 25
7, 18
33, 40
50, 52
14, 45
40, 96
486, 630
2130, 2417
1689, 1396
213, 145
13, 25
19, 15
86, 145
276, 370
248, 204
58, 25
27, 12
20, 11
6, 10
4, 2
4, 3
4, 5
7, 4
6, 5
7, 3
2, 0
4, 4
6, 3
5, 7
7, 3
21, 9
2, 7
1, 4
4, 4
3, 1
2, 8
2, 6
3, 3
5, 0
3, 1
2, 9
3, 6
5, 2
9, 5
17, 9
6, 3
2, 6
2, 2
2, 2
2, 3
1, 5
4, 1
5, 1
8, 3
1, 1
0, 1
1, 0
2, 2
3, 5
0, 2
2, 5
2, 4
2, 1
6, 1
0, 5
6, 4
3, 3
1, 2
0, 3
4, 1
0, 2
3, 3
1, 2
1, 4
1, 0
4, 0
0, 2
1, 1
0, 7
1, 1
0, 1
2, 0
1, 0
2, 1
0, 1
0, 2
0, 1
1, 0
2, 1
0, 2
1, 2
1, 0
0, 0
0, 0
0, 0
0, 0
0, 1
1, 0
2, 0
0, 0
1, 0
1, 1
0, 0
0, 1
0, 0
1, 0
0, 1
0, 0
0, 0
0, 0
0, 0
0, 0
0, 0
0, 0
0, 1
0, 1
0, 0
0, 0
0, 0
0, 1
0, 1
0, 1
0, 0
1, 1
0, 0
0, 0
0, 0
0, 0
0, 0
0, 0
0, 0
0, 0
0, 0
1, 0
0, 0
0, 0
0, 0
1, 0
1, 0
1, 0
0, 0
0, 0
0, 0
0, 0
0, 0
0, 0
0, 0
0, 0
0, 0
0, 0
0, 1
0, 0
0, 0
0, 0
0, 0
0, 0
0, 0
0, 0
0, 0
0, 0
0, 0
0, 0
0, 0
0, 0
0, 0
0, 0
0, 0
0, 0
0, 0
0, 0
0, 0
0, 0
0, 0
0, 0
0, 0
0, 0
0, 0
0, 0
0, 0
0, 0
0, 0
0, 0
0, 0
0, 0
0, 0
0, 1
0, 0
0, 0
0, 0
0, 0
0, 0
0, 0
0, 0
0, 0
0, 0
0, 0
0, 0
0, 0
0, 0
0, 0
0, 0
0, 0
0, 0
0, 0
0, 0
0, 0
0, 0
0, 0
0, 0
0, 0
0, 0
0, 0
0, 0
0, 0
0, 0
0, 0
0, 0
0, 0
0, 0
0, 0
0, 0
0, 0
0, 0
0, 0
0, 0
0, 0
0, 0
0, 0
0, 0
0, 0
0, 0
0, 0
0, 0
0, 0
0, 0
0, 0
0, 0
0, 0
0, 0
0, 0
0, 0
0, 0
0, 0
#ENDOFDATA     end of spectrum data