File: host_upload/06-09-2024/ps_0852/dump3/ps__0852shot_2445.msa
#FORMAT      : EMSA/MAS spectral data file
#VERSION     : TC202v2.0 PIXL
#TITLE       : N/A
#DATE        :       Date in the format DD-MMM-YYYY, for example 07-JUL-2010
#TIME        :             The time of day at which the spectrum was recorded, in 24-hour format
#OWNER       : PIXL Flight Model       (PIXL will use this to indicate which instrument took the data.)
#NPOINTS     : 4096     Number of data points in the spectrum (This can be zero for configuration only files)
#NCOLUMNS    : 2     Number of data columns in the spectrum (This can be zero for configuration only files)
#XUNITS      : eV
#YUNITS      : COUNTS
#DATATYPE    : YY
#XPERCHAN    : 7.862, 7.881   eV per channel (separate by commas if more than one detector)
#OFFSET      : 18.5, -22.4         eV of first channel  (separate by commas if more than one detector
#SIGNALTYPE  : XRF
#YP_TEMP     : 2.235
#LIVETIME    : 8.54756, 8.35388   seconds (separate by commas if more than one detector)
#REALTIME    : 10, 10.0   seconds (separate by commas if more than one detector)
#SPECTRUM    : start of spectrum data
0, 0
0, 0
0, 0
0, 0
0, 0
0, 0
0, 0
0, 1
0, 2
0, 19
1, 9
31, 52
56, 65
5, 5
4, 5
98, 100
453, 372
103, 91
2, 6
1, 0
2, 3
10, 6
5, 4
3, 26
57, 523
67, 770
26, 95
23, 16
2, 2
1, 1
5, 3
4, 1
4, 1
17, 15
16, 17
1, 7
5, 7
7, 8
12, 11
16, 7
8, 7
12, 14
20, 25
23, 25
31, 5
14, 9
8, 8
12, 6
23, 11
31, 23
28, 22
13, 8
9, 17
52, 44
81, 60
28, 27
25, 38
482, 564
2310, 2208
1631, 1364
176, 131
37, 26
24, 41
91, 115
336, 356
206, 178
28, 24
10, 6
16, 12
3, 8
4, 4
1, 6
9, 7
12, 5
8, 10
5, 5
5, 14
4, 8
5, 10
6, 4
2, 5
3, 4
8, 6
4, 5
15, 4
5, 3
6, 2
3, 3
4, 3
3, 1
1, 5
2, 5
2, 7
5, 8
3, 5
3, 3
3, 3
3, 0
0, 2
2, 4
5, 2
2, 2
1, 2
1, 0
1, 0
1, 2
5, 2
4, 4
6, 3
2, 3
0, 1
5, 3
3, 2
0, 2
1, 1
4, 4
6, 2
3, 4
2, 3
2, 0
0, 0
3, 3
3, 3
2, 2
0, 0
1, 1
1, 2
0, 0
1, 2
1, 1
0, 0
1, 1
2, 0
1, 4
0, 1
1, 2
0, 1
2, 1
0, 1
1, 0
1, 0
0, 0
0, 1
0, 0
1, 0
0, 0
0, 0
0, 0
0, 1
2, 1
0, 0
0, 1
0, 0
0, 0
0, 0
2, 0
0, 0
2, 0
0, 1
0, 0
0, 0
0, 0
0, 0
1, 1
0, 1
0, 0
0, 0
0, 0
0, 0
0, 1
0, 0
1, 0
0, 1
1, 0
0, 0
0, 1
1, 0
0, 0
0, 0
1, 0
0, 0
1, 0
0, 0
0, 0
0, 0
0, 0
0, 0
0, 0
0, 0
0, 0
0, 0
0, 1
0, 0
0, 0
0, 0
0, 0
0, 0
0, 0
0, 0
0, 0
0, 0
0, 0
0, 0
0, 0
0, 0
0, 0
0, 0
0, 1
0, 0
0, 0
0, 0
0, 0
0, 0
0, 0
0, 0
0, 0
0, 0
0, 0
0, 0
0, 0
0, 0
0, 0
0, 0
0, 0
0, 0
0, 0
0, 0
0, 0
0, 0
0, 0
0, 0
0, 0
0, 0
0, 0
0, 0
0, 0
0, 0
0, 0
0, 0
0, 0
0, 0
0, 0
0, 0
0, 0
0, 0
0, 0
0, 0
0, 0
0, 0
0, 0
0, 0
0, 0
0, 0
0, 0
0, 0
0, 0
0, 0
0, 0
0, 0
0, 0
0, 0
0, 0
0, 0
0, 0
0, 0
0, 0
0, 0
0, 0
0, 0
0, 0
0, 0
0, 0
0, 0
0, 0
0, 0
0, 0
0, 0
0, 0
0, 0
0, 0
0, 0
0, 0
0, 0
0, 0
0, 0
0, 0
0, 0
0, 0
0, 0
0, 0
0, 0
0, 0
0, 0
0, 0
#ENDOFDATA     end of spectrum data