File: host_upload/06-09-2024/ps_0852/dump3/ps__0852shot_2050.msa
#FORMAT      : EMSA/MAS spectral data file
#VERSION     : TC202v2.0 PIXL
#TITLE       : N/A
#DATE        :       Date in the format DD-MMM-YYYY, for example 07-JUL-2010
#TIME        :             The time of day at which the spectrum was recorded, in 24-hour format
#OWNER       : PIXL Flight Model       (PIXL will use this to indicate which instrument took the data.)
#NPOINTS     : 4096     Number of data points in the spectrum (This can be zero for configuration only files)
#NCOLUMNS    : 2     Number of data columns in the spectrum (This can be zero for configuration only files)
#XUNITS      : eV
#YUNITS      : COUNTS
#DATATYPE    : YY
#XPERCHAN    : 7.862, 7.881   eV per channel (separate by commas if more than one detector)
#OFFSET      : 18.5, -22.4         eV of first channel  (separate by commas if more than one detector
#SIGNALTYPE  : XRF
#YP_TEMP     : 2.3
#LIVETIME    : 8.54887, 8.58235   seconds (separate by commas if more than one detector)
#REALTIME    : 10, 10.0   seconds (separate by commas if more than one detector)
#SPECTRUM    : start of spectrum data
0, 0
0, 0
0, 0
0, 0
0, 0
0, 0
0, 1
0, 0
0, 20
3, 49
4, 8
52, 56
59, 65
4, 7
5, 5
82, 90
392, 413
104, 102
8, 9
1, 3
2, 5
5, 3
2, 18
5, 163
24, 2016
28, 2734
20, 263
11, 15
4, 3
1, 6
6, 1
2, 3
2, 5
7, 11
12, 13
9, 4
11, 6
2, 5
4, 11
4, 14
4, 4
8, 5
14, 14
49, 14
68, 15
30, 8
6, 10
9, 6
4, 28
11, 63
13, 27
19, 19
46, 14
45, 45
54, 60
21, 25
32, 42
509, 572
2139, 2185
1617, 1310
201, 136
13, 23
18, 48
120, 128
318, 334
211, 168
34, 32
6, 16
11, 29
4, 13
6, 4
2, 2
4, 24
8, 38
13, 43
7, 7
6, 1
7, 3
5, 4
6, 5
0, 3
6, 3
0, 9
2, 8
3, 5
4, 7
4, 8
3, 9
2, 8
1, 6
2, 1
2, 2
4, 4
4, 4
16, 2
21, 2
7, 3
3, 7
0, 4
2, 5
1, 0
3, 1
1, 2
2, 1
2, 2
4, 5
4, 1
1, 2
3, 3
2, 3
3, 1
0, 4
5, 3
1, 3
1, 4
5, 2
2, 3
4, 4
2, 3
1, 0
0, 0
4, 0
1, 2
3, 1
1, 0
2, 1
2, 1
2, 2
2, 1
1, 0
2, 1
1, 1
2, 0
0, 1
0, 1
0, 3
1, 1
1, 0
2, 0
0, 0
0, 1
1, 0
0, 0
1, 1
1, 1
0, 0
0, 0
0, 0
0, 1
0, 0
1, 0
1, 0
0, 0
0, 1
2, 0
0, 1
0, 1
1, 0
0, 0
0, 1
1, 0
0, 1
0, 0
0, 0
0, 0
0, 0
0, 0
0, 0
0, 0
1, 0
0, 0
1, 1
0, 1
1, 0
2, 0
0, 0
0, 0
0, 0
0, 0
0, 0
0, 0
0, 0
0, 0
0, 0
0, 0
0, 0
0, 0
0, 0
0, 0
0, 0
0, 0
0, 0
0, 0
0, 0
0, 0
0, 0
0, 0
0, 0
0, 0
0, 0
0, 0
0, 0
0, 0
0, 0
0, 0
0, 0
0, 0
0, 0
0, 0
0, 0
0, 0
0, 0
0, 0
0, 0
0, 0
0, 0
0, 0
0, 0
0, 0
0, 0
0, 0
0, 0
0, 0
0, 0
0, 0
0, 0
0, 0
0, 0
0, 0
0, 0
0, 0
0, 0
0, 0
0, 0
0, 0
0, 0
0, 0
0, 0
0, 0
0, 0
0, 0
0, 0
0, 0
0, 0
0, 0
0, 0
0, 0
0, 0
0, 0
0, 0
0, 0
0, 0
0, 0
0, 0
0, 0
0, 0
0, 0
0, 0
0, 0
0, 0
0, 0
0, 0
0, 0
0, 0
0, 0
0, 0
0, 0
0, 0
0, 0
0, 0
0, 0
0, 0
0, 0
0, 0
0, 0
0, 0
0, 0
0, 0
0, 0
0, 0
0, 0
0, 0
0, 0
0, 0
0, 0
0, 0
0, 0
0, 0
0, 0
0, 0
0, 0
0, 0
0, 0
0, 0
#ENDOFDATA     end of spectrum data