File: host_upload/06-09-2024/ps_0852/dump3/ps__0852shot_2370.msa
#FORMAT      : EMSA/MAS spectral data file
#VERSION     : TC202v2.0 PIXL
#TITLE       : N/A
#DATE        :       Date in the format DD-MMM-YYYY, for example 07-JUL-2010
#TIME        :             The time of day at which the spectrum was recorded, in 24-hour format
#OWNER       : PIXL Flight Model       (PIXL will use this to indicate which instrument took the data.)
#NPOINTS     : 4096     Number of data points in the spectrum (This can be zero for configuration only files)
#NCOLUMNS    : 2     Number of data columns in the spectrum (This can be zero for configuration only files)
#XUNITS      : eV
#YUNITS      : COUNTS
#DATATYPE    : YY
#XPERCHAN    : 7.862, 7.881   eV per channel (separate by commas if more than one detector)
#OFFSET      : 18.5, -22.4         eV of first channel  (separate by commas if more than one detector
#SIGNALTYPE  : XRF
#YP_TEMP     : 2.203
#LIVETIME    : 8.58893, 8.55111   seconds (separate by commas if more than one detector)
#REALTIME    : 10, 10.0   seconds (separate by commas if more than one detector)
#SPECTRUM    : start of spectrum data
0, 0
0, 0
0, 0
0, 0
0, 0
0, 0
0, 0
0, 0
0, 1
2, 1
2, 2
40, 39
59, 58
6, 8
4, 2
98, 105
461, 458
110, 100
14, 5
3, 1
4, 4
12, 18
7, 22
7, 18
60, 56
60, 80
20, 21
13, 19
8, 6
3, 4
2, 2
2, 3
14, 9
95, 111
179, 165
28, 21
23, 28
49, 27
24, 4
14, 1
7, 5
15, 12
22, 21
22, 33
12, 49
9, 20
15, 11
23, 7
7, 7
35, 30
21, 22
32, 9
13, 22
33, 67
80, 62
30, 26
40, 42
438, 502
1887, 2036
1453, 1264
178, 127
35, 20
61, 31
111, 102
292, 334
190, 185
35, 20
5, 9
18, 13
10, 9
8, 6
5, 5
5, 2
4, 7
7, 3
28, 3
24, 5
6, 2
6, 7
2, 11
4, 4
7, 5
3, 6
2, 8
5, 4
6, 4
5, 5
2, 2
3, 3
5, 2
6, 2
3, 3
4, 3
2, 4
7, 8
2, 5
3, 0
0, 6
7, 2
2, 5
6, 1
4, 8
1, 0
4, 3
3, 1
6, 4
4, 1
3, 1
0, 1
2, 1
0, 2
1, 0
1, 0
1, 4
3, 3
5, 1
3, 2
4, 2
0, 1
2, 2
1, 0
0, 1
1, 3
0, 0
2, 1
1, 1
0, 0
1, 0
0, 1
1, 1
0, 3
0, 0
0, 1
0, 1
2, 0
0, 1
1, 2
0, 0
0, 1
0, 0
1, 1
2, 1
0, 0
0, 0
0, 0
1, 0
1, 1
1, 0
0, 0
1, 2
0, 0
0, 0
1, 0
0, 0
0, 1
1, 0
0, 0
1, 0
0, 0
0, 0
0, 0
0, 0
0, 0
2, 0
0, 1
0, 0
1, 2
0, 0
0, 0
0, 0
1, 1
0, 0
0, 0
0, 0
2, 0
0, 0
0, 0
0, 0
0, 0
0, 0
0, 0
0, 0
0, 0
0, 0
0, 0
0, 0
0, 0
0, 0
0, 0
0, 1
0, 1
0, 0
0, 0
0, 0
0, 0
0, 0
0, 0
0, 0
1, 0
1, 1
0, 0
0, 0
0, 0
0, 0
0, 0
0, 0
0, 1
0, 0
0, 0
0, 0
0, 0
0, 0
0, 0
0, 0
0, 0
1, 0
0, 0
0, 0
0, 0
0, 0
0, 0
0, 0
0, 0
0, 0
0, 0
0, 0
0, 0
0, 0
0, 0
0, 0
0, 0
0, 0
0, 0
0, 0
0, 0
0, 0
0, 0
0, 0
0, 0
0, 0
0, 0
0, 0
0, 0
0, 0
0, 0
0, 0
0, 0
0, 0
0, 0
0, 0
0, 0
0, 0
0, 0
0, 0
0, 0
0, 0
0, 0
0, 0
0, 0
0, 0
0, 0
0, 0
0, 0
0, 0
0, 0
0, 0
0, 0
0, 0
0, 0
0, 0
0, 0
0, 0
0, 0
0, 0
0, 0
0, 0
0, 0
0, 0
0, 0
0, 0
0, 0
0, 0
0, 0
0, 0
0, 0
0, 0
0, 0
0, 0
0, 0
0, 0
0, 0
0, 0
0, 0
0, 0
#ENDOFDATA     end of spectrum data