File: host_upload/06-09-2024/ps_0852/dump3/ps__0852shot_2257.msa
#FORMAT      : EMSA/MAS spectral data file
#VERSION     : TC202v2.0 PIXL
#TITLE       : N/A
#DATE        :       Date in the format DD-MMM-YYYY, for example 07-JUL-2010
#TIME        :             The time of day at which the spectrum was recorded, in 24-hour format
#OWNER       : PIXL Flight Model       (PIXL will use this to indicate which instrument took the data.)
#NPOINTS     : 4096     Number of data points in the spectrum (This can be zero for configuration only files)
#NCOLUMNS    : 2     Number of data columns in the spectrum (This can be zero for configuration only files)
#XUNITS      : eV
#YUNITS      : COUNTS
#DATATYPE    : YY
#XPERCHAN    : 7.862, 7.881   eV per channel (separate by commas if more than one detector)
#OFFSET      : 18.5, -22.4         eV of first channel  (separate by commas if more than one detector
#SIGNALTYPE  : XRF
#YP_TEMP     : 2.492
#LIVETIME    : 8.55296, 8.56562   seconds (separate by commas if more than one detector)
#REALTIME    : 10, 10.0   seconds (separate by commas if more than one detector)
#SPECTRUM    : start of spectrum data
0, 0
0, 0
0, 0
0, 0
0, 0
0, 0
0, 0
0, 0
1, 2
6, 2
3, 0
43, 39
57, 52
7, 5
6, 5
113, 122
441, 378
124, 96
5, 7
2, 3
4, 6
10, 13
6, 11
12, 16
77, 121
117, 166
35, 53
19, 10
6, 2
2, 2
2, 2
1, 2
4, 6
45, 36
68, 50
14, 12
11, 8
24, 9
12, 7
13, 4
8, 7
20, 7
22, 35
31, 21
6, 32
8, 16
15, 7
8, 7
13, 8
28, 30
28, 25
26, 12
16, 21
41, 83
62, 67
22, 28
35, 41
485, 576
2254, 2183
1634, 1343
216, 133
52, 28
82, 25
125, 97
350, 343
235, 206
40, 21
5, 13
16, 15
9, 9
4, 4
3, 7
6, 6
4, 6
12, 5
13, 7
13, 3
4, 10
8, 1
7, 4
4, 5
4, 4
4, 4
6, 6
5, 7
9, 7
3, 5
3, 6
4, 2
6, 2
8, 3
9, 3
4, 3
7, 3
10, 2
3, 0
1, 5
2, 4
2, 2
0, 0
5, 2
8, 3
4, 2
3, 5
3, 2
0, 3
2, 5
1, 3
3, 1
2, 2
1, 2
1, 2
5, 1
1, 0
1, 2
2, 5
8, 3
3, 3
0, 0
4, 2
0, 3
0, 0
1, 4
1, 3
2, 1
2, 3
0, 2
1, 1
1, 0
2, 1
1, 0
1, 1
0, 0
1, 0
1, 0
0, 1
0, 0
0, 1
0, 0
0, 1
0, 2
0, 0
1, 1
0, 1
2, 1
1, 1
1, 1
0, 0
0, 0
2, 0
1, 0
0, 0
0, 0
1, 0
1, 0
1, 0
1, 0
0, 0
0, 0
0, 0
0, 0
0, 0
0, 0
0, 0
2, 1
0, 0
0, 0
2, 0
0, 0
0, 1
0, 0
1, 0
0, 0
0, 1
0, 0
0, 0
0, 0
0, 1
0, 0
0, 0
0, 0
1, 0
0, 1
0, 0
0, 0
1, 0
0, 0
0, 0
0, 0
0, 0
0, 0
0, 0
0, 0
0, 0
0, 0
0, 0
0, 0
1, 0
0, 0
0, 0
0, 0
0, 0
0, 0
0, 0
0, 0
0, 0
0, 0
0, 0
0, 0
0, 0
0, 0
0, 0
0, 0
0, 0
0, 0
0, 0
0, 0
0, 0
0, 0
0, 0
0, 0
0, 0
0, 0
0, 0
0, 0
0, 0
0, 0
0, 0
0, 0
0, 0
0, 0
0, 0
0, 0
0, 0
0, 0
0, 0
0, 0
0, 0
0, 0
0, 0
0, 0
0, 0
0, 0
0, 0
0, 0
0, 0
0, 0
0, 0
0, 0
0, 0
0, 0
0, 0
0, 0
0, 0
0, 0
0, 0
0, 0
0, 0
0, 0
0, 0
0, 0
0, 0
0, 0
0, 0
0, 0
0, 0
0, 0
0, 0
0, 0
0, 0
0, 0
0, 0
0, 0
0, 0
0, 0
0, 0
0, 0
0, 0
0, 0
0, 0
0, 0
0, 0
0, 0
0, 0
0, 0
0, 0
0, 0
0, 0
0, 0
0, 0
0, 0
0, 0
0, 0
0, 0
#ENDOFDATA     end of spectrum data