File: host_upload/06-09-2024/ps_0852/dump3/ps__0852shot_2193.msa
#FORMAT      : EMSA/MAS spectral data file
#VERSION     : TC202v2.0 PIXL
#TITLE       : N/A
#DATE        :       Date in the format DD-MMM-YYYY, for example 07-JUL-2010
#TIME        :             The time of day at which the spectrum was recorded, in 24-hour format
#OWNER       : PIXL Flight Model       (PIXL will use this to indicate which instrument took the data.)
#NPOINTS     : 4096     Number of data points in the spectrum (This can be zero for configuration only files)
#NCOLUMNS    : 2     Number of data columns in the spectrum (This can be zero for configuration only files)
#XUNITS      : eV
#YUNITS      : COUNTS
#DATATYPE    : YY
#XPERCHAN    : 7.862, 7.881   eV per channel (separate by commas if more than one detector)
#OFFSET      : 18.5, -22.4         eV of first channel  (separate by commas if more than one detector
#SIGNALTYPE  : XRF
#YP_TEMP     : 2.332
#LIVETIME    : 8.56193, 8.35724   seconds (separate by commas if more than one detector)
#REALTIME    : 10, 10.0   seconds (separate by commas if more than one detector)
#SPECTRUM    : start of spectrum data
0, 0
0, 0
0, 0
0, 0
0, 0
0, 0
0, 0
0, 0
0, 1
3, 1
3, 3
41, 39
71, 58
7, 6
4, 8
109, 100
456, 410
107, 114
5, 4
2, 1
2, 7
9, 13
7, 9
8, 14
32, 58
69, 114
20, 70
15, 17
3, 2
0, 2
1, 3
4, 1
11, 5
20, 14
25, 18
3, 8
9, 4
1, 10
5, 5
5, 9
12, 4
16, 17
13, 23
23, 15
24, 4
12, 5
14, 11
17, 11
6, 11
13, 19
22, 33
22, 32
16, 23
44, 57
62, 66
36, 30
35, 39
506, 583
2367, 2220
1691, 1264
218, 134
66, 24
83, 13
114, 112
359, 320
200, 173
26, 33
8, 14
16, 12
11, 5
9, 8
2, 4
3, 10
3, 4
9, 7
14, 9
3, 6
10, 6
8, 6
5, 7
5, 2
5, 4
5, 5
8, 10
1, 9
7, 7
3, 5
4, 8
2, 6
3, 3
6, 4
8, 6
4, 2
4, 3
5, 1
4, 3
5, 3
6, 2
1, 1
4, 4
3, 1
4, 1
3, 4
2, 1
4, 1
2, 3
0, 4
1, 3
5, 2
1, 0
2, 1
2, 1
1, 1
4, 3
1, 3
4, 0
1, 4
3, 3
4, 2
3, 2
3, 0
1, 3
4, 1
2, 1
2, 1
0, 2
0, 1
1, 0
1, 0
0, 1
2, 0
0, 2
2, 0
0, 0
1, 4
2, 0
0, 0
1, 0
1, 0
0, 0
0, 0
1, 0
0, 0
0, 0
1, 0
0, 1
0, 0
0, 0
0, 0
0, 0
0, 0
1, 0
0, 0
1, 0
0, 1
0, 0
0, 0
0, 0
0, 0
1, 0
1, 0
1, 0
0, 0
0, 1
0, 1
0, 1
0, 0
0, 0
1, 0
0, 0
0, 1
0, 0
0, 0
0, 0
0, 0
0, 0
0, 0
0, 0
0, 0
0, 1
0, 0
0, 0
0, 0
0, 0
0, 0
1, 1
0, 0
0, 0
0, 0
0, 0
0, 0
1, 0
0, 0
0, 0
0, 0
1, 0
0, 0
0, 0
0, 0
0, 0
0, 0
0, 0
0, 0
0, 0
0, 0
0, 0
0, 0
0, 0
0, 0
0, 0
0, 0
0, 0
0, 0
0, 0
0, 0
0, 0
0, 0
0, 1
0, 0
0, 0
0, 0
0, 0
0, 0
0, 0
0, 0
0, 1
0, 0
0, 0
0, 0
0, 0
0, 0
0, 0
0, 0
0, 0
0, 0
0, 0
0, 0
0, 0
0, 0
0, 0
0, 0
0, 0
0, 0
0, 0
0, 0
0, 0
0, 0
0, 0
0, 0
0, 0
0, 0
0, 0
0, 0
0, 0
0, 0
0, 0
0, 0
0, 0
0, 0
0, 0
0, 0
0, 0
0, 0
0, 0
0, 0
0, 0
0, 0
0, 0
0, 0
0, 0
0, 0
0, 0
0, 0
0, 0
0, 0
0, 0
0, 0
0, 0
0, 0
0, 0
0, 0
0, 0
0, 0
0, 0
0, 0
0, 0
0, 0
0, 0
0, 0
0, 0
0, 0
0, 0
0, 0
0, 0
#ENDOFDATA     end of spectrum data