File: host_upload/06-09-2024/ps_0852/dump3/ps__0852shot_2551.msa
#FORMAT      : EMSA/MAS spectral data file
#VERSION     : TC202v2.0 PIXL
#TITLE       : N/A
#DATE        :       Date in the format DD-MMM-YYYY, for example 07-JUL-2010
#TIME        :             The time of day at which the spectrum was recorded, in 24-hour format
#OWNER       : PIXL Flight Model       (PIXL will use this to indicate which instrument took the data.)
#NPOINTS     : 4096     Number of data points in the spectrum (This can be zero for configuration only files)
#NCOLUMNS    : 2     Number of data columns in the spectrum (This can be zero for configuration only files)
#XUNITS      : eV
#YUNITS      : COUNTS
#DATATYPE    : YY
#XPERCHAN    : 7.862, 7.881   eV per channel (separate by commas if more than one detector)
#OFFSET      : 18.5, -22.4         eV of first channel  (separate by commas if more than one detector
#SIGNALTYPE  : XRF
#YP_TEMP     : 2.203
#LIVETIME    : 8.56386, 8.55255   seconds (separate by commas if more than one detector)
#REALTIME    : 10, 10.0   seconds (separate by commas if more than one detector)
#SPECTRUM    : start of spectrum data
0, 0
0, 0
0, 0
0, 0
0, 0
0, 0
0, 0
0, 0
1, 0
2, 0
3, 1
40, 25
62, 35
8, 3
16, 2
110, 92
545, 357
120, 86
5, 6
4, 4
7, 3
25, 12
11, 5
12, 11
75, 50
49, 50
21, 24
14, 13
6, 3
1, 4
3, 5
3, 3
11, 7
70, 54
121, 70
24, 8
13, 12
20, 15
3, 22
2, 19
5, 7
13, 30
25, 26
30, 16
14, 5
7, 6
12, 4
8, 10
13, 7
34, 22
30, 16
30, 6
19, 13
37, 31
64, 48
29, 22
36, 24
483, 464
2338, 1925
1732, 1059
199, 116
66, 11
54, 16
141, 120
365, 284
277, 194
43, 19
10, 5
16, 15
20, 15
5, 7
5, 6
6, 1
5, 2
9, 4
7, 6
6, 7
5, 9
7, 2
4, 2
6, 7
9, 3
7, 5
6, 7
3, 4
5, 6
6, 5
6, 1
7, 4
13, 4
14, 2
10, 2
2, 2
2, 1
6, 2
3, 1
2, 4
3, 4
3, 2
8, 2
3, 1
2, 3
4, 1
1, 2
1, 1
5, 4
1, 2
0, 3
1, 2
3, 0
1, 3
1, 1
3, 1
1, 1
1, 0
9, 2
3, 2
6, 0
1, 0
0, 2
4, 1
2, 1
4, 0
0, 2
1, 4
0, 0
1, 3
2, 1
0, 2
1, 1
0, 0
2, 1
1, 0
0, 0
1, 1
1, 0
0, 0
1, 1
0, 1
1, 1
0, 1
0, 0
1, 0
1, 0
0, 1
1, 2
2, 1
0, 0
0, 0
0, 0
0, 0
1, 1
0, 0
1, 0
0, 0
0, 0
0, 0
0, 1
0, 0
1, 2
0, 0
0, 0
1, 0
0, 0
0, 0
2, 0
1, 0
1, 0
0, 0
0, 0
2, 1
0, 0
0, 0
1, 0
0, 0
1, 0
1, 1
0, 0
1, 0
0, 1
0, 0
0, 0
0, 0
0, 0
0, 0
0, 1
0, 0
0, 0
0, 0
0, 0
1, 0
0, 0
0, 0
0, 0
0, 0
0, 0
0, 0
0, 0
0, 0
0, 0
0, 0
0, 0
0, 0
0, 0
1, 1
0, 0
0, 0
0, 0
0, 0
0, 0
0, 0
0, 0
0, 0
0, 0
0, 0
0, 0
0, 0
0, 0
0, 0
0, 0
0, 0
0, 0
0, 0
0, 0
0, 0
0, 0
0, 0
0, 0
0, 0
0, 0
0, 0
0, 0
0, 0
0, 0
0, 0
0, 0
0, 0
0, 0
0, 0
0, 0
0, 0
0, 0
0, 0
0, 0
0, 0
0, 0
0, 0
0, 0
0, 0
0, 0
0, 0
0, 0
0, 0
0, 0
0, 0
0, 0
0, 0
0, 0
0, 0
0, 0
0, 0
0, 0
0, 0
0, 0
0, 0
0, 0
0, 0
0, 0
0, 0
0, 0
0, 0
0, 0
0, 0
0, 0
0, 0
0, 0
0, 0
0, 0
0, 0
0, 0
0, 0
0, 0
0, 0
0, 0
0, 0
0, 0
0, 0
0, 0
0, 0
0, 0
0, 0
0, 0
0, 0
0, 0
#ENDOFDATA     end of spectrum data