File: host_upload/06-09-2024/ps_0852/dump3/ps__0852shot_2336.msa
#FORMAT      : EMSA/MAS spectral data file
#VERSION     : TC202v2.0 PIXL
#TITLE       : N/A
#DATE        :       Date in the format DD-MMM-YYYY, for example 07-JUL-2010
#TIME        :             The time of day at which the spectrum was recorded, in 24-hour format
#OWNER       : PIXL Flight Model       (PIXL will use this to indicate which instrument took the data.)
#NPOINTS     : 4096     Number of data points in the spectrum (This can be zero for configuration only files)
#NCOLUMNS    : 2     Number of data columns in the spectrum (This can be zero for configuration only files)
#XUNITS      : eV
#YUNITS      : COUNTS
#DATATYPE    : YY
#XPERCHAN    : 7.862, 7.881   eV per channel (separate by commas if more than one detector)
#OFFSET      : 18.5, -22.4         eV of first channel  (separate by commas if more than one detector
#SIGNALTYPE  : XRF
#YP_TEMP     : 2.46
#LIVETIME    : 8.55681, 8.54348   seconds (separate by commas if more than one detector)
#REALTIME    : 10, 10.0   seconds (separate by commas if more than one detector)
#SPECTRUM    : start of spectrum data
0, 0
0, 0
0, 0
0, 0
0, 0
0, 0
0, 0
0, 0
0, 1
2, 0
3, 2
42, 58
50, 40
6, 4
4, 2
89, 110
362, 423
92, 99
7, 2
1, 1
20, 18
145, 132
37, 44
17, 18
37, 38
41, 49
28, 30
8, 18
7, 9
3, 4
0, 4
2, 4
4, 3
10, 19
22, 14
2, 6
4, 6
3, 4
4, 5
4, 2
4, 4
10, 11
12, 22
13, 11
4, 35
4, 77
6, 46
8, 9
5, 8
18, 16
25, 15
11, 8
10, 12
38, 51
44, 61
29, 21
33, 35
434, 657
2081, 2585
1659, 1486
288, 146
30, 20
21, 12
96, 134
321, 379
196, 204
30, 31
10, 28
13, 46
9, 23
5, 2
6, 5
2, 5
3, 5
2, 8
3, 10
2, 3
1, 4
2, 2
6, 3
5, 4
6, 3
1, 11
3, 8
1, 3
0, 5
0, 5
2, 2
3, 3
2, 14
4, 11
2, 8
2, 4
3, 4
2, 6
1, 3
4, 3
6, 5
4, 4
11, 1
10, 2
3, 3
1, 2
0, 1
2, 5
0, 7
2, 2
2, 0
2, 3
2, 2
1, 2
2, 3
3, 2
4, 1
3, 3
2, 3
3, 2
4, 2
2, 1
1, 1
3, 5
1, 2
1, 2
1, 1
1, 2
3, 1
1, 3
0, 1
2, 1
1, 1
1, 0
1, 0
0, 0
1, 0
1, 0
0, 0
2, 0
2, 1
0, 1
0, 3
1, 1
1, 0
0, 2
0, 0
0, 0
2, 4
2, 0
1, 0
1, 1
0, 1
0, 2
0, 0
0, 1
0, 0
1, 0
1, 0
0, 0
0, 0
1, 0
0, 0
0, 0
0, 0
0, 0
0, 0
0, 2
0, 1
0, 1
0, 0
1, 0
0, 0
1, 1
0, 0
0, 0
0, 0
1, 1
0, 0
1, 0
0, 0
0, 0
0, 1
0, 0
0, 0
0, 0
0, 0
0, 0
1, 0
0, 0
0, 1
1, 1
0, 0
0, 0
0, 0
0, 0
0, 0
0, 0
0, 0
0, 0
1, 0
0, 0
0, 0
0, 0
0, 0
0, 0
0, 0
0, 0
0, 0
0, 0
0, 0
0, 0
0, 0
0, 0
0, 0
0, 0
0, 0
0, 0
0, 0
0, 0
0, 0
0, 0
0, 0
0, 0
0, 0
0, 0
0, 0
0, 0
0, 0
0, 0
0, 0
0, 0
0, 0
0, 0
0, 0
0, 0
0, 0
0, 0
0, 0
0, 0
0, 0
0, 0
0, 0
0, 0
0, 0
0, 0
0, 0
0, 0
0, 0
0, 0
0, 0
0, 0
0, 0
0, 0
0, 0
0, 0
0, 0
0, 0
0, 0
0, 0
0, 0
0, 0
0, 0
0, 0
0, 0
0, 0
0, 0
0, 0
0, 0
0, 0
0, 0
0, 0
0, 0
0, 0
0, 0
0, 0
0, 0
0, 0
0, 0
0, 0
0, 0
0, 0
0, 0
0, 0
0, 0
0, 0
0, 0
0, 0
0, 0
0, 0
0, 0
0, 0
0, 0
0, 0
0, 0
0, 0
0, 0
#ENDOFDATA     end of spectrum data