File: host_upload/06-09-2024/ps_0852/dump3/ps__0852shot_2250.msa
#FORMAT      : EMSA/MAS spectral data file
#VERSION     : TC202v2.0 PIXL
#TITLE       : N/A
#DATE        :       Date in the format DD-MMM-YYYY, for example 07-JUL-2010
#TIME        :             The time of day at which the spectrum was recorded, in 24-hour format
#OWNER       : PIXL Flight Model       (PIXL will use this to indicate which instrument took the data.)
#NPOINTS     : 4096     Number of data points in the spectrum (This can be zero for configuration only files)
#NCOLUMNS    : 2     Number of data columns in the spectrum (This can be zero for configuration only files)
#XUNITS      : eV
#YUNITS      : COUNTS
#DATATYPE    : YY
#XPERCHAN    : 7.862, 7.881   eV per channel (separate by commas if more than one detector)
#OFFSET      : 18.5, -22.4         eV of first channel  (separate by commas if more than one detector
#SIGNALTYPE  : XRF
#YP_TEMP     : 2.332
#LIVETIME    : 8.55044, 8.56812   seconds (separate by commas if more than one detector)
#REALTIME    : 10, 10.0   seconds (separate by commas if more than one detector)
#SPECTRUM    : start of spectrum data
0, 0
0, 0
0, 0
0, 0
0, 0
0, 0
0, 0
0, 0
0, 0
1, 1
5, 2
53, 60
83, 76
7, 6
2, 5
111, 105
472, 440
121, 112
3, 3
1, 0
3, 1
1, 3
5, 0
7, 6
16, 13
29, 20
14, 10
17, 13
2, 4
2, 4
0, 1
4, 2
8, 1
17, 14
17, 17
4, 2
4, 3
3, 1
2, 2
2, 2
1, 8
6, 16
10, 23
6, 9
4, 5
6, 4
2, 4
3, 9
9, 6
14, 12
12, 8
8, 14
11, 9
42, 40
108, 51
55, 30
34, 30
459, 596
2288, 2400
1606, 1360
213, 138
11, 16
17, 27
94, 135
346, 356
208, 199
26, 26
9, 6
15, 11
7, 8
2, 3
3, 5
0, 2
4, 11
6, 20
7, 14
5, 5
6, 2
3, 5
5, 4
10, 2
21, 2
21, 2
8, 5
7, 7
3, 2
6, 5
7, 3
1, 3
1, 3
2, 2
3, 1
0, 0
3, 4
3, 0
1, 4
2, 2
2, 3
4, 4
4, 3
4, 1
2, 4
1, 1
0, 7
2, 1
2, 3
1, 3
3, 2
1, 3
0, 6
2, 3
0, 1
2, 4
1, 2
2, 5
1, 4
12, 3
6, 2
1, 4
1, 1
1, 0
0, 1
3, 1
3, 1
2, 1
3, 3
1, 0
0, 1
1, 0
4, 0
0, 0
0, 1
1, 0
0, 2
0, 0
1, 0
0, 2
0, 0
1, 1
0, 3
0, 1
0, 3
0, 0
0, 3
0, 0
0, 0
0, 1
0, 0
0, 1
1, 0
0, 0
0, 1
0, 0
2, 0
0, 0
0, 0
0, 0
0, 0
0, 0
0, 0
1, 1
0, 0
0, 1
0, 0
0, 0
2, 1
0, 0
0, 0
0, 1
0, 0
0, 0
1, 0
0, 1
0, 0
0, 0
0, 0
0, 0
0, 0
1, 0
0, 0
0, 0
0, 0
0, 1
1, 0
0, 0
0, 0
0, 0
0, 0
0, 0
0, 0
0, 0
0, 0
0, 0
0, 0
0, 0
0, 0
0, 0
0, 0
0, 0
0, 1
0, 0
0, 0
0, 0
0, 0
0, 0
0, 0
0, 0
0, 0
0, 0
0, 0
0, 0
0, 0
0, 0
0, 0
0, 0
0, 0
0, 0
0, 0
0, 0
0, 1
0, 0
0, 0
0, 0
0, 0
0, 0
0, 0
0, 0
0, 0
0, 0
0, 0
0, 0
0, 0
0, 0
0, 0
0, 0
0, 0
0, 0
0, 0
0, 0
0, 0
0, 0
0, 0
0, 0
0, 0
0, 0
0, 0
0, 0
0, 0
0, 0
0, 0
0, 0
0, 0
0, 0
0, 0
0, 0
0, 0
0, 0
0, 0
0, 0
0, 0
0, 0
0, 0
0, 0
0, 0
0, 0
0, 0
0, 0
0, 0
0, 0
0, 0
0, 0
0, 0
0, 0
0, 0
0, 0
0, 0
0, 0
0, 0
0, 0
0, 0
0, 0
0, 0
0, 0
0, 0
0, 0
0, 0
0, 0
0, 0
0, 0
0, 0
0, 0
0, 0
0, 0
0, 0
#ENDOFDATA     end of spectrum data