File: host_upload/06-09-2024/ps_0852/dump3/ps__0852shot_2427.msa
#FORMAT      : EMSA/MAS spectral data file
#VERSION     : TC202v2.0 PIXL
#TITLE       : N/A
#DATE        :       Date in the format DD-MMM-YYYY, for example 07-JUL-2010
#TIME        :             The time of day at which the spectrum was recorded, in 24-hour format
#OWNER       : PIXL Flight Model       (PIXL will use this to indicate which instrument took the data.)
#NPOINTS     : 4096     Number of data points in the spectrum (This can be zero for configuration only files)
#NCOLUMNS    : 2     Number of data columns in the spectrum (This can be zero for configuration only files)
#XUNITS      : eV
#YUNITS      : COUNTS
#DATATYPE    : YY
#XPERCHAN    : 7.862, 7.881   eV per channel (separate by commas if more than one detector)
#OFFSET      : 18.5, -22.4         eV of first channel  (separate by commas if more than one detector
#SIGNALTYPE  : XRF
#YP_TEMP     : 2.267
#LIVETIME    : 8.58355, 8.54898   seconds (separate by commas if more than one detector)
#REALTIME    : 10, 10.0   seconds (separate by commas if more than one detector)
#SPECTRUM    : start of spectrum data
0, 0
0, 0
0, 0
0, 0
0, 0
0, 0
0, 0
0, 1
0, 0
4, 2
5, 2
43, 59
56, 58
13, 4
9, 6
106, 103
457, 369
111, 95
8, 2
1, 0
2, 0
5, 5
5, 3
22, 15
55, 33
75, 42
20, 13
14, 14
3, 4
1, 2
1, 0
2, 4
4, 2
44, 35
81, 60
22, 7
9, 5
16, 10
4, 3
3, 4
6, 9
16, 13
16, 10
7, 9
1, 7
2, 7
5, 6
9, 30
9, 93
23, 55
21, 14
36, 6
75, 8
74, 38
71, 55
18, 16
33, 31
499, 499
2254, 2141
1569, 1269
206, 105
11, 11
23, 15
86, 105
323, 340
259, 188
41, 31
50, 12
43, 15
15, 6
3, 3
6, 3
5, 4
9, 1
10, 11
6, 6
10, 12
10, 1
10, 4
4, 4
10, 6
4, 2
5, 2
3, 7
4, 5
2, 2
3, 2
2, 3
4, 1
5, 2
6, 1
5, 4
16, 6
11, 4
11, 4
4, 4
3, 3
3, 4
1, 1
1, 3
3, 2
2, 3
3, 1
3, 2
2, 3
0, 1
1, 1
1, 2
3, 2
2, 6
4, 3
2, 3
3, 0
4, 0
2, 1
1, 1
4, 5
0, 2
2, 1
0, 0
1, 1
0, 4
1, 3
1, 1
1, 1
2, 0
0, 1
0, 1
3, 0
1, 0
0, 0
2, 0
1, 3
0, 1
5, 1
1, 0
1, 2
1, 1
0, 0
0, 0
0, 1
1, 0
1, 0
0, 1
1, 0
2, 1
1, 1
0, 1
0, 2
1, 2
0, 0
0, 0
0, 0
0, 0
3, 1
0, 0
2, 1
1, 0
0, 0
0, 0
0, 0
0, 0
0, 1
0, 0
0, 1
0, 0
0, 0
0, 0
0, 1
2, 1
0, 0
0, 0
2, 1
0, 0
0, 0
0, 0
0, 0
0, 0
1, 0
0, 0
0, 0
0, 0
0, 0
0, 0
0, 0
0, 0
0, 0
1, 0
0, 0
0, 0
0, 0
0, 1
0, 0
0, 0
0, 0
0, 0
0, 0
0, 0
0, 0
0, 0
0, 0
0, 0
0, 0
0, 0
0, 0
0, 0
0, 0
1, 0
0, 0
0, 0
0, 0
0, 0
0, 0
0, 0
0, 0
0, 0
0, 0
0, 0
0, 0
0, 0
0, 0
0, 0
0, 0
0, 0
0, 0
0, 0
0, 0
0, 0
0, 0
0, 0
0, 0
0, 0
0, 0
0, 0
0, 0
0, 0
0, 0
0, 0
0, 0
0, 0
0, 0
0, 0
0, 0
0, 0
0, 0
0, 0
0, 0
0, 0
0, 0
0, 0
0, 0
0, 0
0, 0
0, 0
0, 0
0, 0
0, 0
0, 0
0, 0
0, 0
0, 0
0, 0
0, 0
0, 0
0, 0
0, 0
0, 0
0, 0
0, 0
0, 0
0, 0
0, 0
0, 0
0, 0
0, 0
0, 0
0, 0
0, 0
0, 0
0, 0
0, 0
0, 0
0, 0
0, 0
0, 0
0, 0
0, 0
0, 0
0, 0
0, 0
0, 0
0, 0
0, 0
0, 0
#ENDOFDATA     end of spectrum data