File: host_upload/06-09-2024/ps_0852/dump3/ps__0852shot_2190.msa
#FORMAT      : EMSA/MAS spectral data file
#VERSION     : TC202v2.0 PIXL
#TITLE       : N/A
#DATE        :       Date in the format DD-MMM-YYYY, for example 07-JUL-2010
#TIME        :             The time of day at which the spectrum was recorded, in 24-hour format
#OWNER       : PIXL Flight Model       (PIXL will use this to indicate which instrument took the data.)
#NPOINTS     : 4096     Number of data points in the spectrum (This can be zero for configuration only files)
#NCOLUMNS    : 2     Number of data columns in the spectrum (This can be zero for configuration only files)
#XUNITS      : eV
#YUNITS      : COUNTS
#DATATYPE    : YY
#XPERCHAN    : 7.862, 7.881   eV per channel (separate by commas if more than one detector)
#OFFSET      : 18.5, -22.4         eV of first channel  (separate by commas if more than one detector
#SIGNALTYPE  : XRF
#YP_TEMP     : 2.588
#LIVETIME    : 8.53998, 8.50689   seconds (separate by commas if more than one detector)
#REALTIME    : 10, 10.0   seconds (separate by commas if more than one detector)
#SPECTRUM    : start of spectrum data
0, 0
0, 0
0, 0
0, 0
0, 0
0, 0
0, 0
0, 0
4, 1
27, 0
2, 1
37, 54
58, 67
4, 1
4, 6
99, 116
422, 413
79, 107
0, 7
6, 2
1, 1
6, 5
4, 2
52, 7
1074, 19
1872, 30
260, 23
17, 18
3, 5
0, 4
5, 1
1, 1
1, 3
18, 19
19, 16
3, 4
4, 3
27, 2
48, 6
14, 2
7, 5
9, 21
13, 16
10, 95
7, 128
6, 25
0, 4
1, 4
10, 4
23, 21
24, 18
33, 15
14, 10
30, 53
53, 61
19, 42
30, 91
416, 667
1973, 2430
1433, 1415
183, 151
30, 20
117, 25
193, 139
330, 365
189, 214
26, 20
7, 6
15, 13
15, 9
3, 8
1, 0
0, 5
7, 3
30, 9
59, 9
51, 2
17, 6
4, 6
4, 8
1, 9
2, 4
3, 6
7, 9
2, 8
2, 8
6, 4
2, 6
6, 5
3, 3
6, 5
3, 2
1, 2
0, 3
2, 2
2, 3
1, 2
5, 2
1, 0
8, 5
4, 3
4, 7
3, 3
4, 1
1, 0
1, 0
2, 2
2, 0
4, 2
0, 0
1, 4
2, 1
3, 6
4, 3
3, 2
2, 4
2, 3
1, 1
2, 1
1, 1
3, 2
2, 0
3, 3
1, 1
2, 1
0, 0
0, 2
1, 0
2, 2
1, 0
1, 0
2, 0
1, 0
0, 0
0, 1
0, 0
1, 1
0, 1
1, 2
2, 0
0, 0
0, 2
3, 1
0, 0
2, 0
0, 0
0, 2
1, 0
0, 1
0, 0
2, 1
0, 0
0, 0
1, 0
0, 0
0, 0
0, 0
0, 0
0, 0
0, 1
0, 0
0, 0
0, 1
0, 1
0, 0
0, 1
0, 1
1, 0
0, 1
0, 0
0, 0
0, 1
0, 0
0, 0
0, 0
0, 0
0, 0
0, 0
0, 1
0, 1
0, 0
1, 0
0, 0
0, 0
0, 0
0, 0
0, 0
0, 0
0, 0
0, 0
0, 0
0, 2
0, 0
0, 0
0, 0
0, 0
0, 1
0, 0
0, 0
0, 0
0, 0
0, 0
1, 0
0, 0
0, 0
0, 0
0, 0
0, 0
0, 0
0, 0
0, 0
0, 0
0, 0
0, 0
0, 0
0, 0
0, 0
0, 0
0, 0
0, 0
0, 0
0, 0
0, 0
0, 0
0, 0
0, 0
0, 0
0, 0
0, 0
0, 0
0, 0
0, 0
0, 0
0, 0
0, 0
0, 0
0, 0
0, 0
0, 0
0, 0
0, 0
0, 0
0, 0
0, 0
0, 0
0, 0
0, 0
0, 0
0, 0
0, 0
0, 0
0, 0
0, 0
0, 0
0, 0
0, 0
0, 0
0, 0
0, 0
0, 0
0, 0
0, 0
0, 0
0, 0
0, 0
0, 0
0, 0
0, 0
0, 0
0, 0
0, 0
0, 0
0, 0
0, 0
0, 0
0, 0
0, 0
0, 0
0, 0
0, 0
0, 0
0, 0
0, 0
0, 0
0, 0
0, 0
0, 0
0, 0
0, 0
0, 0
0, 0
0, 0
0, 0
0, 0
#ENDOFDATA     end of spectrum data