File: host_upload/06-09-2024/ps_0852/dump3/ps__0852shot_2563.msa
#FORMAT      : EMSA/MAS spectral data file
#VERSION     : TC202v2.0 PIXL
#TITLE       : N/A
#DATE        :       Date in the format DD-MMM-YYYY, for example 07-JUL-2010
#TIME        :             The time of day at which the spectrum was recorded, in 24-hour format
#OWNER       : PIXL Flight Model       (PIXL will use this to indicate which instrument took the data.)
#NPOINTS     : 4096     Number of data points in the spectrum (This can be zero for configuration only files)
#NCOLUMNS    : 2     Number of data columns in the spectrum (This can be zero for configuration only files)
#XUNITS      : eV
#YUNITS      : COUNTS
#DATATYPE    : YY
#XPERCHAN    : 7.862, 7.881   eV per channel (separate by commas if more than one detector)
#OFFSET      : 18.5, -22.4         eV of first channel  (separate by commas if more than one detector
#SIGNALTYPE  : XRF
#YP_TEMP     : 2.203
#LIVETIME    : 8.51465, 8.54811   seconds (separate by commas if more than one detector)
#REALTIME    : 10, 10.0   seconds (separate by commas if more than one detector)
#SPECTRUM    : start of spectrum data
0, 0
0, 0
0, 0
0, 0
0, 0
0, 0
0, 0
0, 1
0, 2
3, 0
3, 2
29, 37
47, 29
13, 7
29, 19
113, 97
447, 423
108, 93
18, 11
17, 9
1, 3
15, 5
5, 7
19, 21
85, 86
72, 77
50, 32
31, 19
5, 6
4, 5
23, 17
12, 18
3, 7
34, 29
44, 44
12, 17
14, 8
15, 16
8, 3
40, 6
57, 8
41, 27
33, 18
20, 11
10, 10
4, 11
10, 11
4, 7
9, 10
16, 15
20, 13
21, 14
47, 10
99, 34
75, 52
26, 16
39, 46
454, 505
2059, 2053
1407, 1232
163, 113
31, 12
20, 28
122, 110
316, 327
227, 189
37, 21
7, 7
18, 8
13, 7
1, 6
9, 6
3, 3
4, 7
8, 2
8, 11
8, 7
6, 6
11, 10
12, 6
11, 11
6, 13
12, 9
5, 5
2, 6
5, 5
2, 6
8, 0
3, 4
3, 5
5, 1
3, 4
7, 12
6, 8
6, 5
2, 1
3, 1
2, 1
5, 3
4, 1
4, 1
2, 2
1, 0
2, 3
0, 4
5, 5
2, 1
3, 5
9, 3
7, 1
3, 1
1, 1
3, 0
2, 3
1, 3
1, 3
3, 5
6, 5
2, 1
1, 0
1, 3
4, 1
1, 1
2, 2
2, 3
0, 0
1, 4
2, 1
1, 2
1, 0
1, 1
3, 3
2, 2
0, 2
3, 0
0, 1
0, 0
1, 2
0, 2
0, 1
0, 2
1, 1
0, 1
0, 1
1, 0
0, 0
0, 0
0, 0
1, 1
0, 0
0, 1
0, 0
0, 0
0, 0
0, 0
1, 1
2, 0
1, 0
0, 0
0, 0
2, 0
1, 0
0, 0
0, 0
0, 1
0, 0
0, 1
0, 0
0, 0
1, 0
0, 0
0, 0
1, 0
0, 0
0, 0
0, 0
0, 0
0, 0
1, 0
0, 0
0, 0
0, 0
1, 0
1, 0
0, 0
0, 0
0, 0
0, 0
0, 0
0, 0
0, 0
0, 0
0, 0
0, 0
0, 1
0, 0
0, 0
0, 0
0, 0
0, 0
0, 0
0, 0
0, 0
0, 0
0, 0
0, 0
0, 0
0, 0
0, 0
0, 0
0, 0
0, 0
0, 0
0, 0
0, 0
0, 0
0, 0
0, 0
0, 0
0, 0
0, 0
0, 0
0, 0
0, 0
0, 0
0, 0
0, 0
0, 0
0, 0
0, 0
0, 0
0, 0
0, 0
0, 0
0, 0
0, 0
0, 0
0, 0
0, 0
0, 0
0, 0
0, 0
0, 0
0, 0
0, 0
0, 0
0, 0
0, 0
0, 0
0, 0
0, 0
0, 0
0, 0
0, 0
0, 0
0, 0
0, 0
0, 0
0, 0
0, 0
0, 0
0, 0
0, 0
0, 0
0, 0
0, 0
0, 0
0, 0
0, 0
0, 0
0, 0
0, 0
0, 0
0, 0
0, 0
0, 0
0, 0
0, 0
0, 0
0, 0
0, 0
0, 0
0, 0
0, 0
0, 0
0, 0
0, 0
0, 0
0, 0
0, 0
0, 0
0, 0
0, 0
0, 0
#ENDOFDATA     end of spectrum data