File: host_upload/06-09-2024/ps_0852/dump3/ps__0852shot_2291.msa
#FORMAT      : EMSA/MAS spectral data file
#VERSION     : TC202v2.0 PIXL
#TITLE       : N/A
#DATE        :       Date in the format DD-MMM-YYYY, for example 07-JUL-2010
#TIME        :             The time of day at which the spectrum was recorded, in 24-hour format
#OWNER       : PIXL Flight Model       (PIXL will use this to indicate which instrument took the data.)
#NPOINTS     : 4096     Number of data points in the spectrum (This can be zero for configuration only files)
#NCOLUMNS    : 2     Number of data columns in the spectrum (This can be zero for configuration only files)
#XUNITS      : eV
#YUNITS      : COUNTS
#DATATYPE    : YY
#XPERCHAN    : 7.862, 7.881   eV per channel (separate by commas if more than one detector)
#OFFSET      : 18.5, -22.4         eV of first channel  (separate by commas if more than one detector
#SIGNALTYPE  : XRF
#YP_TEMP     : 2.428
#LIVETIME    : 8.55702, 8.56614   seconds (separate by commas if more than one detector)
#REALTIME    : 10, 10.0   seconds (separate by commas if more than one detector)
#SPECTRUM    : start of spectrum data
0, 0
0, 0
0, 0
0, 0
0, 0
0, 0
0, 0
0, 0
1, 3
1, 2
3, 2
27, 39
46, 44
10, 8
6, 2
91, 109
356, 389
93, 86
4, 3
1, 6
41, 62
223, 281
96, 109
23, 48
51, 56
42, 51
23, 22
10, 17
8, 6
4, 3
1, 4
3, 1
2, 8
31, 34
49, 55
7, 13
7, 10
5, 8
6, 7
1, 4
9, 4
11, 11
20, 24
12, 23
5, 17
6, 64
7, 47
4, 13
12, 12
18, 15
28, 16
12, 6
7, 11
38, 41
65, 70
22, 22
37, 33
403, 618
1978, 2404
1630, 1405
248, 156
19, 23
14, 21
74, 126
306, 390
209, 227
26, 29
5, 20
11, 41
12, 19
7, 9
8, 9
0, 5
7, 6
4, 8
5, 4
5, 3
6, 2
6, 9
6, 6
6, 6
4, 4
2, 4
1, 6
3, 4
5, 7
2, 5
3, 4
2, 2
3, 6
3, 14
2, 4
4, 4
4, 2
2, 4
2, 2
4, 2
7, 3
6, 3
15, 2
4, 2
3, 2
0, 6
1, 5
0, 1
1, 3
1, 4
2, 4
1, 1
1, 2
1, 5
4, 1
1, 5
3, 0
2, 0
2, 2
3, 2
2, 4
5, 2
1, 0
2, 3
2, 0
1, 2
4, 2
2, 3
2, 1
1, 1
1, 0
2, 1
0, 0
1, 1
0, 1
0, 0
1, 3
0, 1
0, 0
1, 0
0, 0
0, 0
1, 1
0, 0
1, 2
1, 2
1, 0
0, 0
0, 0
0, 1
0, 1
0, 0
0, 0
0, 0
1, 1
1, 0
0, 0
0, 0
0, 1
0, 0
3, 0
1, 0
0, 0
0, 0
0, 0
0, 0
0, 1
0, 0
0, 0
0, 0
0, 0
0, 1
1, 0
0, 2
0, 0
0, 0
0, 0
0, 0
0, 1
0, 0
0, 0
0, 0
0, 0
0, 0
0, 0
0, 1
0, 0
0, 0
0, 0
0, 0
0, 0
0, 0
0, 0
0, 0
0, 0
0, 0
1, 0
0, 0
0, 0
0, 0
0, 0
0, 0
0, 0
0, 0
0, 0
0, 0
0, 0
0, 0
0, 0
1, 0
0, 0
0, 0
0, 0
0, 0
0, 0
0, 0
0, 0
0, 0
0, 0
0, 0
0, 0
0, 0
0, 0
0, 0
0, 0
0, 0
0, 0
0, 0
0, 0
0, 0
0, 0
0, 0
0, 0
0, 0
0, 0
0, 0
0, 0
0, 0
0, 0
0, 0
0, 0
0, 0
0, 0
0, 0
0, 0
0, 0
0, 0
0, 0
0, 0
0, 0
0, 0
0, 0
0, 0
0, 0
0, 0
0, 0
0, 0
0, 0
0, 0
0, 0
0, 0
0, 0
0, 0
0, 0
0, 0
0, 0
0, 0
0, 0
0, 0
0, 0
0, 0
0, 0
0, 0
0, 0
0, 0
0, 0
0, 0
0, 0
0, 0
0, 0
0, 0
0, 0
0, 0
0, 0
0, 0
0, 0
0, 0
0, 0
0, 0
0, 0
0, 0
0, 0
0, 0
0, 0
0, 0
0, 0
0, 0
#ENDOFDATA     end of spectrum data