File: host_upload/06-09-2024/ps_0852/dump3/ps__0852shot_2437.msa
#FORMAT      : EMSA/MAS spectral data file
#VERSION     : TC202v2.0 PIXL
#TITLE       : N/A
#DATE        :       Date in the format DD-MMM-YYYY, for example 07-JUL-2010
#TIME        :             The time of day at which the spectrum was recorded, in 24-hour format
#OWNER       : PIXL Flight Model       (PIXL will use this to indicate which instrument took the data.)
#NPOINTS     : 4096     Number of data points in the spectrum (This can be zero for configuration only files)
#NCOLUMNS    : 2     Number of data columns in the spectrum (This can be zero for configuration only files)
#XUNITS      : eV
#YUNITS      : COUNTS
#DATATYPE    : YY
#XPERCHAN    : 7.862, 7.881   eV per channel (separate by commas if more than one detector)
#OFFSET      : 18.5, -22.4         eV of first channel  (separate by commas if more than one detector
#SIGNALTYPE  : XRF
#YP_TEMP     : 2.3
#LIVETIME    : 8.56045, 8.5533   seconds (separate by commas if more than one detector)
#REALTIME    : 10, 10.0   seconds (separate by commas if more than one detector)
#SPECTRUM    : start of spectrum data
0, 0
0, 0
0, 0
0, 0
0, 0
0, 0
0, 0
0, 0
0, 0
3, 3
2, 3
42, 42
54, 60
2, 1
4, 7
107, 103
532, 412
93, 88
2, 7
2, 3
1, 0
5, 2
1, 7
9, 9
30, 50
46, 76
22, 26
15, 19
7, 5
3, 3
4, 0
0, 2
2, 2
34, 25
49, 50
14, 12
10, 6
23, 10
34, 2
10, 1
5, 3
8, 6
16, 22
11, 34
5, 40
8, 8
7, 8
6, 3
11, 7
21, 13
42, 11
56, 7
14, 16
38, 43
85, 44
126, 24
104, 42
516, 547
2131, 2173
1715, 1296
208, 136
18, 11
35, 26
127, 126
358, 338
243, 192
32, 18
14, 3
14, 14
10, 4
3, 4
5, 2
3, 4
3, 4
8, 8
25, 4
26, 9
8, 4
8, 5
2, 6
3, 4
2, 3
2, 1
4, 1
1, 5
5, 7
3, 2
6, 1
3, 4
2, 5
10, 1
2, 4
7, 7
7, 11
1, 6
4, 5
3, 3
2, 2
2, 2
4, 6
8, 4
5, 4
2, 3
0, 2
1, 0
2, 1
5, 2
2, 4
3, 1
0, 0
0, 0
0, 0
0, 0
3, 1
4, 0
1, 0
5, 3
5, 4
2, 3
2, 1
1, 1
4, 2
4, 0
2, 2
5, 0
1, 0
0, 1
1, 1
3, 1
1, 0
1, 2
0, 1
1, 0
0, 1
1, 1
1, 0
0, 0
1, 0
3, 0
1, 0
1, 0
0, 1
0, 3
0, 1
1, 1
1, 0
1, 1
0, 3
0, 1
1, 0
0, 1
0, 0
1, 1
0, 0
0, 1
2, 0
1, 0
0, 0
1, 1
1, 0
0, 0
0, 0
1, 0
0, 0
0, 0
0, 0
0, 0
0, 0
0, 0
0, 0
2, 0
0, 0
2, 0
1, 0
0, 1
0, 1
0, 0
0, 0
0, 1
0, 1
0, 0
1, 0
0, 0
0, 0
0, 0
0, 0
1, 0
0, 0
0, 0
0, 0
0, 1
0, 0
0, 0
0, 3
0, 1
0, 0
0, 0
0, 0
0, 0
0, 0
0, 0
0, 0
0, 0
0, 0
0, 0
0, 0
0, 0
0, 0
0, 0
0, 0
0, 0
0, 0
0, 0
0, 0
0, 0
0, 0
0, 0
0, 0
0, 0
0, 0
0, 0
0, 0
0, 0
0, 0
0, 0
0, 0
0, 0
0, 0
0, 0
0, 0
0, 0
0, 0
0, 0
0, 0
0, 0
0, 0
0, 0
0, 0
0, 0
0, 0
0, 0
0, 0
0, 0
0, 0
0, 0
0, 0
0, 0
0, 0
0, 0
0, 0
0, 0
0, 0
0, 0
0, 0
0, 0
0, 0
0, 0
0, 0
0, 0
0, 0
0, 0
0, 0
0, 0
0, 0
0, 0
0, 0
0, 0
0, 0
0, 0
0, 0
0, 0
0, 0
0, 0
0, 0
0, 0
0, 0
0, 0
0, 0
0, 0
0, 0
0, 0
0, 0
0, 0
0, 0
0, 0
0, 0
0, 0
0, 0
0, 0
0, 0
0, 0
0, 0
0, 0
0, 0
#ENDOFDATA     end of spectrum data