File: host_upload/06-09-2024/ps_0852/dump3/ps__0852shot_2540.msa
#FORMAT      : EMSA/MAS spectral data file
#VERSION     : TC202v2.0 PIXL
#TITLE       : N/A
#DATE        :       Date in the format DD-MMM-YYYY, for example 07-JUL-2010
#TIME        :             The time of day at which the spectrum was recorded, in 24-hour format
#OWNER       : PIXL Flight Model       (PIXL will use this to indicate which instrument took the data.)
#NPOINTS     : 4096     Number of data points in the spectrum (This can be zero for configuration only files)
#NCOLUMNS    : 2     Number of data columns in the spectrum (This can be zero for configuration only files)
#XUNITS      : eV
#YUNITS      : COUNTS
#DATATYPE    : YY
#XPERCHAN    : 7.862, 7.881   eV per channel (separate by commas if more than one detector)
#OFFSET      : 18.5, -22.4         eV of first channel  (separate by commas if more than one detector
#SIGNALTYPE  : XRF
#YP_TEMP     : 2.428
#LIVETIME    : 8.555, 8.56543   seconds (separate by commas if more than one detector)
#REALTIME    : 10, 10.0   seconds (separate by commas if more than one detector)
#SPECTRUM    : start of spectrum data
0, 0
0, 0
0, 0
0, 0
0, 0
0, 0
0, 0
0, 0
0, 5
1, 23
2, 7
44, 36
60, 52
8, 7
3, 5
103, 86
424, 507
116, 127
4, 5
0, 3
2, 2
1, 1
4, 3
3, 59
28, 1003
28, 1316
24, 166
13, 12
2, 3
5, 2
3, 0
1, 2
1, 3
7, 14
14, 15
2, 9
8, 36
5, 32
5, 8
0, 3
3, 6
6, 9
8, 15
8, 11
3, 4
3, 7
2, 4
11, 2
8, 8
11, 20
15, 9
13, 9
10, 12
44, 46
49, 61
13, 23
22, 39
450, 566
2148, 2361
1583, 1361
178, 155
22, 39
26, 30
108, 128
337, 356
230, 200
17, 18
9, 6
9, 11
5, 8
3, 3
2, 8
8, 7
18, 7
21, 7
15, 6
3, 7
3, 7
3, 4
0, 0
2, 1
2, 3
6, 8
3, 6
7, 4
4, 2
4, 5
2, 2
2, 8
4, 7
4, 2
0, 0
3, 2
2, 3
3, 4
4, 1
1, 0
4, 5
5, 8
3, 8
3, 5
0, 1
0, 0
1, 3
2, 3
4, 1
2, 0
2, 2
2, 3
3, 1
2, 5
4, 4
2, 4
3, 4
3, 1
1, 3
4, 5
4, 0
3, 1
0, 2
0, 2
2, 3
3, 3
1, 2
2, 1
0, 0
1, 0
0, 0
2, 0
0, 2
0, 0
0, 0
0, 0
0, 2
2, 1
1, 0
1, 1
1, 1
0, 1
0, 3
1, 1
0, 1
2, 0
0, 0
0, 0
0, 1
0, 1
0, 0
0, 0
1, 0
1, 0
0, 0
0, 1
0, 1
0, 0
0, 0
0, 1
0, 0
0, 0
0, 0
0, 1
1, 0
0, 0
0, 0
0, 1
0, 0
2, 0
0, 0
2, 0
0, 0
1, 1
1, 0
0, 3
0, 0
0, 2
0, 1
0, 0
0, 0
0, 0
0, 0
0, 0
0, 0
0, 1
1, 1
0, 0
0, 0
0, 0
0, 0
0, 0
0, 0
0, 0
0, 0
0, 0
1, 0
0, 0
0, 0
0, 0
0, 0
0, 0
0, 0
0, 0
0, 0
0, 0
0, 0
0, 0
0, 1
0, 0
0, 1
0, 0
0, 0
0, 0
0, 0
0, 0
0, 0
1, 0
0, 0
0, 0
0, 0
0, 0
0, 0
0, 0
0, 0
0, 0
0, 0
0, 0
0, 0
0, 1
0, 0
0, 0
0, 0
0, 0
0, 0
0, 0
0, 0
0, 0
0, 0
0, 0
0, 0
0, 0
0, 0
0, 0
0, 0
0, 0
0, 0
0, 0
0, 0
0, 0
0, 0
0, 0
0, 0
0, 0
0, 0
0, 0
0, 0
0, 0
0, 0
0, 0
0, 0
0, 0
0, 0
0, 0
0, 0
0, 0
0, 0
0, 0
0, 0
0, 0
0, 0
0, 0
0, 0
0, 0
0, 0
0, 0
0, 0
0, 0
0, 0
0, 0
0, 0
0, 0
0, 0
0, 0
0, 0
0, 0
0, 0
0, 0
0, 0
0, 0
0, 0
0, 0
0, 0
0, 0
0, 0
0, 0
0, 0
#ENDOFDATA     end of spectrum data