File: host_upload/06-09-2024/ps_0852/dump3/ps__0852shot_2371.msa
#FORMAT      : EMSA/MAS spectral data file
#VERSION     : TC202v2.0 PIXL
#TITLE       : N/A
#DATE        :       Date in the format DD-MMM-YYYY, for example 07-JUL-2010
#TIME        :             The time of day at which the spectrum was recorded, in 24-hour format
#OWNER       : PIXL Flight Model       (PIXL will use this to indicate which instrument took the data.)
#NPOINTS     : 4096     Number of data points in the spectrum (This can be zero for configuration only files)
#NCOLUMNS    : 2     Number of data columns in the spectrum (This can be zero for configuration only files)
#XUNITS      : eV
#YUNITS      : COUNTS
#DATATYPE    : YY
#XPERCHAN    : 7.862, 7.881   eV per channel (separate by commas if more than one detector)
#OFFSET      : 18.5, -22.4         eV of first channel  (separate by commas if more than one detector
#SIGNALTYPE  : XRF
#YP_TEMP     : 2.203
#LIVETIME    : 8.55885, 8.55738   seconds (separate by commas if more than one detector)
#REALTIME    : 10, 10.0   seconds (separate by commas if more than one detector)
#SPECTRUM    : start of spectrum data
0, 0
0, 0
0, 0
0, 0
0, 0
0, 0
0, 0
0, 1
1, 0
0, 1
2, 2
49, 44
58, 62
6, 8
3, 4
86, 90
424, 417
114, 119
2, 4
0, 1
2, 1
7, 9
7, 8
2, 8
30, 28
29, 43
13, 25
10, 10
13, 3
5, 1
1, 3
3, 1
3, 4
22, 17
43, 32
13, 9
11, 5
6, 13
7, 2
1, 4
3, 4
9, 16
14, 43
43, 47
50, 13
17, 12
10, 4
8, 7
7, 9
17, 9
14, 7
7, 8
14, 28
39, 75
52, 86
28, 21
33, 35
472, 599
2175, 2423
1598, 1428
212, 122
94, 16
120, 23
128, 132
315, 376
223, 211
43, 27
9, 17
11, 17
4, 2
3, 8
2, 5
7, 6
4, 7
7, 4
5, 7
5, 7
11, 7
12, 2
2, 1
5, 7
6, 1
5, 3
4, 10
1, 25
4, 20
9, 18
1, 1
2, 4
13, 9
5, 5
7, 3
5, 3
3, 2
1, 3
2, 6
2, 3
2, 3
1, 3
2, 1
0, 2
2, 1
3, 1
2, 2
4, 8
1, 4
5, 4
1, 7
4, 5
1, 1
3, 5
3, 1
2, 1
4, 1
1, 4
3, 4
4, 5
3, 3
4, 1
1, 2
1, 0
1, 2
1, 2
0, 0
0, 1
2, 1
0, 1
0, 2
1, 3
0, 0
3, 0
1, 1
1, 3
2, 0
2, 1
1, 0
1, 0
0, 0
0, 1
2, 0
0, 0
0, 1
0, 0
2, 0
0, 1
0, 3
0, 1
1, 0
1, 0
0, 0
0, 0
0, 0
1, 0
1, 0
0, 0
0, 0
0, 0
0, 0
0, 0
0, 0
1, 0
0, 0
1, 1
0, 0
0, 1
0, 0
1, 0
0, 0
0, 0
0, 0
0, 1
0, 1
0, 1
0, 0
0, 0
0, 0
0, 0
0, 0
0, 0
0, 0
0, 0
0, 0
0, 0
0, 0
0, 0
0, 0
0, 0
0, 0
0, 0
0, 0
0, 0
1, 0
0, 0
0, 0
0, 0
0, 0
0, 0
0, 0
0, 0
0, 0
0, 0
0, 0
0, 0
0, 1
0, 0
0, 0
0, 0
0, 0
0, 0
0, 0
0, 0
0, 0
0, 0
0, 0
0, 0
0, 0
0, 0
0, 0
0, 0
0, 0
0, 0
0, 0
0, 0
0, 0
0, 0
0, 0
0, 0
0, 0
0, 0
0, 0
0, 0
0, 0
0, 0
0, 0
0, 0
0, 0
0, 0
0, 0
0, 0
0, 0
0, 0
0, 0
0, 0
0, 0
0, 0
0, 0
0, 0
0, 0
0, 0
0, 0
0, 0
0, 0
0, 0
0, 0
0, 0
0, 0
0, 0
0, 0
0, 0
0, 0
0, 0
0, 0
0, 0
0, 0
0, 0
0, 0
0, 0
0, 0
0, 0
0, 0
0, 0
0, 0
0, 0
0, 0
0, 0
0, 0
0, 0
0, 0
0, 0
0, 0
0, 0
0, 0
0, 0
0, 0
0, 0
0, 0
0, 0
0, 0
0, 0
0, 0
0, 0
0, 0
0, 0
0, 0
#ENDOFDATA     end of spectrum data