File: host_upload/06-09-2024/ps_0852/dump3/ps__0852shot_2137.msa
#FORMAT      : EMSA/MAS spectral data file
#VERSION     : TC202v2.0 PIXL
#TITLE       : N/A
#DATE        :       Date in the format DD-MMM-YYYY, for example 07-JUL-2010
#TIME        :             The time of day at which the spectrum was recorded, in 24-hour format
#OWNER       : PIXL Flight Model       (PIXL will use this to indicate which instrument took the data.)
#NPOINTS     : 4096     Number of data points in the spectrum (This can be zero for configuration only files)
#NCOLUMNS    : 2     Number of data columns in the spectrum (This can be zero for configuration only files)
#XUNITS      : eV
#YUNITS      : COUNTS
#DATATYPE    : YY
#XPERCHAN    : 7.862, 7.881   eV per channel (separate by commas if more than one detector)
#OFFSET      : 18.5, -22.4         eV of first channel  (separate by commas if more than one detector
#SIGNALTYPE  : XRF
#YP_TEMP     : 2.332
#LIVETIME    : 8.58985, 8.53961   seconds (separate by commas if more than one detector)
#REALTIME    : 10, 10.0   seconds (separate by commas if more than one detector)
#SPECTRUM    : start of spectrum data
0, 0
0, 0
0, 0
0, 0
0, 0
0, 0
0, 0
0, 0
0, 0
5, 0
1, 0
46, 40
67, 68
5, 8
3, 10
82, 93
423, 411
108, 99
7, 4
2, 1
3, 1
5, 7
8, 8
11, 6
73, 52
99, 36
132, 24
139, 12
17, 6
3, 4
1, 2
0, 4
0, 17
13, 37
12, 13
2, 5
5, 3
8, 6
2, 8
10, 7
10, 4
37, 14
82, 11
46, 13
10, 7
8, 7
4, 6
3, 7
8, 9
16, 18
10, 11
11, 7
32, 15
82, 51
89, 83
31, 95
35, 92
441, 595
2179, 2252
1632, 1409
199, 135
12, 14
18, 26
102, 131
348, 338
259, 202
31, 24
8, 11
13, 19
8, 6
5, 4
3, 4
3, 6
7, 7
6, 2
4, 8
1, 4
4, 4
3, 5
9, 3
2, 3
4, 7
2, 4
12, 6
15, 4
13, 5
11, 14
3, 7
3, 5
6, 3
5, 3
6, 1
5, 2
5, 0
2, 0
3, 3
3, 2
3, 2
2, 4
2, 3
0, 2
3, 4
1, 3
0, 1
1, 1
4, 2
2, 7
0, 3
0, 4
3, 4
1, 7
2, 3
2, 7
2, 2
2, 0
1, 3
4, 7
4, 2
0, 0
1, 1
1, 0
0, 2
5, 2
2, 2
2, 3
1, 0
2, 0
0, 3
0, 0
0, 0
3, 0
1, 1
4, 1
2, 0
0, 0
0, 1
3, 1
1, 0
0, 0
0, 0
0, 0
0, 1
1, 2
1, 0
0, 0
1, 0
1, 0
0, 0
0, 1
0, 1
0, 0
0, 0
0, 0
0, 1
0, 0
0, 1
0, 0
2, 0
0, 0
0, 0
0, 0
0, 0
0, 0
0, 0
0, 0
0, 2
0, 0
0, 1
0, 0
0, 0
0, 0
0, 1
0, 0
0, 1
1, 0
0, 0
0, 0
0, 0
0, 0
0, 0
1, 1
0, 0
0, 0
1, 0
0, 0
0, 0
1, 0
0, 0
0, 0
0, 0
1, 0
0, 0
0, 0
0, 0
0, 0
0, 0
0, 0
0, 0
0, 0
0, 0
0, 0
0, 0
0, 0
0, 0
0, 0
0, 0
0, 0
0, 0
0, 0
0, 0
0, 0
0, 0
0, 0
0, 0
0, 0
0, 0
0, 0
0, 0
0, 0
0, 0
0, 0
0, 0
0, 0
0, 0
0, 0
0, 0
0, 0
0, 0
0, 0
0, 0
0, 0
0, 0
0, 0
0, 0
0, 0
0, 0
0, 0
0, 0
0, 0
0, 0
0, 0
0, 0
0, 0
0, 0
0, 0
0, 0
0, 0
0, 0
0, 0
0, 0
0, 0
0, 0
0, 0
0, 0
0, 0
0, 0
0, 0
0, 0
0, 0
0, 0
0, 0
0, 0
0, 0
0, 0
0, 0
0, 0
0, 0
0, 0
0, 0
0, 0
0, 0
0, 0
0, 0
0, 0
0, 0
0, 0
0, 0
0, 0
0, 0
0, 0
0, 0
0, 0
0, 0
0, 0
0, 0
0, 0
0, 0
0, 0
0, 0
0, 0
0, 0
0, 0
0, 0
0, 0
#ENDOFDATA     end of spectrum data