File: host_upload/06-09-2024/ps_0852/dump3/ps__0852shot_2067.msa
#FORMAT      : EMSA/MAS spectral data file
#VERSION     : TC202v2.0 PIXL
#TITLE       : N/A
#DATE        :       Date in the format DD-MMM-YYYY, for example 07-JUL-2010
#TIME        :             The time of day at which the spectrum was recorded, in 24-hour format
#OWNER       : PIXL Flight Model       (PIXL will use this to indicate which instrument took the data.)
#NPOINTS     : 4096     Number of data points in the spectrum (This can be zero for configuration only files)
#NCOLUMNS    : 2     Number of data columns in the spectrum (This can be zero for configuration only files)
#XUNITS      : eV
#YUNITS      : COUNTS
#DATATYPE    : YY
#XPERCHAN    : 7.862, 7.881   eV per channel (separate by commas if more than one detector)
#OFFSET      : 18.5, -22.4         eV of first channel  (separate by commas if more than one detector
#SIGNALTYPE  : XRF
#YP_TEMP     : 2.492
#LIVETIME    : 8.55888, 8.56828   seconds (separate by commas if more than one detector)
#REALTIME    : 10, 10.0   seconds (separate by commas if more than one detector)
#SPECTRUM    : start of spectrum data
0, 0
0, 0
0, 0
0, 0
0, 0
0, 0
0, 0
0, 1
0, 1
2, 1
1, 1
54, 36
66, 57
9, 6
6, 5
86, 107
382, 427
107, 118
13, 12
6, 4
3, 1
6, 1
3, 4
9, 10
34, 125
38, 169
30, 37
9, 13
1, 1
1, 7
2, 3
3, 7
4, 12
34, 43
86, 96
12, 10
10, 7
20, 12
5, 8
4, 1
6, 7
13, 10
14, 16
8, 5
12, 4
5, 7
3, 10
10, 18
11, 9
15, 17
13, 27
8, 18
21, 13
45, 44
56, 67
21, 18
59, 31
513, 587
2114, 2319
1455, 1338
205, 160
27, 19
24, 27
101, 121
339, 360
202, 214
33, 19
7, 9
17, 22
11, 8
5, 7
3, 3
6, 7
2, 10
8, 11
11, 10
11, 5
7, 7
2, 4
1, 4
3, 3
7, 1
19, 3
12, 4
9, 2
1, 5
6, 4
4, 9
3, 6
3, 3
4, 5
1, 4
5, 11
4, 16
6, 6
4, 5
2, 5
1, 0
2, 2
3, 2
1, 4
3, 2
1, 3
3, 4
2, 1
1, 3
2, 2
4, 3
2, 4
2, 1
10, 1
5, 3
0, 2
5, 1
3, 2
1, 3
2, 1
4, 1
0, 2
1, 0
1, 3
0, 4
1, 1
2, 4
2, 4
1, 1
3, 1
0, 0
1, 0
0, 0
1, 0
1, 0
2, 0
1, 1
2, 0
1, 0
2, 1
1, 0
1, 0
1, 1
1, 2
1, 0
0, 1
1, 1
2, 1
0, 0
0, 0
2, 0
0, 0
0, 1
0, 1
1, 0
0, 0
0, 0
1, 1
0, 0
0, 0
0, 0
1, 1
0, 2
0, 0
0, 0
3, 0
1, 0
0, 3
0, 0
1, 1
0, 0
1, 1
1, 0
0, 0
0, 1
0, 0
0, 0
0, 0
0, 1
0, 0
0, 0
1, 1
0, 0
0, 1
0, 0
1, 0
0, 0
0, 0
0, 0
0, 0
0, 0
0, 0
0, 0
0, 0
1, 0
0, 0
0, 0
0, 0
0, 0
0, 0
0, 0
0, 0
0, 0
0, 0
0, 0
0, 0
0, 0
1, 0
0, 0
0, 0
0, 0
0, 0
0, 1
0, 0
0, 0
0, 0
0, 0
0, 0
0, 0
0, 0
1, 0
0, 0
0, 0
0, 0
0, 0
0, 0
0, 0
0, 0
0, 0
0, 0
0, 0
0, 0
0, 0
0, 0
0, 0
0, 0
0, 0
0, 0
0, 0
0, 0
0, 0
0, 0
0, 0
0, 0
0, 0
0, 0
0, 0
0, 0
0, 0
0, 0
0, 0
0, 0
0, 0
0, 0
0, 0
0, 0
0, 0
0, 0
0, 0
0, 0
0, 0
0, 0
0, 0
0, 0
0, 0
0, 0
0, 0
0, 0
0, 0
0, 0
0, 0
0, 0
0, 0
0, 0
0, 0
0, 0
0, 0
0, 0
0, 0
0, 0
0, 0
0, 0
0, 0
0, 0
0, 0
0, 0
0, 0
0, 0
0, 0
0, 0
0, 0
0, 0
0, 0
0, 0
0, 0
0, 0
0, 0
#ENDOFDATA     end of spectrum data