File: host_upload/06-09-2024/ps_0852/dump3/ps__0852shot_2410.msa
#FORMAT      : EMSA/MAS spectral data file
#VERSION     : TC202v2.0 PIXL
#TITLE       : N/A
#DATE        :       Date in the format DD-MMM-YYYY, for example 07-JUL-2010
#TIME        :             The time of day at which the spectrum was recorded, in 24-hour format
#OWNER       : PIXL Flight Model       (PIXL will use this to indicate which instrument took the data.)
#NPOINTS     : 4096     Number of data points in the spectrum (This can be zero for configuration only files)
#NCOLUMNS    : 2     Number of data columns in the spectrum (This can be zero for configuration only files)
#XUNITS      : eV
#YUNITS      : COUNTS
#DATATYPE    : YY
#XPERCHAN    : 7.862, 7.881   eV per channel (separate by commas if more than one detector)
#OFFSET      : 18.5, -22.4         eV of first channel  (separate by commas if more than one detector
#SIGNALTYPE  : XRF
#YP_TEMP     : 2.107
#LIVETIME    : 8.56004, 8.55331   seconds (separate by commas if more than one detector)
#REALTIME    : 10, 10.0   seconds (separate by commas if more than one detector)
#SPECTRUM    : start of spectrum data
0, 0
0, 0
0, 0
0, 0
0, 0
0, 0
0, 0
0, 1
1, 2
1, 3
1, 1
44, 46
49, 54
3, 7
6, 3
121, 117
452, 411
110, 93
5, 4
1, 1
2, 2
8, 5
6, 0
8, 5
48, 48
48, 38
24, 22
12, 19
4, 3
2, 3
0, 4
2, 4
3, 2
6, 11
9, 16
0, 7
6, 1
2, 2
6, 8
18, 3
9, 3
5, 8
20, 11
13, 6
8, 4
5, 4
0, 11
7, 30
6, 74
14, 25
14, 16
8, 4
13, 8
40, 38
69, 54
22, 23
25, 44
488, 547
2264, 2334
1708, 1361
195, 141
17, 31
13, 11
109, 111
332, 369
222, 198
46, 15
6, 7
10, 11
6, 7
7, 4
5, 7
3, 10
4, 11
12, 4
5, 3
2, 7
2, 9
7, 2
5, 5
3, 2
6, 5
1, 3
2, 7
2, 22
3, 16
5, 4
2, 1
6, 4
6, 1
14, 1
13, 3
12, 0
4, 5
3, 6
2, 5
2, 4
5, 10
2, 0
1, 4
4, 1
1, 3
3, 3
1, 3
0, 1
4, 0
2, 1
0, 2
1, 6
2, 4
2, 3
3, 0
4, 1
4, 2
3, 2
5, 4
5, 2
6, 5
3, 0
0, 1
1, 3
2, 1
4, 2
0, 2
1, 1
3, 0
1, 1
1, 1
0, 1
1, 0
2, 0
1, 2
0, 6
2, 0
0, 2
0, 0
0, 2
1, 2
0, 0
1, 2
0, 0
0, 0
1, 0
0, 1
0, 1
0, 0
1, 1
1, 1
0, 1
0, 1
0, 1
1, 1
0, 1
0, 1
0, 0
1, 0
1, 0
0, 0
0, 0
0, 1
0, 0
1, 0
1, 0
0, 0
0, 0
0, 0
0, 0
0, 1
0, 0
0, 0
0, 0
0, 0
1, 0
0, 0
0, 0
0, 0
1, 0
0, 0
0, 0
0, 0
0, 0
0, 0
0, 0
1, 0
0, 0
0, 0
0, 0
0, 0
0, 0
0, 0
0, 0
0, 0
0, 0
0, 0
0, 0
0, 0
0, 0
0, 0
0, 0
0, 0
0, 0
0, 0
0, 0
0, 0
0, 0
0, 0
0, 0
0, 0
0, 0
0, 0
0, 0
0, 0
0, 0
0, 0
0, 0
0, 0
0, 0
0, 0
0, 0
0, 0
0, 0
0, 0
0, 0
0, 0
0, 0
0, 0
0, 0
0, 0
0, 0
0, 0
0, 0
0, 0
0, 0
0, 0
0, 0
0, 0
0, 0
0, 0
0, 0
0, 0
0, 0
0, 0
0, 0
0, 0
0, 0
0, 0
0, 0
0, 0
0, 0
0, 0
0, 0
0, 0
0, 0
0, 0
0, 0
0, 0
0, 0
0, 0
0, 0
0, 0
0, 0
0, 0
0, 0
0, 0
0, 0
0, 0
0, 0
0, 0
0, 0
0, 0
0, 0
0, 0
0, 0
0, 0
0, 0
0, 0
0, 0
0, 0
0, 0
0, 0
0, 0
0, 0
0, 0
0, 0
0, 0
0, 0
0, 0
0, 0
0, 0
0, 0
0, 0
0, 0
0, 0
0, 0
#ENDOFDATA     end of spectrum data