File: host_upload/06-09-2024/ps_0852/dump3/ps__0852shot_2243.msa
#FORMAT      : EMSA/MAS spectral data file
#VERSION     : TC202v2.0 PIXL
#TITLE       : N/A
#DATE        :       Date in the format DD-MMM-YYYY, for example 07-JUL-2010
#TIME        :             The time of day at which the spectrum was recorded, in 24-hour format
#OWNER       : PIXL Flight Model       (PIXL will use this to indicate which instrument took the data.)
#NPOINTS     : 4096     Number of data points in the spectrum (This can be zero for configuration only files)
#NCOLUMNS    : 2     Number of data columns in the spectrum (This can be zero for configuration only files)
#XUNITS      : eV
#YUNITS      : COUNTS
#DATATYPE    : YY
#XPERCHAN    : 7.862, 7.881   eV per channel (separate by commas if more than one detector)
#OFFSET      : 18.5, -22.4         eV of first channel  (separate by commas if more than one detector
#SIGNALTYPE  : XRF
#YP_TEMP     : 2.267
#LIVETIME    : 8.5797, 8.57314   seconds (separate by commas if more than one detector)
#REALTIME    : 10, 10.0   seconds (separate by commas if more than one detector)
#SPECTRUM    : start of spectrum data
0, 0
0, 0
0, 0
0, 0
0, 0
0, 0
0, 0
0, 0
1, 3
0, 0
4, 7
49, 48
63, 65
1, 5
6, 11
96, 125
438, 494
94, 108
6, 7
2, 0
1, 1
8, 5
1, 9
9, 28
44, 60
35, 54
20, 19
15, 13
7, 5
2, 4
3, 3
4, 4
3, 1
25, 13
26, 28
5, 1
5, 5
7, 9
1, 3
4, 5
0, 3
12, 11
14, 14
15, 15
4, 10
9, 6
5, 10
8, 4
5, 14
30, 12
44, 12
32, 9
11, 19
32, 48
67, 57
35, 35
29, 92
432, 735
2033, 2491
1425, 1451
180, 143
12, 18
19, 28
98, 144
347, 403
234, 201
34, 22
7, 8
16, 12
21, 11
8, 3
2, 2
7, 8
7, 10
10, 6
4, 2
5, 3
2, 4
3, 4
2, 3
1, 7
10, 22
24, 21
17, 4
7, 2
1, 1
1, 4
6, 1
2, 6
1, 5
2, 2
2, 2
4, 2
2, 1
4, 5
1, 4
1, 5
3, 4
3, 3
5, 3
5, 1
3, 1
5, 2
4, 5
2, 6
4, 4
2, 4
3, 2
1, 4
2, 2
0, 3
1, 1
2, 0
2, 5
2, 3
1, 3
5, 4
5, 4
2, 1
2, 1
3, 2
0, 4
4, 9
2, 0
1, 2
2, 2
1, 4
1, 1
1, 0
2, 1
0, 2
1, 1
1, 2
0, 0
1, 2
0, 2
0, 2
1, 3
0, 2
1, 1
2, 1
0, 0
1, 0
0, 1
0, 1
0, 0
0, 0
0, 1
1, 0
0, 2
1, 1
1, 0
1, 0
0, 0
0, 0
1, 0
1, 0
0, 0
0, 1
0, 1
0, 0
0, 1
0, 0
0, 1
0, 0
0, 0
0, 0
0, 0
0, 0
0, 1
0, 0
0, 2
1, 1
0, 0
1, 0
0, 0
0, 0
0, 0
0, 0
1, 0
0, 0
0, 0
0, 0
1, 0
0, 1
1, 0
0, 1
0, 0
1, 0
0, 0
0, 0
0, 0
0, 0
0, 0
0, 0
0, 0
0, 0
0, 0
0, 0
0, 0
0, 0
0, 0
0, 0
0, 0
0, 0
0, 0
0, 0
0, 0
0, 0
0, 0
0, 0
0, 0
0, 0
0, 0
0, 0
1, 0
0, 0
0, 0
0, 0
0, 0
0, 0
0, 0
0, 0
0, 0
0, 0
0, 0
0, 0
0, 0
0, 0
0, 0
0, 0
0, 0
0, 0
0, 0
0, 0
0, 0
0, 0
0, 0
0, 0
0, 0
0, 0
0, 0
0, 0
0, 0
0, 0
0, 0
0, 0
0, 0
0, 0
0, 0
0, 0
0, 0
0, 0
0, 0
0, 0
0, 0
0, 0
0, 0
0, 0
0, 0
0, 0
0, 0
0, 0
0, 0
0, 0
0, 0
0, 0
0, 0
0, 0
0, 0
0, 0
0, 0
0, 0
0, 0
0, 0
0, 0
0, 0
0, 0
0, 0
0, 0
0, 0
0, 0
0, 0
0, 0
0, 0
0, 0
0, 0
0, 0
0, 0
0, 0
0, 0
0, 0
0, 0
0, 0
#ENDOFDATA     end of spectrum data