File: host_upload/06-09-2024/ps_0852/dump3/ps__0852shot_2101.msa
#FORMAT      : EMSA/MAS spectral data file
#VERSION     : TC202v2.0 PIXL
#TITLE       : N/A
#DATE        :       Date in the format DD-MMM-YYYY, for example 07-JUL-2010
#TIME        :             The time of day at which the spectrum was recorded, in 24-hour format
#OWNER       : PIXL Flight Model       (PIXL will use this to indicate which instrument took the data.)
#NPOINTS     : 4096     Number of data points in the spectrum (This can be zero for configuration only files)
#NCOLUMNS    : 2     Number of data columns in the spectrum (This can be zero for configuration only files)
#XUNITS      : eV
#YUNITS      : COUNTS
#DATATYPE    : YY
#XPERCHAN    : 7.862, 7.881   eV per channel (separate by commas if more than one detector)
#OFFSET      : 18.5, -22.4         eV of first channel  (separate by commas if more than one detector
#SIGNALTYPE  : XRF
#YP_TEMP     : 2.139
#LIVETIME    : 8.54104, 8.53402   seconds (separate by commas if more than one detector)
#REALTIME    : 10, 10.0   seconds (separate by commas if more than one detector)
#SPECTRUM    : start of spectrum data
0, 0
0, 0
0, 0
0, 0
0, 0
0, 0
0, 0
0, 0
1, 1
2, 5
2, 4
29, 45
38, 46
3, 8
6, 2
51, 71
250, 319
84, 73
10, 5
4, 6
54, 84
348, 416
135, 186
43, 37
68, 58
68, 82
22, 30
9, 12
7, 5
2, 2
3, 2
0, 3
2, 3
17, 32
51, 61
17, 33
13, 23
9, 5
7, 4
3, 8
4, 4
12, 13
13, 13
11, 20
5, 11
10, 7
5, 8
5, 11
11, 7
35, 19
58, 12
27, 3
14, 15
40, 48
97, 61
45, 17
22, 39
414, 652
1765, 2528
1287, 1513
160, 154
16, 12
16, 30
96, 136
290, 394
178, 240
37, 29
14, 9
14, 11
5, 8
2, 5
2, 7
4, 15
5, 5
7, 8
6, 6
3, 5
5, 7
4, 6
3, 5
5, 3
16, 5
13, 8
6, 8
2, 4
1, 2
3, 4
4, 3
2, 14
2, 3
4, 7
2, 2
2, 1
3, 2
1, 0
4, 3
2, 1
1, 2
2, 5
3, 6
2, 3
2, 3
0, 3
2, 2
3, 2
0, 2
0, 3
1, 9
5, 4
3, 1
2, 1
3, 2
1, 4
3, 6
1, 1
3, 1
3, 2
3, 1
3, 1
0, 4
0, 1
1, 0
1, 1
2, 4
1, 1
2, 4
1, 0
0, 0
0, 2
2, 0
1, 1
0, 1
1, 0
0, 3
0, 0
0, 3
2, 1
0, 0
1, 3
0, 2
1, 1
0, 0
1, 0
2, 1
1, 0
0, 0
0, 1
0, 0
0, 0
1, 0
0, 0
0, 0
0, 0
1, 0
0, 0
0, 0
1, 1
0, 0
0, 0
0, 0
0, 0
1, 0
0, 0
1, 1
1, 1
0, 0
0, 0
0, 0
0, 1
1, 0
1, 0
1, 0
0, 0
0, 1
0, 0
0, 0
0, 0
0, 1
0, 0
1, 1
0, 0
0, 0
1, 0
0, 0
0, 0
0, 0
0, 0
0, 0
0, 0
0, 0
0, 0
0, 0
0, 0
0, 0
0, 0
0, 0
0, 1
0, 0
0, 0
0, 0
0, 0
0, 0
0, 0
0, 0
0, 0
0, 0
0, 0
0, 0
0, 0
0, 0
0, 0
0, 0
0, 0
0, 0
0, 1
0, 0
0, 0
0, 0
0, 0
0, 0
0, 0
0, 0
0, 0
0, 0
0, 0
0, 0
0, 0
0, 0
0, 0
0, 0
0, 0
0, 0
0, 0
0, 0
0, 0
0, 0
0, 0
0, 0
0, 0
0, 0
0, 0
0, 0
0, 0
0, 0
0, 0
0, 0
0, 0
0, 0
0, 0
0, 0
0, 0
0, 0
0, 0
0, 0
0, 0
0, 0
0, 0
0, 0
0, 0
0, 0
0, 0
0, 0
0, 0
0, 0
0, 0
0, 0
0, 0
0, 0
0, 0
0, 0
0, 0
0, 0
0, 0
0, 0
0, 0
0, 0
0, 0
0, 0
0, 0
0, 0
0, 0
0, 0
0, 0
0, 0
0, 0
0, 0
0, 0
0, 0
0, 0
0, 0
0, 0
0, 0
0, 0
0, 0
#ENDOFDATA     end of spectrum data