File: host_upload/06-09-2024/ps_0852/dump3/ps__0852shot_2172.msa
#FORMAT      : EMSA/MAS spectral data file
#VERSION     : TC202v2.0 PIXL
#TITLE       : N/A
#DATE        :       Date in the format DD-MMM-YYYY, for example 07-JUL-2010
#TIME        :             The time of day at which the spectrum was recorded, in 24-hour format
#OWNER       : PIXL Flight Model       (PIXL will use this to indicate which instrument took the data.)
#NPOINTS     : 4096     Number of data points in the spectrum (This can be zero for configuration only files)
#NCOLUMNS    : 2     Number of data columns in the spectrum (This can be zero for configuration only files)
#XUNITS      : eV
#YUNITS      : COUNTS
#DATATYPE    : YY
#XPERCHAN    : 7.862, 7.881   eV per channel (separate by commas if more than one detector)
#OFFSET      : 18.5, -22.4         eV of first channel  (separate by commas if more than one detector
#SIGNALTYPE  : XRF
#YP_TEMP     : 2.267
#LIVETIME    : 8.58285, 8.54151   seconds (separate by commas if more than one detector)
#REALTIME    : 10, 10.0   seconds (separate by commas if more than one detector)
#SPECTRUM    : start of spectrum data
0, 0
0, 0
0, 0
0, 0
0, 0
0, 0
0, 0
1, 0
0, 0
2, 1
3, 3
23, 44
44, 59
5, 7
4, 9
65, 105
307, 441
80, 117
8, 10
1, 3
30, 54
181, 205
67, 86
12, 16
35, 39
31, 49
23, 25
9, 13
7, 2
0, 2
4, 3
0, 5
5, 4
9, 26
21, 39
8, 39
6, 22
6, 11
3, 2
4, 3
25, 4
61, 13
45, 9
33, 10
24, 6
5, 4
7, 8
9, 4
7, 15
5, 44
13, 43
8, 110
7, 77
29, 69
43, 64
22, 28
38, 34
367, 613
1649, 2491
1264, 1556
155, 152
16, 14
10, 21
74, 124
252, 387
179, 217
22, 20
8, 14
12, 20
15, 10
3, 12
3, 16
3, 3
1, 5
6, 3
8, 3
1, 5
2, 6
2, 2
1, 7
3, 7
5, 5
2, 3
4, 4
10, 4
6, 3
7, 12
3, 12
4, 2
2, 4
2, 4
3, 4
3, 5
2, 0
4, 0
6, 4
2, 7
2, 2
2, 5
3, 4
1, 5
3, 5
1, 3
6, 2
1, 5
0, 1
0, 2
1, 6
2, 2
3, 7
3, 3
4, 4
3, 4
2, 6
2, 1
2, 5
1, 4
1, 7
1, 4
0, 2
0, 2
0, 2
1, 1
0, 0
1, 0
3, 0
0, 2
1, 2
0, 0
2, 0
0, 1
0, 0
1, 0
1, 1
0, 1
0, 0
2, 2
0, 0
0, 0
1, 0
0, 0
1, 0
1, 1
0, 1
1, 3
0, 0
0, 3
2, 0
0, 0
0, 0
0, 1
1, 1
1, 2
1, 1
0, 0
0, 0
0, 0
0, 0
0, 0
0, 0
0, 1
0, 0
0, 0
0, 1
0, 0
1, 0
0, 0
0, 0
1, 1
1, 0
0, 1
0, 0
0, 0
1, 0
0, 0
0, 0
0, 1
0, 0
0, 0
1, 0
0, 0
1, 0
0, 0
0, 0
0, 0
0, 0
0, 1
0, 1
1, 0
0, 0
0, 0
0, 0
0, 1
0, 0
0, 0
0, 0
0, 0
0, 0
0, 0
1, 0
0, 0
0, 1
0, 1
0, 0
0, 0
0, 0
0, 0
0, 0
0, 0
0, 0
0, 0
0, 0
0, 0
0, 0
0, 0
0, 0
0, 0
0, 0
0, 0
0, 0
0, 0
0, 0
0, 0
0, 0
0, 0
0, 0
0, 0
0, 0
0, 0
0, 0
0, 0
0, 0
0, 0
0, 0
0, 0
0, 0
0, 0
0, 0
0, 0
0, 0
0, 0
0, 0
0, 0
0, 0
0, 0
0, 0
0, 0
0, 0
0, 0
0, 0
0, 0
0, 0
0, 0
0, 0
0, 0
0, 0
0, 0
0, 0
0, 0
0, 0
0, 0
0, 0
0, 0
0, 0
0, 0
0, 0
0, 0
0, 0
0, 0
0, 0
0, 0
0, 0
0, 0
0, 0
0, 0
0, 0
0, 0
0, 0
0, 0
0, 0
0, 0
0, 0
0, 0
0, 0
0, 0
0, 0
0, 0
0, 0
0, 0
0, 0
0, 0
0, 0
0, 0
0, 0
#ENDOFDATA     end of spectrum data