File: host_upload/06-09-2024/ps_0852/dump3/ps__0852shot_2171.msa
#FORMAT      : EMSA/MAS spectral data file
#VERSION     : TC202v2.0 PIXL
#TITLE       : N/A
#DATE        :       Date in the format DD-MMM-YYYY, for example 07-JUL-2010
#TIME        :             The time of day at which the spectrum was recorded, in 24-hour format
#OWNER       : PIXL Flight Model       (PIXL will use this to indicate which instrument took the data.)
#NPOINTS     : 4096     Number of data points in the spectrum (This can be zero for configuration only files)
#NCOLUMNS    : 2     Number of data columns in the spectrum (This can be zero for configuration only files)
#XUNITS      : eV
#YUNITS      : COUNTS
#DATATYPE    : YY
#XPERCHAN    : 7.862, 7.881   eV per channel (separate by commas if more than one detector)
#OFFSET      : 18.5, -22.4         eV of first channel  (separate by commas if more than one detector
#SIGNALTYPE  : XRF
#YP_TEMP     : 2.332
#LIVETIME    : 8.55655, 8.55279   seconds (separate by commas if more than one detector)
#REALTIME    : 10, 10.0   seconds (separate by commas if more than one detector)
#SPECTRUM    : start of spectrum data
0, 0
0, 0
0, 0
0, 0
0, 0
0, 0
0, 0
1, 0
1, 0
1, 0
0, 3
30, 49
38, 66
5, 8
3, 5
70, 102
347, 466
94, 94
1, 7
1, 2
25, 45
128, 273
63, 107
19, 29
44, 73
42, 39
15, 24
14, 9
10, 5
2, 5
2, 6
2, 5
4, 6
37, 85
67, 120
9, 83
4, 74
12, 29
4, 3
4, 3
18, 7
35, 17
27, 17
6, 9
4, 13
9, 11
6, 30
5, 11
9, 14
23, 47
24, 39
9, 60
13, 49
41, 43
43, 65
24, 21
28, 38
345, 530
1574, 2120
1200, 1288
143, 168
16, 10
29, 21
97, 132
242, 324
147, 181
27, 14
10, 10
14, 11
5, 9
4, 8
4, 11
4, 4
7, 3
2, 9
3, 9
6, 8
4, 3
8, 3
11, 4
4, 2
1, 4
0, 3
5, 7
6, 8
4, 7
13, 16
9, 12
10, 0
2, 2
3, 9
1, 6
2, 4
1, 1
2, 2
3, 2
4, 2
5, 1
1, 1
4, 1
3, 1
2, 3
2, 3
2, 5
4, 3
1, 4
1, 0
1, 8
3, 8
1, 6
2, 2
1, 1
1, 0
1, 1
1, 3
5, 3
1, 5
2, 4
2, 2
4, 0
1, 0
2, 2
0, 3
0, 5
2, 1
1, 2
0, 3
0, 0
1, 2
2, 2
1, 1
1, 1
0, 0
1, 1
1, 2
2, 1
2, 2
0, 1
0, 2
1, 0
0, 1
1, 1
0, 0
0, 1
1, 1
2, 1
1, 1
0, 0
0, 1
0, 0
1, 1
1, 0
1, 0
1, 1
0, 0
2, 0
0, 0
0, 1
1, 0
0, 0
0, 0
1, 0
1, 0
0, 0
0, 0
0, 0
1, 0
1, 0
1, 0
0, 0
0, 1
0, 0
0, 0
0, 0
0, 0
0, 0
0, 0
0, 0
0, 0
0, 0
0, 0
0, 0
1, 0
1, 0
0, 0
0, 0
1, 0
0, 1
1, 0
0, 1
0, 0
0, 0
0, 0
0, 0
0, 0
0, 0
0, 0
0, 0
0, 0
0, 0
1, 0
0, 0
0, 0
0, 0
0, 0
0, 0
0, 0
0, 0
0, 0
0, 0
0, 0
0, 1
0, 1
0, 0
0, 0
0, 0
0, 0
0, 0
0, 0
0, 0
0, 0
0, 0
0, 0
0, 0
0, 0
0, 0
0, 0
0, 0
0, 0
0, 0
0, 0
0, 0
0, 0
0, 0
0, 0
0, 0
0, 0
0, 0
0, 0
0, 0
0, 0
0, 0
0, 0
0, 0
0, 0
0, 0
0, 0
0, 0
0, 0
0, 0
0, 0
0, 0
0, 0
0, 0
0, 0
0, 0
0, 0
0, 0
0, 0
0, 0
0, 0
0, 0
0, 0
0, 0
0, 0
0, 0
0, 0
0, 0
0, 0
0, 0
0, 0
0, 0
0, 0
0, 0
0, 0
0, 0
0, 0
0, 0
0, 0
0, 0
0, 0
0, 0
0, 0
0, 0
0, 0
0, 0
0, 0
0, 0
0, 0
0, 0
0, 0
0, 0
0, 0
0, 0
#ENDOFDATA     end of spectrum data