File: host_upload/06-09-2024/ps_0852/dump3/ps__0852shot_2535.msa
#FORMAT      : EMSA/MAS spectral data file
#VERSION     : TC202v2.0 PIXL
#TITLE       : N/A
#DATE        :       Date in the format DD-MMM-YYYY, for example 07-JUL-2010
#TIME        :             The time of day at which the spectrum was recorded, in 24-hour format
#OWNER       : PIXL Flight Model       (PIXL will use this to indicate which instrument took the data.)
#NPOINTS     : 4096     Number of data points in the spectrum (This can be zero for configuration only files)
#NCOLUMNS    : 2     Number of data columns in the spectrum (This can be zero for configuration only files)
#XUNITS      : eV
#YUNITS      : COUNTS
#DATATYPE    : YY
#XPERCHAN    : 7.862, 7.881   eV per channel (separate by commas if more than one detector)
#OFFSET      : 18.5, -22.4         eV of first channel  (separate by commas if more than one detector
#SIGNALTYPE  : XRF
#YP_TEMP     : 2.3
#LIVETIME    : 8.54871, 8.55627   seconds (separate by commas if more than one detector)
#REALTIME    : 10, 10.0   seconds (separate by commas if more than one detector)
#SPECTRUM    : start of spectrum data
0, 0
0, 0
0, 0
0, 0
0, 0
0, 0
0, 0
0, 0
0, 1
0, 2
2, 1
43, 41
58, 56
11, 3
5, 3
104, 82
414, 291
114, 71
11, 4
3, 5
22, 33
161, 161
68, 46
25, 14
54, 56
58, 41
24, 34
18, 16
5, 3
1, 4
3, 3
4, 2
3, 2
20, 11
33, 22
3, 9
6, 16
8, 13
2, 10
3, 9
2, 6
11, 9
13, 8
9, 20
9, 25
9, 11
8, 11
6, 8
9, 7
22, 22
26, 45
9, 35
17, 14
20, 35
65, 52
18, 17
42, 55
531, 538
2243, 2002
1724, 1223
227, 103
32, 13
21, 19
102, 111
369, 291
253, 171
35, 24
6, 9
9, 11
10, 12
7, 9
5, 12
6, 2
10, 10
6, 6
5, 6
1, 3
4, 5
2, 9
4, 2
4, 2
4, 1
6, 2
8, 2
11, 2
16, 3
13, 6
6, 9
4, 2
10, 4
6, 5
4, 2
5, 2
3, 1
4, 1
4, 3
1, 4
4, 2
4, 4
1, 5
4, 4
2, 5
0, 2
5, 1
4, 2
1, 2
3, 2
1, 3
1, 2
2, 3
2, 4
5, 3
1, 0
5, 4
1, 3
3, 5
7, 2
3, 2
2, 2
0, 2
3, 1
2, 5
3, 0
2, 0
0, 0
1, 0
0, 1
1, 1
0, 2
2, 1
1, 1
0, 1
1, 2
0, 0
2, 1
0, 1
1, 1
1, 0
1, 0
3, 1
1, 0
0, 0
1, 1
0, 0
1, 2
0, 1
0, 0
1, 0
0, 3
0, 1
0, 0
0, 1
0, 0
0, 0
0, 2
0, 0
0, 1
1, 0
0, 0
0, 0
1, 1
0, 0
1, 1
0, 0
0, 0
0, 1
0, 0
0, 1
0, 1
1, 1
0, 1
0, 0
1, 2
0, 0
0, 0
0, 0
0, 0
1, 0
0, 0
0, 0
0, 1
0, 0
0, 0
0, 0
0, 0
0, 0
0, 0
0, 0
0, 0
0, 0
0, 0
0, 0
0, 0
0, 0
0, 0
0, 0
0, 0
0, 0
0, 0
0, 0
0, 0
0, 1
0, 0
0, 2
0, 0
0, 0
0, 0
0, 0
0, 0
0, 0
0, 0
0, 0
0, 0
0, 0
0, 0
0, 0
0, 0
0, 0
0, 0
0, 0
0, 0
0, 0
0, 0
0, 0
0, 0
0, 0
0, 0
0, 0
0, 0
0, 0
0, 0
0, 0
0, 0
0, 0
0, 0
0, 0
0, 0
0, 0
0, 0
0, 0
0, 0
0, 0
0, 0
0, 0
0, 0
0, 0
0, 0
0, 0
0, 0
0, 0
0, 0
0, 0
0, 0
0, 0
0, 0
0, 0
0, 0
0, 0
0, 0
0, 0
0, 0
0, 0
0, 0
0, 0
0, 0
0, 0
0, 0
0, 0
0, 0
0, 0
0, 0
0, 0
0, 0
0, 0
0, 0
0, 0
0, 0
0, 0
0, 0
0, 0
0, 0
0, 0
0, 0
0, 0
0, 0
0, 0
0, 0
0, 0
0, 0
0, 0
0, 0
0, 0
0, 0
0, 0
#ENDOFDATA     end of spectrum data