File: host_upload/06-09-2024/ps_0852/dump3/ps__0852shot_2402.msa
#FORMAT      : EMSA/MAS spectral data file
#VERSION     : TC202v2.0 PIXL
#TITLE       : N/A
#DATE        :       Date in the format DD-MMM-YYYY, for example 07-JUL-2010
#TIME        :             The time of day at which the spectrum was recorded, in 24-hour format
#OWNER       : PIXL Flight Model       (PIXL will use this to indicate which instrument took the data.)
#NPOINTS     : 4096     Number of data points in the spectrum (This can be zero for configuration only files)
#NCOLUMNS    : 2     Number of data columns in the spectrum (This can be zero for configuration only files)
#XUNITS      : eV
#YUNITS      : COUNTS
#DATATYPE    : YY
#XPERCHAN    : 7.862, 7.881   eV per channel (separate by commas if more than one detector)
#OFFSET      : 18.5, -22.4         eV of first channel  (separate by commas if more than one detector
#SIGNALTYPE  : XRF
#YP_TEMP     : 2.3
#LIVETIME    : 8.55662, 8.54817   seconds (separate by commas if more than one detector)
#REALTIME    : 10, 10.0   seconds (separate by commas if more than one detector)
#SPECTRUM    : start of spectrum data
0, 0
0, 0
0, 0
0, 0
0, 0
0, 0
0, 0
0, 0
0, 1
0, 1
2, 5
60, 47
75, 73
7, 5
2, 4
90, 100
492, 460
138, 99
5, 8
3, 1
1, 0
6, 6
5, 5
5, 8
28, 36
52, 49
20, 29
13, 17
6, 8
0, 0
0, 2
2, 1
4, 5
15, 15
21, 22
8, 11
5, 6
7, 12
15, 6
10, 8
12, 2
7, 10
15, 13
13, 19
6, 10
9, 8
5, 10
4, 10
9, 13
17, 13
14, 12
10, 15
14, 30
46, 64
59, 74
18, 16
34, 34
460, 599
2184, 2360
1611, 1366
196, 141
23, 16
28, 32
109, 117
357, 352
243, 198
29, 38
11, 23
13, 17
5, 7
7, 2
2, 4
4, 6
1, 6
5, 16
8, 23
8, 9
9, 6
12, 2
1, 5
5, 2
3, 5
5, 1
4, 6
4, 6
2, 2
5, 9
9, 8
7, 2
3, 2
2, 5
5, 2
6, 4
1, 1
2, 7
8, 1
6, 2
5, 1
3, 6
2, 2
0, 5
7, 2
3, 3
3, 1
3, 3
4, 2
1, 2
3, 1
4, 4
2, 4
1, 0
2, 4
1, 1
3, 2
1, 3
6, 3
4, 7
2, 1
3, 2
2, 1
0, 1
1, 1
2, 5
1, 3
1, 2
0, 0
2, 0
0, 3
1, 1
1, 2
0, 3
1, 2
3, 1
3, 0
2, 2
1, 0
2, 0
2, 0
0, 0
0, 2
1, 0
0, 1
1, 1
0, 0
1, 0
0, 0
0, 0
1, 1
1, 1
1, 1
1, 0
0, 0
2, 0
0, 0
0, 0
0, 0
2, 3
0, 0
0, 0
0, 0
1, 0
1, 2
0, 0
1, 0
1, 1
0, 1
0, 0
0, 0
1, 0
0, 0
1, 0
0, 0
0, 0
0, 0
0, 0
0, 0
0, 0
0, 0
0, 0
0, 0
0, 0
0, 0
0, 0
0, 0
1, 0
0, 0
0, 0
0, 0
0, 0
0, 0
0, 0
0, 1
0, 0
0, 0
0, 0
0, 0
0, 0
0, 0
0, 0
0, 1
0, 0
0, 0
1, 0
0, 0
0, 1
0, 0
0, 0
0, 0
0, 0
0, 0
0, 0
0, 0
0, 0
0, 0
0, 0
0, 0
0, 0
0, 0
0, 0
0, 0
0, 0
0, 0
0, 0
0, 0
0, 0
0, 0
0, 0
0, 0
0, 0
0, 0
0, 0
0, 0
0, 0
0, 0
0, 0
0, 0
0, 0
0, 0
0, 0
0, 0
0, 0
0, 0
0, 0
0, 0
0, 0
0, 0
0, 0
0, 0
0, 0
0, 0
0, 0
0, 0
0, 0
0, 0
0, 0
0, 0
0, 0
0, 0
0, 0
0, 0
0, 0
0, 0
0, 0
0, 0
0, 0
0, 0
0, 0
0, 0
0, 0
0, 0
0, 0
0, 0
0, 0
0, 0
0, 0
0, 0
0, 0
0, 0
0, 0
0, 0
0, 0
0, 0
0, 0
0, 0
0, 0
0, 0
0, 0
0, 0
0, 0
0, 0
0, 0
0, 0
0, 0
0, 0
#ENDOFDATA     end of spectrum data