File: host_upload/06-09-2024/ps_0852/dump3/ps__0852shot_2388.msa
#FORMAT      : EMSA/MAS spectral data file
#VERSION     : TC202v2.0 PIXL
#TITLE       : N/A
#DATE        :       Date in the format DD-MMM-YYYY, for example 07-JUL-2010
#TIME        :             The time of day at which the spectrum was recorded, in 24-hour format
#OWNER       : PIXL Flight Model       (PIXL will use this to indicate which instrument took the data.)
#NPOINTS     : 4096     Number of data points in the spectrum (This can be zero for configuration only files)
#NCOLUMNS    : 2     Number of data columns in the spectrum (This can be zero for configuration only files)
#XUNITS      : eV
#YUNITS      : COUNTS
#DATATYPE    : YY
#XPERCHAN    : 7.862, 7.881   eV per channel (separate by commas if more than one detector)
#OFFSET      : 18.5, -22.4         eV of first channel  (separate by commas if more than one detector
#SIGNALTYPE  : XRF
#YP_TEMP     : 2.332
#LIVETIME    : 8.55876, 8.54661   seconds (separate by commas if more than one detector)
#REALTIME    : 10, 10.0   seconds (separate by commas if more than one detector)
#SPECTRUM    : start of spectrum data
0, 0
0, 0
0, 0
0, 0
0, 0
0, 0
0, 0
0, 1
0, 1
2, 1
1, 2
54, 44
68, 71
7, 4
4, 4
94, 96
471, 406
126, 92
2, 1
0, 0
1, 0
4, 3
2, 0
4, 2
31, 17
56, 20
26, 12
20, 12
2, 4
1, 1
2, 3
0, 2
1, 4
12, 25
17, 18
7, 5
5, 6
4, 6
4, 3
29, 3
45, 3
12, 9
18, 10
14, 10
9, 5
8, 6
4, 17
6, 8
4, 10
15, 23
19, 31
22, 12
45, 15
92, 55
80, 51
33, 16
48, 30
521, 603
2270, 2124
1698, 1325
196, 126
18, 21
19, 27
97, 128
392, 307
227, 177
36, 13
14, 8
17, 13
5, 6
6, 0
4, 4
4, 3
3, 2
7, 5
6, 7
6, 3
6, 2
10, 11
11, 5
5, 7
3, 5
1, 5
6, 0
2, 0
7, 5
3, 2
3, 5
4, 1
1, 5
3, 4
5, 5
7, 2
5, 14
2, 4
4, 3
4, 1
2, 4
4, 4
2, 1
2, 0
2, 3
2, 5
0, 3
1, 2
1, 5
2, 0
6, 2
2, 0
2, 1
0, 4
1, 1
3, 4
2, 3
2, 0
3, 1
5, 5
2, 2
1, 1
3, 3
6, 1
0, 0
3, 4
2, 0
0, 1
0, 0
2, 1
2, 2
2, 1
1, 1
1, 0
1, 0
1, 1
1, 1
1, 0
0, 1
1, 0
0, 2
0, 0
0, 0
0, 0
0, 2
0, 1
0, 0
1, 1
1, 1
1, 0
0, 1
1, 0
1, 0
0, 0
0, 1
0, 0
0, 1
0, 0
0, 0
1, 0
0, 0
1, 0
0, 0
1, 0
1, 0
0, 0
0, 0
0, 1
0, 0
1, 1
0, 0
0, 0
0, 0
0, 0
0, 1
0, 1
1, 0
0, 0
0, 0
0, 0
0, 0
0, 0
0, 0
0, 0
0, 0
0, 2
0, 1
0, 0
1, 0
0, 0
0, 0
0, 0
0, 0
0, 0
0, 0
0, 0
0, 0
0, 0
0, 0
0, 0
0, 1
0, 0
0, 0
0, 0
0, 0
0, 0
0, 0
0, 0
0, 0
0, 0
0, 0
0, 0
0, 0
0, 0
0, 0
0, 0
0, 0
0, 0
0, 0
0, 0
0, 0
0, 0
0, 0
0, 0
0, 0
0, 0
0, 0
0, 0
0, 0
0, 0
0, 0
0, 0
0, 0
0, 0
0, 0
0, 0
0, 0
0, 0
0, 0
0, 0
0, 0
0, 0
0, 0
0, 0
0, 0
0, 0
0, 0
0, 0
0, 0
0, 0
0, 0
0, 0
0, 0
0, 0
0, 0
0, 0
0, 0
0, 0
0, 0
0, 0
0, 0
0, 0
0, 0
0, 0
0, 0
0, 0
0, 0
0, 0
0, 0
0, 0
0, 0
0, 0
0, 0
0, 0
0, 0
0, 0
0, 0
0, 0
0, 0
0, 0
0, 0
0, 0
0, 0
0, 0
0, 0
0, 0
0, 0
0, 0
0, 0
0, 0
0, 0
0, 0
0, 0
0, 0
0, 0
0, 0
0, 0
#ENDOFDATA     end of spectrum data