File: host_upload/06-09-2024/ps_0852/dump3/ps__0852shot_2411.msa
#FORMAT      : EMSA/MAS spectral data file
#VERSION     : TC202v2.0 PIXL
#TITLE       : N/A
#DATE        :       Date in the format DD-MMM-YYYY, for example 07-JUL-2010
#TIME        :             The time of day at which the spectrum was recorded, in 24-hour format
#OWNER       : PIXL Flight Model       (PIXL will use this to indicate which instrument took the data.)
#NPOINTS     : 4096     Number of data points in the spectrum (This can be zero for configuration only files)
#NCOLUMNS    : 2     Number of data columns in the spectrum (This can be zero for configuration only files)
#XUNITS      : eV
#YUNITS      : COUNTS
#DATATYPE    : YY
#XPERCHAN    : 7.862, 7.881   eV per channel (separate by commas if more than one detector)
#OFFSET      : 18.5, -22.4         eV of first channel  (separate by commas if more than one detector
#SIGNALTYPE  : XRF
#YP_TEMP     : 2.332
#LIVETIME    : 8.56789, 8.55556   seconds (separate by commas if more than one detector)
#REALTIME    : 10, 10.0   seconds (separate by commas if more than one detector)
#SPECTRUM    : start of spectrum data
0, 0
0, 0
0, 0
0, 0
0, 0
0, 0
0, 0
0, 0
0, 1
2, 2
2, 4
45, 41
69, 52
4, 2
5, 4
101, 91
414, 439
110, 121
8, 4
3, 0
1, 4
10, 2
2, 2
9, 12
33, 33
33, 47
31, 22
3, 16
6, 3
1, 0
2, 3
1, 1
3, 1
7, 14
14, 33
3, 18
2, 4
5, 7
8, 15
3, 11
7, 6
13, 9
18, 17
12, 9
4, 5
6, 5
10, 7
16, 6
14, 17
9, 34
5, 38
12, 11
28, 7
53, 38
50, 56
26, 15
36, 39
432, 626
2177, 2398
1582, 1446
208, 147
17, 20
23, 24
107, 117
367, 362
228, 222
34, 29
22, 2
25, 18
16, 7
2, 4
3, 4
4, 4
9, 3
9, 5
8, 0
7, 5
2, 3
4, 3
4, 4
3, 0
1, 8
2, 7
3, 6
8, 4
6, 5
1, 3
2, 5
2, 4
3, 4
3, 7
4, 3
3, 8
1, 11
4, 18
3, 4
0, 2
2, 4
1, 2
2, 5
2, 2
1, 4
5, 2
4, 2
2, 1
5, 0
1, 7
1, 4
2, 3
2, 2
3, 2
1, 3
1, 2
3, 4
4, 1
4, 2
6, 3
4, 2
3, 2
3, 2
3, 1
0, 0
1, 1
4, 1
0, 2
0, 2
2, 2
0, 1
1, 0
0, 3
1, 0
0, 0
0, 0
1, 0
1, 1
0, 0
1, 0
1, 2
2, 0
1, 1
3, 0
0, 0
2, 1
0, 1
0, 2
0, 0
1, 0
1, 1
0, 0
1, 0
0, 0
0, 2
0, 0
0, 0
0, 0
1, 0
0, 2
0, 1
0, 0
0, 0
0, 0
0, 0
1, 0
0, 0
0, 0
0, 0
0, 0
0, 0
0, 1
0, 0
0, 1
2, 0
1, 0
0, 1
0, 0
0, 0
0, 2
0, 0
0, 1
0, 0
0, 0
0, 1
0, 0
0, 0
0, 0
0, 0
0, 0
0, 0
0, 0
1, 0
0, 1
0, 0
0, 0
1, 0
0, 0
0, 0
0, 0
0, 0
0, 0
0, 0
0, 0
0, 0
0, 0
0, 0
0, 0
0, 0
0, 1
0, 0
0, 0
0, 0
0, 0
0, 0
0, 0
0, 0
0, 0
0, 0
0, 0
0, 0
0, 0
0, 0
0, 0
0, 0
0, 0
0, 0
0, 0
0, 0
0, 0
0, 0
0, 0
0, 0
0, 0
0, 0
0, 0
0, 0
0, 0
0, 0
0, 0
0, 0
0, 0
0, 0
0, 0
0, 0
0, 0
0, 0
0, 0
0, 0
0, 0
0, 0
0, 0
0, 0
0, 0
0, 0
0, 0
0, 0
0, 0
0, 0
0, 0
0, 0
0, 0
0, 0
0, 0
0, 0
0, 0
0, 0
0, 0
0, 0
0, 0
0, 0
0, 0
0, 0
0, 0
0, 0
0, 0
0, 0
0, 0
0, 0
0, 0
0, 0
0, 0
0, 0
0, 0
0, 0
0, 0
0, 0
0, 0
0, 0
0, 0
0, 0
0, 0
0, 0
0, 0
0, 0
0, 0
0, 0
#ENDOFDATA     end of spectrum data