File: host_upload/06-09-2024/ps_0852/dump3/ps__0852shot_2150.msa
#FORMAT      : EMSA/MAS spectral data file
#VERSION     : TC202v2.0 PIXL
#TITLE       : N/A
#DATE        :       Date in the format DD-MMM-YYYY, for example 07-JUL-2010
#TIME        :             The time of day at which the spectrum was recorded, in 24-hour format
#OWNER       : PIXL Flight Model       (PIXL will use this to indicate which instrument took the data.)
#NPOINTS     : 4096     Number of data points in the spectrum (This can be zero for configuration only files)
#NCOLUMNS    : 2     Number of data columns in the spectrum (This can be zero for configuration only files)
#XUNITS      : eV
#YUNITS      : COUNTS
#DATATYPE    : YY
#XPERCHAN    : 7.862, 7.881   eV per channel (separate by commas if more than one detector)
#OFFSET      : 18.5, -22.4         eV of first channel  (separate by commas if more than one detector
#SIGNALTYPE  : XRF
#YP_TEMP     : 2.203
#LIVETIME    : 8.54793, 8.55005   seconds (separate by commas if more than one detector)
#REALTIME    : 10, 10.0   seconds (separate by commas if more than one detector)
#SPECTRUM    : start of spectrum data
0, 0
0, 0
0, 0
0, 0
0, 0
0, 0
0, 0
0, 0
1, 0
1, 1
2, 2
61, 29
57, 43
9, 1
6, 2
98, 84
469, 376
113, 87
7, 5
3, 2
1, 1
13, 13
11, 3
6, 8
42, 34
47, 33
36, 22
10, 15
3, 4
2, 1
1, 1
3, 3
8, 9
75, 53
107, 88
21, 10
9, 5
26, 16
19, 14
14, 3
2, 4
16, 9
18, 6
8, 13
1, 12
7, 10
4, 9
10, 6
14, 7
20, 13
31, 10
14, 14
12, 18
43, 41
58, 53
24, 30
41, 28
481, 460
2137, 1750
1612, 1151
231, 112
14, 15
15, 18
104, 107
333, 273
220, 179
26, 20
16, 14
11, 4
17, 11
7, 2
4, 5
5, 1
4, 6
6, 10
5, 11
5, 5
3, 2
10, 6
4, 0
3, 6
9, 6
5, 6
4, 3
8, 4
8, 8
4, 1
4, 7
8, 3
6, 3
2, 1
2, 4
3, 0
1, 3
4, 2
3, 4
0, 3
0, 7
2, 0
1, 3
3, 0
3, 3
5, 2
4, 2
2, 0
4, 5
2, 3
1, 1
2, 0
3, 1
4, 1
1, 2
2, 0
4, 1
4, 1
2, 0
2, 4
6, 5
8, 0
2, 3
2, 2
1, 0
2, 2
0, 1
3, 2
3, 1
5, 1
1, 0
1, 0
3, 1
0, 0
0, 0
2, 2
2, 0
1, 2
0, 0
2, 0
1, 0
2, 1
0, 0
0, 0
0, 3
1, 0
0, 0
0, 0
1, 0
0, 1
1, 0
0, 1
0, 0
0, 0
0, 0
0, 0
1, 0
0, 0
1, 0
0, 0
0, 1
2, 0
1, 0
0, 0
0, 0
0, 0
1, 0
0, 0
0, 0
1, 0
0, 0
0, 1
0, 0
0, 0
0, 0
0, 0
0, 0
0, 0
1, 0
1, 0
0, 1
0, 0
0, 0
0, 0
0, 0
0, 1
0, 0
0, 0
0, 0
0, 0
0, 0
0, 0
0, 0
0, 1
0, 0
0, 0
0, 0
0, 0
0, 0
0, 0
0, 1
0, 0
0, 0
0, 0
0, 0
0, 0
0, 0
0, 0
0, 0
0, 0
0, 0
0, 1
0, 0
0, 0
0, 0
0, 0
0, 0
0, 0
0, 0
0, 0
0, 0
0, 0
0, 0
0, 0
0, 0
0, 0
0, 0
0, 0
0, 0
0, 0
0, 0
0, 0
0, 0
0, 0
0, 0
0, 0
0, 0
0, 0
0, 0
0, 0
0, 0
0, 0
0, 0
0, 0
0, 0
0, 0
0, 0
0, 0
0, 0
0, 0
0, 0
0, 0
0, 0
0, 0
0, 0
0, 0
0, 0
0, 0
0, 0
0, 0
0, 0
0, 0
0, 0
0, 0
0, 0
0, 0
0, 0
0, 0
0, 0
0, 0
0, 0
0, 0
0, 0
0, 0
0, 0
0, 0
0, 0
0, 0
0, 0
0, 0
0, 0
0, 0
0, 0
0, 0
0, 0
0, 0
0, 0
0, 0
0, 0
0, 0
0, 0
0, 0
0, 0
0, 0
0, 0
0, 0
0, 0
#ENDOFDATA     end of spectrum data