File: host_upload/06-09-2024/ps_0852/dump3/ps__0852shot_2493.msa
#FORMAT      : EMSA/MAS spectral data file
#VERSION     : TC202v2.0 PIXL
#TITLE       : N/A
#DATE        :       Date in the format DD-MMM-YYYY, for example 07-JUL-2010
#TIME        :             The time of day at which the spectrum was recorded, in 24-hour format
#OWNER       : PIXL Flight Model       (PIXL will use this to indicate which instrument took the data.)
#NPOINTS     : 4096     Number of data points in the spectrum (This can be zero for configuration only files)
#NCOLUMNS    : 2     Number of data columns in the spectrum (This can be zero for configuration only files)
#XUNITS      : eV
#YUNITS      : COUNTS
#DATATYPE    : YY
#XPERCHAN    : 7.862, 7.881   eV per channel (separate by commas if more than one detector)
#OFFSET      : 18.5, -22.4         eV of first channel  (separate by commas if more than one detector
#SIGNALTYPE  : XRF
#YP_TEMP     : 2.492
#LIVETIME    : 8.5514, 8.56613   seconds (separate by commas if more than one detector)
#REALTIME    : 10, 10.0   seconds (separate by commas if more than one detector)
#SPECTRUM    : start of spectrum data
0, 0
0, 0
0, 0
0, 0
0, 0
0, 0
0, 0
0, 0
2, 2
0, 3
5, 0
47, 49
76, 64
2, 3
1, 5
70, 86
389, 463
91, 91
10, 4
1, 0
0, 1
6, 8
2, 3
7, 7
53, 43
101, 60
97, 35
78, 15
15, 5
5, 0
1, 2
2, 0
3, 3
17, 12
14, 19
3, 12
2, 8
5, 3
6, 16
7, 19
8, 20
21, 11
32, 12
23, 10
8, 9
10, 9
9, 6
2, 9
6, 13
18, 16
14, 17
6, 7
18, 15
64, 69
59, 87
27, 56
20, 72
412, 669
1823, 2525
1436, 1503
157, 150
14, 37
13, 54
84, 145
296, 398
198, 192
27, 25
14, 6
13, 14
10, 14
6, 6
1, 2
6, 1
5, 6
12, 6
6, 9
5, 5
3, 5
2, 7
5, 3
3, 0
4, 5
9, 4
8, 1
14, 2
7, 9
4, 3
7, 6
3, 2
1, 5
2, 8
1, 3
3, 4
5, 6
0, 5
1, 2
2, 1
2, 6
3, 4
0, 0
3, 3
1, 3
2, 6
2, 4
3, 2
4, 3
2, 0
0, 4
1, 5
3, 0
0, 3
1, 2
1, 2
3, 2
1, 3
2, 3
1, 6
3, 4
2, 3
1, 6
3, 1
0, 3
5, 3
1, 2
1, 0
1, 0
1, 4
1, 2
1, 1
0, 0
0, 1
1, 0
0, 1
1, 0
1, 0
0, 1
2, 0
0, 2
0, 0
0, 3
1, 0
1, 1
0, 0
0, 0
0, 0
0, 1
0, 0
1, 1
1, 0
0, 1
1, 0
0, 1
0, 0
0, 1
0, 1
0, 0
0, 0
0, 0
1, 0
1, 1
0, 1
1, 0
0, 0
0, 2
0, 0
0, 0
0, 1
0, 0
1, 0
0, 1
0, 0
0, 0
0, 1
0, 0
0, 1
0, 0
0, 0
0, 0
0, 0
0, 1
0, 1
0, 0
0, 0
0, 0
0, 0
0, 0
0, 0
0, 2
0, 0
0, 0
0, 0
0, 0
1, 0
0, 0
0, 0
0, 0
0, 0
0, 0
0, 0
0, 0
0, 1
0, 0
0, 1
0, 0
0, 0
0, 0
0, 0
0, 0
0, 0
0, 0
0, 0
0, 0
0, 0
0, 0
0, 0
0, 0
1, 0
0, 0
0, 0
0, 0
0, 0
0, 0
0, 0
0, 0
0, 0
0, 0
0, 0
0, 0
0, 0
0, 0
0, 0
0, 0
0, 0
0, 0
0, 0
0, 0
0, 0
0, 0
0, 0
0, 0
0, 0
0, 0
0, 0
0, 0
0, 0
0, 0
0, 0
0, 0
0, 0
0, 0
0, 0
0, 0
0, 0
0, 0
0, 0
0, 0
0, 0
0, 0
0, 0
0, 0
0, 0
0, 0
0, 0
0, 0
0, 0
0, 0
0, 0
0, 0
0, 0
0, 0
0, 0
0, 0
0, 0
0, 0
0, 0
0, 0
0, 0
0, 0
0, 0
0, 0
0, 0
0, 0
0, 0
0, 0
0, 0
0, 0
0, 0
0, 0
0, 0
0, 0
0, 0
0, 0
0, 0
0, 0
#ENDOFDATA     end of spectrum data