File: host_upload/06-09-2024/ps_0852/dump3/ps__0852shot_2157.msa
#FORMAT      : EMSA/MAS spectral data file
#VERSION     : TC202v2.0 PIXL
#TITLE       : N/A
#DATE        :       Date in the format DD-MMM-YYYY, for example 07-JUL-2010
#TIME        :             The time of day at which the spectrum was recorded, in 24-hour format
#OWNER       : PIXL Flight Model       (PIXL will use this to indicate which instrument took the data.)
#NPOINTS     : 4096     Number of data points in the spectrum (This can be zero for configuration only files)
#NCOLUMNS    : 2     Number of data columns in the spectrum (This can be zero for configuration only files)
#XUNITS      : eV
#YUNITS      : COUNTS
#DATATYPE    : YY
#XPERCHAN    : 7.862, 7.881   eV per channel (separate by commas if more than one detector)
#OFFSET      : 18.5, -22.4         eV of first channel  (separate by commas if more than one detector
#SIGNALTYPE  : XRF
#YP_TEMP     : 2.396
#LIVETIME    : 8.5629, 8.35974   seconds (separate by commas if more than one detector)
#REALTIME    : 10, 10.0   seconds (separate by commas if more than one detector)
#SPECTRUM    : start of spectrum data
0, 0
0, 0
0, 0
0, 0
0, 0
0, 0
0, 0
0, 0
1, 0
3, 2
1, 4
36, 47
29, 58
3, 6
5, 8
61, 112
301, 382
82, 96
3, 12
3, 0
43, 41
220, 246
95, 85
27, 27
48, 62
44, 59
26, 20
11, 17
4, 5
4, 5
4, 6
3, 2
3, 7
35, 42
50, 75
9, 13
9, 10
9, 10
5, 9
4, 3
5, 12
13, 14
10, 32
10, 30
5, 14
11, 29
3, 19
9, 10
10, 12
21, 26
21, 14
9, 5
13, 16
35, 44
55, 57
25, 17
30, 42
410, 566
1886, 2361
1537, 1436
223, 163
13, 23
21, 21
94, 121
325, 341
233, 214
32, 31
11, 13
19, 20
29, 8
17, 3
3, 0
4, 7
6, 2
7, 5
4, 2
7, 4
3, 6
4, 11
2, 5
3, 3
3, 3
1, 8
1, 3
2, 6
3, 2
2, 4
1, 2
5, 7
4, 5
4, 10
3, 5
3, 7
3, 22
4, 26
1, 10
3, 1
4, 2
10, 3
5, 4
3, 4
3, 2
4, 3
3, 1
1, 2
1, 2
1, 2
3, 3
0, 1
5, 4
2, 2
1, 1
2, 2
2, 2
1, 3
1, 5
1, 10
2, 1
0, 4
2, 2
0, 1
1, 4
2, 2
3, 0
0, 2
1, 2
1, 1
3, 2
2, 2
0, 2
1, 1
0, 3
0, 1
0, 1
2, 1
1, 1
1, 0
2, 0
1, 0
1, 0
2, 0
1, 0
0, 2
0, 0
1, 0
0, 0
1, 0
0, 0
1, 0
0, 0
0, 0
0, 0
0, 0
0, 0
0, 0
1, 0
3, 0
0, 0
1, 0
1, 0
0, 0
1, 0
0, 0
0, 1
0, 0
0, 0
0, 0
0, 1
0, 1
0, 1
0, 0
1, 1
0, 0
0, 0
0, 0
0, 0
0, 0
0, 0
0, 0
2, 1
0, 0
0, 0
0, 1
0, 0
0, 1
0, 0
0, 0
1, 0
0, 0
0, 0
0, 0
0, 0
0, 0
0, 0
0, 0
0, 0
0, 0
0, 0
0, 0
0, 0
0, 0
0, 0
0, 0
0, 0
0, 0
0, 0
0, 0
0, 0
0, 0
0, 0
0, 0
0, 0
0, 0
0, 0
0, 0
0, 0
0, 0
0, 0
0, 0
0, 0
0, 0
0, 0
0, 0
0, 0
0, 0
0, 0
0, 0
0, 0
0, 0
0, 0
0, 0
0, 0
0, 0
0, 0
0, 0
0, 0
0, 0
0, 0
0, 0
0, 0
0, 0
0, 0
0, 0
0, 0
0, 0
0, 0
0, 0
0, 0
0, 0
0, 0
0, 0
0, 0
0, 0
0, 0
0, 0
0, 0
0, 0
0, 0
0, 0
0, 0
0, 0
0, 0
0, 0
0, 0
0, 0
0, 0
0, 0
0, 0
0, 0
0, 0
0, 0
0, 0
0, 0
0, 0
0, 0
0, 0
0, 0
0, 0
0, 0
0, 0
0, 0
0, 0
0, 0
0, 0
0, 0
0, 0
0, 0
0, 0
0, 0
0, 0
0, 0
0, 0
0, 0
0, 0
#ENDOFDATA     end of spectrum data