File: host_upload/06-09-2024/ps_0852/dump3/ps__0852shot_2098.msa
#FORMAT      : EMSA/MAS spectral data file
#VERSION     : TC202v2.0 PIXL
#TITLE       : N/A
#DATE        :       Date in the format DD-MMM-YYYY, for example 07-JUL-2010
#TIME        :             The time of day at which the spectrum was recorded, in 24-hour format
#OWNER       : PIXL Flight Model       (PIXL will use this to indicate which instrument took the data.)
#NPOINTS     : 4096     Number of data points in the spectrum (This can be zero for configuration only files)
#NCOLUMNS    : 2     Number of data columns in the spectrum (This can be zero for configuration only files)
#XUNITS      : eV
#YUNITS      : COUNTS
#DATATYPE    : YY
#XPERCHAN    : 7.862, 7.881   eV per channel (separate by commas if more than one detector)
#OFFSET      : 18.5, -22.4         eV of first channel  (separate by commas if more than one detector
#SIGNALTYPE  : XRF
#YP_TEMP     : 2.3
#LIVETIME    : 8.55981, 8.58295   seconds (separate by commas if more than one detector)
#REALTIME    : 10, 10.0   seconds (separate by commas if more than one detector)
#SPECTRUM    : start of spectrum data
0, 0
0, 0
0, 0
0, 0
0, 0
0, 0
0, 0
0, 0
1, 0
1, 0
0, 3
41, 47
52, 57
6, 5
3, 9
86, 80
406, 396
109, 101
4, 3
2, 3
22, 25
123, 154
65, 59
14, 15
20, 20
39, 39
24, 11
16, 14
5, 4
3, 3
2, 1
0, 1
1, 6
11, 15
14, 14
6, 7
5, 6
2, 3
5, 6
3, 0
16, 4
112, 8
70, 19
54, 3
28, 7
10, 6
6, 2
2, 4
6, 11
9, 22
5, 8
8, 21
12, 29
36, 68
50, 88
26, 17
34, 41
478, 551
2180, 2246
1585, 1282
184, 139
17, 14
18, 24
111, 115
302, 365
231, 196
24, 23
8, 4
23, 9
22, 12
15, 6
0, 4
1, 4
6, 4
6, 5
4, 2
3, 1
4, 6
3, 3
8, 2
1, 3
8, 3
3, 2
8, 4
21, 8
16, 12
8, 8
6, 4
5, 0
5, 3
0, 3
3, 5
3, 2
2, 0
6, 6
6, 3
7, 1
5, 1
3, 0
3, 2
4, 1
6, 0
2, 3
0, 3
5, 2
0, 1
1, 3
0, 10
1, 4
0, 3
0, 5
0, 2
4, 2
3, 1
1, 0
1, 3
2, 5
1, 5
0, 2
0, 3
2, 1
0, 0
1, 1
2, 1
3, 0
1, 0
1, 0
1, 4
0, 2
1, 1
1, 1
0, 0
0, 0
1, 2
0, 0
1, 0
1, 0
0, 1
0, 0
1, 1
1, 0
0, 0
1, 0
1, 1
2, 3
0, 0
1, 1
0, 0
0, 0
0, 0
0, 0
1, 0
0, 0
0, 2
0, 0
0, 1
0, 0
0, 0
0, 0
0, 0
2, 1
0, 0
1, 0
0, 0
0, 0
1, 1
1, 0
0, 0
2, 0
0, 2
0, 1
0, 0
0, 0
0, 0
0, 0
1, 0
2, 0
0, 0
0, 0
0, 1
0, 0
0, 0
0, 0
0, 0
0, 0
0, 0
0, 0
0, 0
0, 0
0, 0
0, 0
0, 0
1, 0
0, 0
0, 0
0, 0
0, 0
0, 0
0, 0
0, 0
0, 0
0, 0
0, 0
0, 0
0, 0
0, 1
0, 0
0, 0
0, 0
0, 0
0, 0
0, 0
0, 0
0, 0
0, 0
0, 0
0, 0
0, 0
0, 0
0, 0
0, 0
0, 0
0, 0
0, 0
0, 0
0, 0
0, 0
0, 0
0, 0
0, 0
0, 0
0, 0
0, 0
0, 0
0, 0
0, 0
0, 0
0, 1
0, 0
0, 0
0, 0
0, 0
0, 0
0, 0
0, 0
0, 0
0, 0
0, 0
0, 0
0, 0
0, 0
0, 0
0, 0
0, 0
0, 0
0, 0
0, 0
0, 0
0, 0
0, 0
0, 0
0, 0
0, 0
0, 0
0, 0
0, 0
0, 0
0, 0
0, 0
0, 0
0, 0
0, 0
0, 0
0, 0
0, 0
0, 0
0, 0
0, 0
0, 0
0, 0
0, 0
0, 0
0, 0
0, 0
0, 0
0, 0
0, 0
0, 0
0, 0
0, 0
0, 0
0, 0
0, 0
0, 0
#ENDOFDATA     end of spectrum data