File: host_upload/06-09-2024/ps_0852/dump3/ps__0852shot_2527.msa
#FORMAT      : EMSA/MAS spectral data file
#VERSION     : TC202v2.0 PIXL
#TITLE       : N/A
#DATE        :       Date in the format DD-MMM-YYYY, for example 07-JUL-2010
#TIME        :             The time of day at which the spectrum was recorded, in 24-hour format
#OWNER       : PIXL Flight Model       (PIXL will use this to indicate which instrument took the data.)
#NPOINTS     : 4096     Number of data points in the spectrum (This can be zero for configuration only files)
#NCOLUMNS    : 2     Number of data columns in the spectrum (This can be zero for configuration only files)
#XUNITS      : eV
#YUNITS      : COUNTS
#DATATYPE    : YY
#XPERCHAN    : 7.862, 7.881   eV per channel (separate by commas if more than one detector)
#OFFSET      : 18.5, -22.4         eV of first channel  (separate by commas if more than one detector
#SIGNALTYPE  : XRF
#YP_TEMP     : 2.396
#LIVETIME    : 8.55145, 8.54484   seconds (separate by commas if more than one detector)
#REALTIME    : 10, 10.0   seconds (separate by commas if more than one detector)
#SPECTRUM    : start of spectrum data
0, 0
0, 0
0, 0
0, 0
0, 0
0, 0
0, 0
1, 0
1, 0
1, 0
4, 2
33, 37
53, 56
11, 4
5, 4
96, 93
508, 447
111, 80
4, 6
2, 2
12, 16
105, 76
45, 32
22, 14
32, 36
54, 31
19, 23
16, 12
3, 4
7, 2
1, 2
9, 5
13, 5
86, 102
177, 134
25, 35
23, 20
24, 20
4, 5
6, 3
5, 1
14, 29
12, 22
12, 12
4, 5
8, 4
7, 10
5, 5
15, 14
24, 58
13, 26
7, 9
6, 14
45, 36
64, 43
16, 22
35, 20
452, 546
2050, 2023
1554, 1194
204, 105
16, 11
17, 24
81, 124
339, 331
221, 166
23, 22
3, 2
7, 10
11, 10
6, 4
7, 4
4, 6
3, 5
6, 6
6, 9
2, 10
7, 16
4, 8
4, 1
5, 3
9, 1
7, 5
2, 6
2, 3
4, 3
8, 2
8, 3
7, 1
1, 9
4, 7
4, 7
5, 5
4, 0
8, 2
11, 1
2, 0
3, 6
4, 1
5, 5
1, 2
4, 1
5, 5
2, 4
3, 2
2, 2
4, 0
8, 2
7, 1
3, 3
3, 2
2, 2
0, 2
3, 3
2, 4
4, 1
3, 2
4, 3
3, 3
3, 1
0, 1
5, 1
0, 1
2, 1
0, 1
0, 1
3, 1
2, 1
2, 2
2, 0
0, 1
1, 0
0, 2
0, 0
1, 2
0, 1
0, 0
1, 0
1, 0
0, 1
1, 3
2, 0
2, 0
0, 0
1, 1
1, 0
0, 1
1, 2
0, 0
1, 1
1, 1
0, 0
0, 0
0, 0
1, 0
1, 2
0, 0
0, 0
0, 0
0, 0
0, 1
0, 0
0, 0
0, 0
0, 1
0, 1
0, 1
0, 0
0, 0
0, 1
0, 0
0, 1
1, 1
1, 0
0, 0
0, 1
0, 0
0, 0
0, 0
1, 0
0, 0
0, 0
0, 0
1, 1
1, 0
0, 0
0, 0
0, 0
0, 0
0, 0
0, 0
0, 0
0, 0
0, 0
0, 0
0, 0
0, 1
0, 0
0, 0
0, 0
0, 0
0, 0
0, 0
0, 0
0, 1
0, 0
0, 1
0, 0
0, 0
1, 0
0, 0
0, 0
0, 0
0, 0
0, 0
0, 0
0, 0
1, 0
0, 0
0, 0
0, 0
0, 0
1, 0
0, 0
0, 1
0, 0
0, 0
1, 0
0, 0
0, 0
0, 0
0, 0
0, 0
0, 0
0, 0
0, 0
0, 0
0, 0
0, 0
0, 0
0, 0
0, 0
0, 0
0, 0
0, 0
0, 0
0, 0
0, 0
0, 0
0, 0
0, 0
0, 0
0, 0
0, 0
0, 0
0, 0
0, 0
0, 0
0, 0
0, 0
0, 0
0, 0
0, 0
0, 0
0, 0
0, 0
0, 0
0, 0
0, 0
0, 0
0, 0
0, 0
0, 0
0, 0
0, 0
0, 0
0, 0
0, 0
0, 0
0, 0
0, 0
0, 0
0, 0
0, 0
0, 0
0, 0
0, 0
0, 0
0, 0
0, 0
0, 0
0, 0
0, 0
0, 0
#ENDOFDATA     end of spectrum data