File: host_upload/06-09-2024/ps_0852/dump3/ps__0852shot_2204.msa
#FORMAT      : EMSA/MAS spectral data file
#VERSION     : TC202v2.0 PIXL
#TITLE       : N/A
#DATE        :       Date in the format DD-MMM-YYYY, for example 07-JUL-2010
#TIME        :             The time of day at which the spectrum was recorded, in 24-hour format
#OWNER       : PIXL Flight Model       (PIXL will use this to indicate which instrument took the data.)
#NPOINTS     : 4096     Number of data points in the spectrum (This can be zero for configuration only files)
#NCOLUMNS    : 2     Number of data columns in the spectrum (This can be zero for configuration only files)
#XUNITS      : eV
#YUNITS      : COUNTS
#DATATYPE    : YY
#XPERCHAN    : 7.862, 7.881   eV per channel (separate by commas if more than one detector)
#OFFSET      : 18.5, -22.4         eV of first channel  (separate by commas if more than one detector
#SIGNALTYPE  : XRF
#YP_TEMP     : 2.267
#LIVETIME    : 8.57022, 8.56093   seconds (separate by commas if more than one detector)
#REALTIME    : 10, 10.0   seconds (separate by commas if more than one detector)
#SPECTRUM    : start of spectrum data
0, 0
0, 0
0, 0
0, 0
0, 0
0, 0
0, 0
0, 0
1, 0
2, 2
4, 4
41, 39
58, 70
7, 10
6, 4
91, 108
447, 422
112, 114
9, 5
9, 2
2, 1
1, 2
0, 2
8, 24
38, 59
64, 84
27, 28
17, 13
5, 4
4, 5
10, 11
6, 9
3, 7
18, 10
26, 23
6, 4
7, 4
5, 4
4, 2
4, 3
5, 3
21, 13
23, 20
17, 9
6, 6
10, 4
7, 15
6, 21
15, 8
14, 15
14, 18
21, 17
9, 24
45, 56
52, 48
22, 16
57, 48
469, 581
2176, 2297
1628, 1385
232, 163
31, 22
21, 24
108, 114
359, 362
213, 195
32, 23
2, 6
11, 20
10, 8
3, 3
4, 3
4, 4
7, 4
10, 4
15, 2
11, 8
6, 9
0, 11
7, 4
3, 4
9, 1
14, 3
10, 4
1, 5
6, 2
3, 8
8, 3
4, 8
2, 3
1, 1
3, 6
2, 14
2, 22
2, 9
2, 3
7, 2
4, 0
4, 1
6, 3
2, 4
3, 2
1, 1
4, 1
3, 3
3, 2
4, 0
4, 2
1, 5
0, 2
1, 3
2, 1
0, 2
3, 0
2, 0
8, 0
2, 2
2, 3
3, 1
1, 3
1, 1
2, 1
1, 3
1, 1
2, 4
0, 0
2, 3
1, 0
1, 4
1, 1
0, 1
1, 1
1, 2
2, 2
1, 0
1, 0
1, 0
1, 1
0, 0
0, 1
3, 0
0, 0
0, 0
0, 0
0, 1
0, 1
2, 2
0, 0
1, 0
0, 0
0, 0
0, 0
1, 1
0, 0
1, 0
0, 2
0, 0
0, 0
0, 0
0, 0
0, 1
0, 0
0, 0
0, 0
0, 1
0, 1
2, 0
0, 3
1, 0
1, 0
0, 0
0, 0
1, 0
1, 1
0, 0
0, 0
0, 0
1, 0
0, 0
0, 0
0, 0
0, 0
0, 0
0, 0
0, 0
0, 0
0, 0
1, 0
0, 1
0, 0
0, 0
0, 0
0, 0
0, 0
0, 0
0, 0
0, 0
0, 0
0, 0
0, 0
0, 0
0, 0
0, 0
0, 0
0, 0
0, 0
0, 0
0, 0
0, 0
0, 0
0, 0
0, 0
0, 0
0, 0
0, 0
0, 0
0, 0
0, 0
0, 0
0, 0
0, 0
0, 0
0, 0
0, 0
0, 0
0, 0
0, 0
0, 0
0, 0
0, 0
0, 0
0, 0
0, 0
0, 0
0, 0
0, 0
0, 0
0, 0
0, 0
0, 0
0, 0
0, 0
0, 0
0, 0
0, 0
0, 0
0, 0
0, 0
0, 0
0, 0
0, 0
0, 0
0, 0
0, 0
0, 0
0, 0
0, 0
0, 0
0, 0
0, 0
0, 0
0, 0
0, 0
0, 0
0, 0
0, 0
0, 0
0, 0
0, 0
0, 0
0, 0
0, 0
0, 0
0, 0
0, 0
0, 0
0, 0
0, 0
0, 0
0, 0
0, 0
0, 0
0, 0
0, 0
0, 0
0, 0
0, 0
0, 0
0, 0
0, 0
0, 0
0, 0
0, 0
0, 0
#ENDOFDATA     end of spectrum data