File: host_upload/06-09-2024/ps_0852/dump3/ps__0852shot_2375.msa
#FORMAT      : EMSA/MAS spectral data file
#VERSION     : TC202v2.0 PIXL
#TITLE       : N/A
#DATE        :       Date in the format DD-MMM-YYYY, for example 07-JUL-2010
#TIME        :             The time of day at which the spectrum was recorded, in 24-hour format
#OWNER       : PIXL Flight Model       (PIXL will use this to indicate which instrument took the data.)
#NPOINTS     : 4096     Number of data points in the spectrum (This can be zero for configuration only files)
#NCOLUMNS    : 2     Number of data columns in the spectrum (This can be zero for configuration only files)
#XUNITS      : eV
#YUNITS      : COUNTS
#DATATYPE    : YY
#XPERCHAN    : 7.862, 7.881   eV per channel (separate by commas if more than one detector)
#OFFSET      : 18.5, -22.4         eV of first channel  (separate by commas if more than one detector
#SIGNALTYPE  : XRF
#YP_TEMP     : 2.492
#LIVETIME    : 8.56041, 8.54309   seconds (separate by commas if more than one detector)
#REALTIME    : 10, 10.0   seconds (separate by commas if more than one detector)
#SPECTRUM    : start of spectrum data
0, 0
0, 0
0, 0
0, 0
0, 0
0, 0
0, 0
0, 0
0, 1
4, 2
1, 1
46, 45
50, 34
5, 3
6, 8
108, 111
527, 423
144, 104
7, 7
5, 1
9, 4
3, 15
12, 5
19, 15
70, 66
62, 60
31, 36
18, 10
3, 1
2, 3
3, 2
15, 0
24, 11
97, 81
139, 114
19, 22
12, 12
17, 14
7, 2
4, 3
3, 2
14, 11
18, 18
6, 7
7, 3
8, 7
6, 5
5, 6
12, 18
31, 65
32, 46
12, 11
7, 9
37, 37
74, 54
23, 39
25, 33
456, 565
2196, 2142
1575, 1323
194, 155
18, 22
63, 19
198, 130
429, 331
231, 172
34, 19
11, 7
30, 9
8, 18
4, 10
8, 2
6, 2
6, 10
9, 6
8, 2
4, 5
5, 1
5, 3
2, 9
5, 1
5, 9
4, 2
4, 4
3, 4
5, 3
13, 3
10, 3
8, 3
4, 10
5, 2
3, 4
2, 3
3, 1
6, 5
11, 5
18, 1
10, 1
6, 5
5, 6
3, 0
0, 4
6, 5
4, 0
7, 2
2, 2
4, 1
4, 4
0, 0
2, 2
1, 1
1, 1
3, 1
3, 4
3, 0
0, 2
4, 7
0, 7
2, 0
3, 1
2, 1
1, 3
5, 0
1, 4
2, 2
1, 0
3, 0
0, 1
1, 0
1, 0
2, 1
0, 2
2, 0
2, 1
1, 1
2, 1
0, 0
0, 1
1, 1
0, 3
0, 2
2, 0
0, 0
0, 0
1, 1
1, 1
0, 0
0, 1
0, 1
0, 0
1, 0
0, 0
2, 0
0, 1
2, 0
0, 0
1, 0
0, 0
0, 0
0, 0
0, 0
0, 0
0, 0
0, 0
1, 1
0, 0
1, 1
0, 0
1, 0
1, 1
0, 0
0, 0
0, 0
0, 0
0, 0
0, 0
0, 0
0, 0
0, 0
1, 1
0, 0
0, 0
0, 0
0, 0
0, 0
0, 0
0, 0
0, 0
0, 0
0, 0
0, 0
0, 0
0, 0
0, 0
0, 0
0, 0
0, 0
0, 0
0, 0
0, 0
0, 0
0, 0
0, 0
0, 0
0, 0
0, 0
0, 0
0, 0
0, 0
0, 0
0, 0
0, 0
0, 0
0, 0
0, 0
0, 0
0, 0
0, 0
0, 0
0, 0
0, 0
1, 0
0, 0
0, 0
0, 0
0, 0
0, 0
0, 0
0, 0
0, 0
0, 0
0, 0
0, 0
0, 0
0, 0
0, 0
0, 0
0, 0
0, 0
0, 0
0, 0
0, 0
0, 0
0, 0
0, 0
0, 0
0, 0
0, 0
0, 0
0, 0
0, 0
0, 0
0, 0
0, 0
0, 0
0, 0
0, 0
0, 0
0, 0
0, 0
0, 0
0, 0
0, 0
0, 0
0, 0
0, 0
0, 0
0, 0
0, 0
0, 0
0, 0
0, 0
0, 0
0, 0
0, 0
0, 0
0, 0
0, 0
0, 0
0, 0
0, 0
0, 0
0, 0
0, 0
0, 0
0, 0
0, 0
0, 0
0, 0
0, 0
0, 0
0, 0
0, 0
0, 0
#ENDOFDATA     end of spectrum data