File: host_upload/06-09-2024/ps_0852/dump3/ps__0852shot_2231.msa
#FORMAT      : EMSA/MAS spectral data file
#VERSION     : TC202v2.0 PIXL
#TITLE       : N/A
#DATE        :       Date in the format DD-MMM-YYYY, for example 07-JUL-2010
#TIME        :             The time of day at which the spectrum was recorded, in 24-hour format
#OWNER       : PIXL Flight Model       (PIXL will use this to indicate which instrument took the data.)
#NPOINTS     : 4096     Number of data points in the spectrum (This can be zero for configuration only files)
#NCOLUMNS    : 2     Number of data columns in the spectrum (This can be zero for configuration only files)
#XUNITS      : eV
#YUNITS      : COUNTS
#DATATYPE    : YY
#XPERCHAN    : 7.862, 7.881   eV per channel (separate by commas if more than one detector)
#OFFSET      : 18.5, -22.4         eV of first channel  (separate by commas if more than one detector
#SIGNALTYPE  : XRF
#YP_TEMP     : 2.588
#LIVETIME    : 8.55613, 8.56251   seconds (separate by commas if more than one detector)
#REALTIME    : 10, 10.0   seconds (separate by commas if more than one detector)
#SPECTRUM    : start of spectrum data
0, 0
0, 0
0, 0
0, 0
0, 0
0, 0
0, 0
0, 0
1, 1
2, 1
7, 4
33, 42
57, 38
0, 5
4, 2
85, 111
397, 481
92, 96
9, 9
0, 2
1, 3
4, 6
6, 3
12, 11
48, 89
51, 79
23, 25
17, 10
7, 5
5, 2
2, 1
2, 4
2, 3
8, 6
9, 11
3, 4
2, 3
3, 7
6, 7
15, 3
11, 5
11, 8
22, 19
12, 11
17, 4
7, 8
4, 8
5, 31
3, 56
12, 24
21, 13
7, 7
1, 10
33, 60
42, 68
11, 22
33, 46
425, 673
2022, 2493
1529, 1404
163, 159
20, 22
19, 23
95, 126
319, 365
192, 218
47, 16
10, 10
12, 14
3, 9
3, 1
3, 5
5, 11
6, 12
4, 8
4, 9
1, 6
7, 2
5, 5
5, 7
4, 3
4, 6
6, 10
5, 10
2, 23
2, 14
5, 7
2, 8
3, 2
1, 4
9, 6
15, 5
8, 1
2, 4
3, 3
2, 3
0, 11
3, 10
2, 4
4, 6
2, 5
4, 2
2, 5
1, 3
3, 1
4, 2
2, 4
1, 7
1, 8
0, 4
1, 6
1, 3
0, 2
5, 4
4, 0
2, 5
6, 7
4, 1
4, 2
1, 0
3, 2
1, 0
0, 1
0, 1
2, 0
1, 1
0, 0
2, 3
1, 1
2, 0
0, 0
0, 2
2, 3
0, 2
4, 1
0, 1
0, 0
0, 1
0, 0
0, 1
0, 1
1, 1
0, 0
0, 1
1, 0
0, 0
0, 0
0, 0
0, 0
0, 0
0, 1
0, 1
0, 0
1, 1
0, 0
0, 0
0, 0
0, 0
1, 0
0, 0
1, 0
0, 1
0, 1
0, 0
0, 0
1, 1
1, 0
0, 1
0, 0
1, 0
0, 0
0, 2
2, 0
0, 0
0, 1
0, 0
0, 0
0, 1
0, 0
0, 0
0, 0
0, 3
0, 0
0, 0
0, 0
0, 1
0, 0
0, 0
0, 0
0, 0
0, 0
0, 0
1, 0
0, 0
1, 0
0, 0
0, 0
0, 0
0, 0
0, 0
0, 0
0, 0
0, 0
0, 0
0, 0
0, 0
0, 0
0, 0
0, 0
0, 0
0, 0
0, 0
0, 0
0, 0
0, 0
0, 0
0, 0
0, 0
0, 0
0, 0
0, 0
0, 0
0, 0
0, 0
0, 0
0, 0
0, 0
0, 0
0, 0
0, 0
0, 0
0, 0
0, 0
0, 0
0, 0
0, 0
0, 0
0, 0
0, 0
0, 0
0, 0
0, 0
0, 0
0, 0
0, 0
0, 0
0, 0
0, 0
0, 0
0, 0
0, 0
0, 0
0, 0
0, 0
0, 0
0, 0
0, 0
0, 0
0, 0
0, 0
0, 0
0, 0
0, 0
0, 0
0, 0
0, 0
0, 0
0, 0
0, 0
0, 0
0, 0
0, 0
0, 0
0, 0
0, 0
0, 0
0, 0
0, 0
0, 0
0, 0
0, 0
0, 0
0, 0
0, 0
0, 0
0, 0
0, 0
0, 0
0, 0
0, 0
0, 0
0, 0
0, 0
0, 0
#ENDOFDATA     end of spectrum data