File: host_upload/06-09-2024/ps_0852/dump3/ps__0852shot_2379.msa
#FORMAT      : EMSA/MAS spectral data file
#VERSION     : TC202v2.0 PIXL
#TITLE       : N/A
#DATE        :       Date in the format DD-MMM-YYYY, for example 07-JUL-2010
#TIME        :             The time of day at which the spectrum was recorded, in 24-hour format
#OWNER       : PIXL Flight Model       (PIXL will use this to indicate which instrument took the data.)
#NPOINTS     : 4096     Number of data points in the spectrum (This can be zero for configuration only files)
#NCOLUMNS    : 2     Number of data columns in the spectrum (This can be zero for configuration only files)
#XUNITS      : eV
#YUNITS      : COUNTS
#DATATYPE    : YY
#XPERCHAN    : 7.862, 7.881   eV per channel (separate by commas if more than one detector)
#OFFSET      : 18.5, -22.4         eV of first channel  (separate by commas if more than one detector
#SIGNALTYPE  : XRF
#YP_TEMP     : 2.332
#LIVETIME    : 8.5621, 8.57186   seconds (separate by commas if more than one detector)
#REALTIME    : 10, 10.0   seconds (separate by commas if more than one detector)
#SPECTRUM    : start of spectrum data
0, 0
0, 0
0, 0
0, 0
0, 0
0, 0
0, 0
0, 0
0, 0
2, 1
0, 0
49, 54
75, 60
5, 1
7, 6
88, 99
490, 411
112, 89
6, 1
0, 0
1, 2
8, 4
0, 6
6, 12
50, 52
38, 79
21, 30
8, 17
5, 3
3, 1
3, 3
3, 3
5, 5
9, 9
12, 12
3, 1
3, 5
3, 4
3, 5
3, 3
8, 4
28, 11
50, 16
15, 16
6, 5
2, 4
3, 4
5, 30
6, 102
14, 74
14, 15
40, 9
57, 12
59, 51
75, 61
29, 20
31, 34
473, 631
2213, 2455
1637, 1385
197, 148
17, 15
18, 19
84, 113
345, 358
220, 169
49, 21
64, 7
48, 10
10, 7
4, 5
5, 4
2, 6
5, 4
2, 8
5, 4
11, 3
6, 2
9, 2
7, 2
2, 3
7, 6
9, 1
4, 3
4, 13
2, 4
4, 5
4, 1
8, 4
2, 5
4, 3
5, 6
9, 1
17, 2
14, 2
2, 5
1, 7
2, 4
2, 1
2, 1
2, 1
6, 4
1, 3
6, 1
0, 1
2, 2
2, 0
3, 4
2, 7
5, 8
3, 1
2, 4
0, 1
2, 2
1, 4
1, 3
3, 2
4, 2
1, 2
1, 1
3, 0
2, 3
3, 2
2, 1
0, 1
2, 2
1, 1
0, 0
0, 1
3, 3
0, 1
1, 0
1, 0
1, 0
1, 2
4, 1
0, 0
3, 1
1, 0
0, 1
1, 1
1, 0
1, 0
1, 0
3, 0
0, 4
0, 1
0, 0
0, 1
2, 1
0, 0
1, 0
1, 3
0, 0
0, 0
1, 1
0, 1
1, 0
0, 0
0, 0
0, 0
0, 0
0, 0
0, 0
0, 0
1, 1
1, 1
2, 0
2, 0
2, 0
0, 0
0, 0
1, 0
0, 0
0, 0
0, 0
0, 0
0, 0
0, 0
0, 0
1, 0
0, 0
0, 0
0, 0
0, 0
0, 0
0, 0
0, 0
0, 0
0, 0
0, 0
0, 0
0, 0
0, 0
0, 0
0, 1
0, 0
1, 0
0, 0
0, 0
0, 0
0, 1
0, 0
0, 0
0, 0
0, 0
0, 0
0, 0
0, 0
0, 0
0, 0
0, 0
0, 0
0, 0
0, 0
0, 0
0, 0
0, 0
0, 0
0, 0
0, 0
0, 0
0, 0
0, 0
0, 0
0, 0
0, 0
0, 0
0, 0
0, 0
0, 0
0, 0
0, 0
0, 0
0, 0
0, 0
0, 0
0, 0
0, 0
0, 0
0, 0
0, 0
0, 0
0, 0
0, 0
0, 0
0, 0
0, 0
0, 0
0, 0
0, 0
0, 0
0, 0
0, 0
0, 0
0, 0
0, 0
0, 0
0, 0
0, 0
0, 0
0, 0
0, 0
0, 0
0, 0
0, 0
0, 0
0, 0
0, 0
0, 0
0, 0
0, 0
0, 0
0, 0
0, 0
0, 0
0, 0
0, 0
0, 0
0, 0
0, 0
0, 0
0, 0
0, 0
0, 0
0, 0
0, 0
0, 0
0, 0
0, 0
0, 0
0, 0
0, 0
0, 0
#ENDOFDATA     end of spectrum data