File: host_upload/06-09-2024/ps_0852/dump3/ps__0852shot_2186.msa
#FORMAT      : EMSA/MAS spectral data file
#VERSION     : TC202v2.0 PIXL
#TITLE       : N/A
#DATE        :       Date in the format DD-MMM-YYYY, for example 07-JUL-2010
#TIME        :             The time of day at which the spectrum was recorded, in 24-hour format
#OWNER       : PIXL Flight Model       (PIXL will use this to indicate which instrument took the data.)
#NPOINTS     : 4096     Number of data points in the spectrum (This can be zero for configuration only files)
#NCOLUMNS    : 2     Number of data columns in the spectrum (This can be zero for configuration only files)
#XUNITS      : eV
#YUNITS      : COUNTS
#DATATYPE    : YY
#XPERCHAN    : 7.862, 7.881   eV per channel (separate by commas if more than one detector)
#OFFSET      : 18.5, -22.4         eV of first channel  (separate by commas if more than one detector
#SIGNALTYPE  : XRF
#YP_TEMP     : 2.267
#LIVETIME    : 8.5792, 8.55249   seconds (separate by commas if more than one detector)
#REALTIME    : 10, 10.0   seconds (separate by commas if more than one detector)
#SPECTRUM    : start of spectrum data
0, 0
0, 0
0, 0
0, 0
0, 0
0, 0
0, 0
0, 0
0, 3
1, 1
3, 5
50, 49
73, 59
10, 9
4, 3
74, 124
409, 538
105, 114
2, 9
2, 2
0, 0
2, 0
0, 4
3, 5
35, 59
44, 85
20, 18
19, 15
4, 3
1, 0
4, 5
1, 1
7, 2
8, 19
8, 11
6, 6
8, 8
32, 3
38, 5
11, 3
11, 9
8, 10
8, 34
8, 90
2, 83
7, 15
5, 8
5, 9
5, 10
11, 7
42, 8
61, 5
16, 10
33, 35
48, 57
12, 22
34, 65
455, 664
2057, 2407
1433, 1598
197, 206
21, 19
47, 20
109, 106
352, 356
220, 219
25, 23
5, 9
13, 8
4, 8
7, 4
6, 6
1, 6
2, 4
20, 6
68, 13
31, 4
18, 5
5, 5
3, 2
1, 3
1, 4
4, 1
2, 5
2, 3
5, 7
4, 3
1, 6
3, 4
3, 5
3, 5
1, 5
5, 5
3, 5
2, 8
1, 1
1, 2
2, 1
5, 3
3, 3
1, 4
6, 2
4, 5
3, 1
1, 2
0, 2
1, 0
0, 1
3, 1
2, 1
2, 0
1, 2
1, 2
2, 2
5, 3
6, 2
4, 7
2, 8
4, 4
4, 0
0, 1
1, 2
1, 4
1, 6
1, 2
1, 0
0, 0
2, 0
1, 0
1, 1
2, 2
1, 1
2, 0
1, 2
1, 2
1, 1
0, 1
0, 1
0, 0
0, 1
1, 0
0, 0
0, 0
0, 0
1, 0
0, 0
2, 0
1, 0
0, 0
1, 1
2, 0
0, 1
0, 0
0, 0
1, 1
1, 1
1, 1
0, 0
0, 0
0, 0
0, 0
0, 0
0, 2
1, 0
0, 0
0, 0
0, 0
0, 1
0, 0
1, 0
1, 0
0, 0
1, 0
0, 0
0, 0
1, 0
0, 0
1, 0
0, 0
0, 0
0, 0
0, 0
0, 0
0, 0
0, 0
0, 0
1, 0
0, 1
0, 0
0, 0
0, 0
0, 0
0, 1
0, 0
0, 0
0, 0
0, 0
0, 0
0, 0
0, 0
0, 0
0, 0
0, 0
0, 0
1, 1
0, 0
0, 0
0, 0
0, 0
0, 0
1, 0
0, 0
0, 0
0, 0
0, 0
0, 0
0, 0
0, 0
0, 0
0, 0
0, 0
0, 0
0, 0
0, 0
0, 0
0, 0
0, 0
0, 0
0, 0
0, 0
0, 0
0, 0
0, 0
0, 0
0, 0
0, 0
0, 0
0, 0
0, 0
0, 0
0, 0
0, 0
0, 0
0, 0
0, 0
0, 0
0, 0
0, 0
0, 0
0, 0
0, 0
0, 0
0, 0
0, 0
0, 0
0, 0
0, 0
0, 0
0, 0
0, 0
0, 0
0, 0
0, 0
0, 0
0, 0
0, 0
0, 0
0, 0
0, 0
0, 0
0, 0
0, 0
0, 0
0, 0
0, 0
0, 0
0, 0
0, 0
0, 0
0, 0
0, 0
0, 0
0, 0
0, 0
0, 0
0, 0
0, 0
0, 0
0, 0
0, 0
0, 0
0, 0
0, 0
0, 0
#ENDOFDATA     end of spectrum data