File: host_upload/06-09-2024/ps_0852/dump3/ps__0852shot_2185.msa
#FORMAT      : EMSA/MAS spectral data file
#VERSION     : TC202v2.0 PIXL
#TITLE       : N/A
#DATE        :       Date in the format DD-MMM-YYYY, for example 07-JUL-2010
#TIME        :             The time of day at which the spectrum was recorded, in 24-hour format
#OWNER       : PIXL Flight Model       (PIXL will use this to indicate which instrument took the data.)
#NPOINTS     : 4096     Number of data points in the spectrum (This can be zero for configuration only files)
#NCOLUMNS    : 2     Number of data columns in the spectrum (This can be zero for configuration only files)
#XUNITS      : eV
#YUNITS      : COUNTS
#DATATYPE    : YY
#XPERCHAN    : 7.862, 7.881   eV per channel (separate by commas if more than one detector)
#OFFSET      : 18.5, -22.4         eV of first channel  (separate by commas if more than one detector
#SIGNALTYPE  : XRF
#YP_TEMP     : 2.139
#LIVETIME    : 8.56675, 8.53949   seconds (separate by commas if more than one detector)
#REALTIME    : 10, 10.0   seconds (separate by commas if more than one detector)
#SPECTRUM    : start of spectrum data
0, 0
0, 0
0, 0
0, 0
0, 0
0, 0
0, 0
1, 0
0, 3
0, 7
1, 5
40, 54
63, 69
5, 6
4, 4
91, 95
400, 469
93, 99
7, 5
1, 1
1, 1
3, 3
1, 3
3, 27
76, 425
81, 572
37, 87
14, 16
7, 2
0, 4
3, 1
3, 0
0, 3
9, 11
17, 14
3, 5
8, 25
20, 21
27, 5
11, 2
2, 8
6, 9
9, 19
11, 59
6, 69
3, 20
6, 5
5, 5
7, 6
13, 14
25, 11
31, 8
17, 6
29, 49
57, 52
16, 19
23, 42
449, 584
2162, 2305
1459, 1514
197, 167
45, 37
46, 35
109, 104
326, 383
224, 188
33, 23
4, 16
10, 16
13, 9
5, 4
2, 3
2, 12
11, 5
18, 6
30, 8
45, 4
15, 4
5, 1
4, 7
1, 6
0, 1
5, 4
5, 8
7, 1
4, 1
5, 4
3, 6
3, 6
3, 4
3, 3
2, 2
5, 3
1, 5
2, 2
4, 3
3, 4
2, 3
4, 1
4, 6
4, 4
2, 5
2, 4
1, 2
2, 3
1, 1
3, 0
2, 1
2, 1
3, 5
1, 3
1, 1
4, 2
4, 3
3, 6
2, 5
1, 6
6, 1
1, 3
5, 1
0, 1
1, 6
0, 4
2, 4
0, 1
2, 3
0, 0
1, 3
1, 2
0, 1
1, 1
1, 1
2, 2
0, 1
2, 1
2, 0
1, 1
1, 0
2, 0
0, 0
2, 0
0, 1
0, 0
1, 1
0, 0
1, 0
0, 1
0, 0
2, 0
1, 0
0, 0
2, 1
1, 0
0, 0
1, 0
0, 0
0, 0
0, 0
0, 0
0, 1
0, 0
0, 0
0, 0
0, 0
0, 0
0, 0
0, 1
0, 1
0, 1
1, 0
0, 0
0, 0
1, 0
0, 0
0, 1
0, 0
0, 0
0, 0
0, 0
0, 0
0, 0
0, 1
0, 0
0, 0
0, 0
0, 0
0, 0
0, 0
0, 1
0, 1
0, 0
0, 0
0, 0
0, 0
0, 0
0, 0
0, 0
0, 0
0, 0
0, 0
0, 1
0, 0
0, 0
0, 0
0, 0
0, 0
0, 0
0, 0
0, 0
0, 0
0, 0
0, 0
0, 0
0, 0
0, 0
0, 0
0, 0
0, 0
0, 0
0, 0
0, 0
0, 0
0, 0
0, 0
0, 0
0, 0
0, 0
0, 0
0, 0
0, 0
0, 0
0, 0
0, 0
0, 0
0, 0
0, 0
0, 0
0, 0
0, 0
0, 0
0, 0
0, 0
0, 0
0, 0
0, 0
0, 0
0, 0
0, 0
0, 0
0, 0
0, 0
0, 0
0, 0
0, 0
0, 0
0, 0
0, 0
0, 0
0, 0
0, 0
0, 0
0, 0
0, 0
0, 0
0, 0
0, 0
0, 0
0, 0
0, 0
0, 0
0, 0
0, 0
0, 0
0, 0
0, 0
0, 0
0, 0
0, 0
0, 0
0, 0
0, 0
0, 0
0, 0
0, 0
0, 0
0, 0
0, 0
0, 0
0, 0
0, 0
0, 0
0, 0
0, 0
0, 0
#ENDOFDATA     end of spectrum data