File: host_upload/06-09-2024/ps_0852/dump3/ps__0852shot_2412.msa
#FORMAT      : EMSA/MAS spectral data file
#VERSION     : TC202v2.0 PIXL
#TITLE       : N/A
#DATE        :       Date in the format DD-MMM-YYYY, for example 07-JUL-2010
#TIME        :             The time of day at which the spectrum was recorded, in 24-hour format
#OWNER       : PIXL Flight Model       (PIXL will use this to indicate which instrument took the data.)
#NPOINTS     : 4096     Number of data points in the spectrum (This can be zero for configuration only files)
#NCOLUMNS    : 2     Number of data columns in the spectrum (This can be zero for configuration only files)
#XUNITS      : eV
#YUNITS      : COUNTS
#DATATYPE    : YY
#XPERCHAN    : 7.862, 7.881   eV per channel (separate by commas if more than one detector)
#OFFSET      : 18.5, -22.4         eV of first channel  (separate by commas if more than one detector
#SIGNALTYPE  : XRF
#YP_TEMP     : 2.46
#LIVETIME    : 8.55755, 8.54122   seconds (separate by commas if more than one detector)
#REALTIME    : 10, 10.0   seconds (separate by commas if more than one detector)
#SPECTRUM    : start of spectrum data
0, 0
0, 0
0, 0
0, 0
0, 0
0, 0
0, 0
0, 0
3, 1
0, 2
2, 2
46, 38
66, 42
7, 4
2, 2
110, 76
469, 373
110, 86
1, 6
1, 1
1, 5
17, 9
9, 3
14, 10
61, 57
63, 55
34, 30
19, 10
8, 2
6, 5
3, 5
2, 3
1, 5
9, 16
18, 34
7, 12
5, 1
7, 7
8, 2
3, 7
5, 3
15, 11
17, 10
15, 14
10, 7
6, 18
11, 16
8, 32
17, 16
37, 32
39, 18
19, 11
20, 8
42, 43
64, 65
35, 16
34, 44
519, 521
2486, 2058
1764, 1231
199, 141
25, 13
22, 22
107, 101
339, 338
234, 183
39, 35
18, 11
24, 15
12, 11
8, 7
7, 2
11, 2
10, 4
4, 5
3, 5
3, 0
8, 2
5, 3
3, 1
2, 3
3, 7
6, 5
4, 4
12, 5
4, 1
4, 3
1, 3
4, 4
3, 4
6, 3
3, 4
3, 3
3, 6
5, 2
2, 2
1, 4
3, 1
6, 5
9, 1
4, 3
2, 4
6, 2
2, 3
3, 1
2, 1
5, 2
2, 4
0, 6
3, 1
4, 2
2, 0
1, 1
1, 3
2, 4
4, 3
4, 2
3, 1
0, 3
1, 1
0, 1
1, 0
6, 1
1, 0
2, 3
1, 2
0, 2
2, 1
0, 0
2, 2
1, 0
1, 1
1, 1
0, 0
0, 1
1, 2
2, 0
3, 2
0, 1
2, 1
1, 0
0, 0
0, 0
1, 0
1, 1
0, 1
1, 0
1, 1
0, 1
0, 0
0, 0
0, 0
0, 1
0, 0
0, 1
0, 1
0, 0
1, 0
0, 0
0, 0
0, 0
0, 0
0, 0
0, 1
1, 0
1, 0
0, 0
0, 1
0, 0
0, 0
1, 1
0, 0
0, 0
0, 2
1, 0
0, 0
0, 0
0, 0
0, 0
0, 0
0, 0
0, 0
0, 0
1, 0
2, 0
0, 0
0, 0
0, 0
1, 0
0, 0
0, 1
0, 0
0, 0
0, 0
1, 0
0, 0
0, 0
0, 0
0, 0
0, 0
0, 1
0, 0
0, 0
0, 0
0, 0
0, 0
0, 0
0, 0
0, 0
0, 0
0, 0
0, 0
0, 0
0, 0
0, 0
0, 0
0, 0
0, 0
0, 0
0, 0
0, 0
0, 0
0, 0
0, 0
0, 0
0, 0
0, 0
0, 0
0, 0
0, 0
0, 0
0, 0
0, 0
0, 0
0, 0
0, 0
0, 0
0, 0
0, 0
0, 0
0, 0
0, 0
0, 0
0, 0
0, 0
0, 0
0, 0
0, 0
0, 0
0, 0
0, 0
0, 0
0, 0
0, 0
0, 0
0, 0
0, 0
0, 0
0, 0
0, 0
0, 0
0, 0
0, 0
0, 0
0, 0
0, 0
0, 0
0, 0
0, 0
0, 0
0, 0
0, 0
0, 0
0, 0
0, 0
0, 0
0, 0
0, 0
0, 0
0, 0
0, 0
0, 0
0, 0
0, 0
0, 0
0, 0
0, 0
0, 0
0, 0
0, 0
0, 0
0, 0
0, 0
0, 0
#ENDOFDATA     end of spectrum data