File: host_upload/06-09-2024/ps_0852/dump3/ps__0852shot_2332.msa
#FORMAT      : EMSA/MAS spectral data file
#VERSION     : TC202v2.0 PIXL
#TITLE       : N/A
#DATE        :       Date in the format DD-MMM-YYYY, for example 07-JUL-2010
#TIME        :             The time of day at which the spectrum was recorded, in 24-hour format
#OWNER       : PIXL Flight Model       (PIXL will use this to indicate which instrument took the data.)
#NPOINTS     : 4096     Number of data points in the spectrum (This can be zero for configuration only files)
#NCOLUMNS    : 2     Number of data columns in the spectrum (This can be zero for configuration only files)
#XUNITS      : eV
#YUNITS      : COUNTS
#DATATYPE    : YY
#XPERCHAN    : 7.862, 7.881   eV per channel (separate by commas if more than one detector)
#OFFSET      : 18.5, -22.4         eV of first channel  (separate by commas if more than one detector
#SIGNALTYPE  : XRF
#YP_TEMP     : 2.428
#LIVETIME    : 8.55344, 8.52717   seconds (separate by commas if more than one detector)
#REALTIME    : 10, 10.0   seconds (separate by commas if more than one detector)
#SPECTRUM    : start of spectrum data
0, 0
0, 0
0, 0
0, 0
0, 0
0, 0
0, 0
0, 0
0, 0
2, 0
1, 1
37, 40
79, 48
8, 5
10, 5
101, 85
437, 386
121, 80
5, 3
1, 3
17, 18
107, 93
39, 35
6, 15
29, 27
30, 38
14, 21
16, 5
4, 2
5, 4
4, 3
3, 1
2, 1
18, 16
36, 21
8, 11
7, 9
6, 8
5, 13
6, 10
2, 2
9, 11
7, 17
18, 25
10, 12
7, 9
6, 7
11, 4
14, 8
38, 18
35, 13
6, 5
13, 23
40, 52
60, 44
21, 21
64, 24
550, 520
2286, 2164
1686, 1189
226, 121
36, 17
32, 23
119, 123
332, 349
262, 189
26, 18
10, 6
10, 16
10, 10
6, 7
5, 6
4, 6
1, 6
6, 10
8, 6
8, 6
7, 3
11, 3
5, 4
6, 2
4, 3
4, 3
2, 7
3, 10
4, 10
3, 7
2, 4
8, 2
12, 4
15, 2
5, 3
3, 4
4, 2
5, 0
5, 0
0, 3
2, 3
3, 2
2, 3
3, 1
7, 1
3, 2
0, 2
1, 2
2, 3
1, 3
3, 1
1, 1
1, 2
4, 2
3, 1
2, 1
2, 2
2, 3
0, 3
4, 7
3, 4
0, 0
1, 1
1, 1
0, 1
1, 2
0, 2
0, 1
1, 1
0, 1
1, 2
0, 0
3, 1
1, 0
2, 0
0, 0
0, 0
1, 1
2, 0
0, 1
0, 0
0, 0
1, 0
0, 0
0, 2
1, 0
0, 0
0, 1
0, 0
1, 1
0, 1
1, 2
0, 0
0, 0
1, 0
0, 2
0, 0
0, 1
0, 0
0, 0
0, 0
0, 0
0, 0
0, 0
0, 0
1, 0
0, 1
3, 1
0, 1
0, 0
0, 0
1, 0
0, 0
0, 0
0, 0
2, 0
0, 0
0, 1
0, 0
0, 0
0, 0
0, 0
0, 0
0, 0
0, 0
1, 0
0, 0
0, 0
0, 0
0, 0
0, 0
0, 0
0, 0
1, 0
0, 0
0, 0
0, 1
0, 0
0, 0
0, 0
0, 0
0, 0
0, 0
0, 0
0, 0
0, 0
0, 0
0, 0
0, 0
0, 0
0, 0
0, 0
0, 0
0, 0
0, 0
0, 0
0, 0
0, 0
0, 0
0, 0
0, 0
0, 0
0, 0
0, 0
0, 0
0, 0
0, 0
0, 0
0, 0
0, 0
0, 0
0, 0
0, 0
0, 0
0, 0
0, 0
0, 0
0, 0
0, 0
0, 0
0, 0
0, 0
0, 0
0, 0
0, 0
0, 0
0, 0
0, 0
0, 0
0, 0
0, 0
0, 0
0, 0
0, 0
0, 0
0, 0
0, 0
0, 0
0, 0
0, 0
0, 0
0, 0
0, 0
0, 0
0, 0
0, 0
0, 0
0, 0
0, 0
0, 0
0, 0
0, 0
0, 0
0, 0
0, 0
0, 0
0, 0
0, 0
0, 0
0, 0
0, 0
0, 0
0, 0
0, 0
0, 0
0, 0
0, 0
0, 0
0, 0
0, 0
0, 0
0, 0
0, 0
0, 0
0, 0
0, 0
0, 0
#ENDOFDATA     end of spectrum data