File: host_upload/06-09-2024/ps_0852/dump3/ps__0852shot_2537.msa
#FORMAT      : EMSA/MAS spectral data file
#VERSION     : TC202v2.0 PIXL
#TITLE       : N/A
#DATE        :       Date in the format DD-MMM-YYYY, for example 07-JUL-2010
#TIME        :             The time of day at which the spectrum was recorded, in 24-hour format
#OWNER       : PIXL Flight Model       (PIXL will use this to indicate which instrument took the data.)
#NPOINTS     : 4096     Number of data points in the spectrum (This can be zero for configuration only files)
#NCOLUMNS    : 2     Number of data columns in the spectrum (This can be zero for configuration only files)
#XUNITS      : eV
#YUNITS      : COUNTS
#DATATYPE    : YY
#XPERCHAN    : 7.862, 7.881   eV per channel (separate by commas if more than one detector)
#OFFSET      : 18.5, -22.4         eV of first channel  (separate by commas if more than one detector
#SIGNALTYPE  : XRF
#YP_TEMP     : 2.203
#LIVETIME    : 8.55433, 8.56534   seconds (separate by commas if more than one detector)
#REALTIME    : 10, 10.0   seconds (separate by commas if more than one detector)
#SPECTRUM    : start of spectrum data
0, 0
0, 0
0, 0
0, 0
0, 0
0, 0
0, 0
0, 0
0, 1
0, 3
5, 0
39, 38
65, 68
6, 3
9, 6
107, 91
401, 427
118, 102
4, 3
1, 3
4, 2
6, 11
4, 5
2, 11
39, 113
51, 148
29, 31
19, 13
6, 8
3, 5
5, 3
6, 3
4, 2
13, 15
14, 18
7, 12
4, 12
11, 6
24, 8
35, 7
9, 9
18, 12
25, 15
31, 21
77, 9
44, 6
8, 7
7, 12
10, 9
26, 28
19, 20
16, 16
15, 13
39, 49
70, 51
18, 40
40, 39
519, 609
2166, 2402
1603, 1424
194, 143
29, 11
17, 34
125, 137
323, 342
198, 209
28, 24
6, 9
19, 21
15, 5
3, 4
5, 2
7, 5
18, 5
16, 6
8, 6
6, 8
7, 7
7, 9
7, 3
5, 2
3, 4
3, 3
6, 10
2, 6
3, 7
4, 4
3, 8
5, 6
1, 3
2, 3
6, 5
4, 3
4, 3
6, 3
10, 3
4, 5
2, 2
2, 2
4, 4
2, 2
2, 1
4, 1
2, 5
1, 3
3, 0
3, 2
6, 2
1, 3
3, 0
4, 1
1, 1
1, 1
2, 0
1, 4
3, 9
7, 1
2, 9
2, 3
1, 1
0, 0
1, 2
4, 0
1, 0
0, 1
0, 2
2, 2
0, 2
1, 0
2, 0
1, 1
0, 1
0, 0
1, 0
0, 0
0, 0
0, 1
1, 0
0, 0
1, 1
2, 2
0, 0
1, 1
0, 2
1, 0
0, 2
0, 0
0, 1
0, 1
1, 0
0, 1
0, 0
0, 0
0, 0
0, 0
0, 0
1, 0
0, 0
0, 0
0, 0
0, 0
0, 0
0, 0
0, 1
0, 1
1, 1
0, 0
0, 0
0, 0
0, 0
0, 0
0, 0
1, 0
0, 1
0, 0
0, 0
0, 0
0, 0
0, 0
0, 0
0, 0
0, 0
0, 1
0, 0
0, 0
0, 0
0, 0
0, 0
0, 0
0, 0
1, 0
0, 0
0, 0
0, 0
0, 0
0, 0
0, 0
0, 0
1, 0
0, 0
0, 0
0, 0
0, 0
0, 0
0, 0
0, 0
0, 0
0, 0
0, 0
0, 0
0, 0
0, 0
0, 0
0, 0
0, 0
0, 0
0, 0
0, 0
0, 0
0, 0
0, 0
0, 0
0, 0
0, 0
0, 0
0, 0
0, 0
0, 0
0, 0
0, 0
0, 0
0, 0
0, 0
0, 0
0, 0
0, 0
0, 0
0, 0
0, 0
0, 0
0, 0
0, 0
0, 0
0, 0
0, 0
0, 0
0, 0
0, 0
0, 0
0, 0
0, 0
0, 0
0, 0
0, 0
0, 0
0, 0
0, 0
0, 0
0, 0
0, 0
0, 0
0, 0
0, 0
0, 0
0, 0
0, 0
0, 0
0, 0
0, 0
0, 0
0, 0
0, 0
0, 0
0, 0
0, 0
0, 0
0, 0
0, 0
0, 0
0, 0
0, 0
0, 0
0, 0
0, 0
0, 0
0, 0
0, 0
0, 0
0, 0
0, 0
0, 0
0, 0
0, 0
0, 0
#ENDOFDATA     end of spectrum data