File: host_upload/06-09-2024/ps_0852/dump3/ps__0852shot_2549.msa
#FORMAT      : EMSA/MAS spectral data file
#VERSION     : TC202v2.0 PIXL
#TITLE       : N/A
#DATE        :       Date in the format DD-MMM-YYYY, for example 07-JUL-2010
#TIME        :             The time of day at which the spectrum was recorded, in 24-hour format
#OWNER       : PIXL Flight Model       (PIXL will use this to indicate which instrument took the data.)
#NPOINTS     : 4096     Number of data points in the spectrum (This can be zero for configuration only files)
#NCOLUMNS    : 2     Number of data columns in the spectrum (This can be zero for configuration only files)
#XUNITS      : eV
#YUNITS      : COUNTS
#DATATYPE    : YY
#XPERCHAN    : 7.862, 7.881   eV per channel (separate by commas if more than one detector)
#OFFSET      : 18.5, -22.4         eV of first channel  (separate by commas if more than one detector
#SIGNALTYPE  : XRF
#YP_TEMP     : 2.235
#LIVETIME    : 8.56307, 8.5429   seconds (separate by commas if more than one detector)
#REALTIME    : 10, 10.0   seconds (separate by commas if more than one detector)
#SPECTRUM    : start of spectrum data
0, 0
0, 0
0, 0
0, 0
0, 0
0, 0
0, 0
0, 0
0, 0
0, 3
2, 1
61, 44
80, 51
5, 8
2, 4
98, 107
463, 422
92, 90
3, 1
1, 1
2, 2
2, 5
3, 4
8, 2
9, 15
18, 30
11, 15
10, 8
4, 6
2, 1
2, 0
0, 1
4, 1
18, 19
25, 22
5, 6
1, 3
4, 7
5, 10
6, 7
2, 3
12, 15
15, 64
68, 48
71, 4
14, 6
7, 3
2, 7
11, 6
8, 13
14, 13
8, 5
9, 9
34, 58
66, 45
15, 16
33, 32
451, 526
2290, 2301
1620, 1314
254, 130
135, 12
117, 18
141, 123
345, 348
242, 203
34, 29
6, 10
10, 16
15, 10
9, 11
6, 5
4, 1
7, 4
10, 6
5, 6
10, 4
8, 4
4, 2
7, 11
4, 3
5, 7
3, 6
3, 7
4, 12
1, 22
2, 5
2, 3
8, 2
20, 3
19, 3
5, 4
2, 2
4, 5
1, 6
3, 5
2, 4
2, 4
5, 3
3, 2
3, 3
2, 4
5, 0
6, 2
3, 4
3, 8
3, 2
1, 1
5, 5
5, 3
2, 3
3, 3
1, 1
1, 1
4, 2
2, 1
5, 2
5, 4
1, 0
1, 0
2, 1
1, 0
1, 6
1, 3
1, 1
1, 0
0, 0
1, 4
2, 3
1, 3
2, 1
0, 0
0, 0
0, 1
0, 2
0, 0
2, 1
0, 1
2, 1
0, 1
0, 0
1, 1
0, 1
0, 1
0, 0
0, 0
0, 1
0, 0
0, 0
2, 0
0, 1
0, 1
0, 0
0, 0
0, 0
0, 0
1, 0
0, 0
0, 0
0, 1
0, 0
1, 0
0, 0
0, 1
0, 0
0, 0
0, 0
1, 0
1, 0
0, 1
1, 0
0, 0
1, 0
0, 1
0, 0
1, 0
0, 1
0, 1
0, 0
0, 0
0, 0
1, 0
1, 1
0, 0
0, 0
0, 0
0, 0
0, 1
0, 0
1, 0
0, 0
0, 0
0, 0
0, 0
1, 0
0, 0
0, 0
0, 0
0, 0
0, 0
0, 0
0, 0
0, 0
0, 0
0, 0
0, 0
0, 0
0, 0
0, 0
0, 0
0, 0
0, 0
0, 0
0, 0
0, 0
0, 0
0, 0
0, 0
0, 0
0, 0
0, 0
0, 0
0, 0
0, 0
0, 0
0, 0
0, 0
0, 0
0, 0
0, 0
0, 0
0, 0
0, 0
0, 0
0, 0
0, 0
0, 0
0, 0
0, 0
0, 0
0, 0
0, 0
0, 0
0, 0
0, 0
0, 0
0, 0
0, 0
0, 0
0, 0
0, 0
0, 0
0, 0
0, 0
0, 0
0, 0
0, 0
0, 0
0, 0
0, 0
0, 0
0, 0
0, 0
0, 0
0, 0
0, 0
0, 0
0, 0
0, 0
0, 0
0, 0
0, 0
0, 0
0, 0
0, 0
0, 0
0, 0
0, 0
0, 0
0, 0
0, 0
0, 0
0, 0
0, 0
0, 0
0, 0
0, 0
0, 0
0, 0
0, 0
0, 0
0, 0
0, 0
0, 0
#ENDOFDATA     end of spectrum data