File: host_upload/06-09-2024/ps_0852/dump3/ps__0852shot_2124.msa
#FORMAT      : EMSA/MAS spectral data file
#VERSION     : TC202v2.0 PIXL
#TITLE       : N/A
#DATE        :       Date in the format DD-MMM-YYYY, for example 07-JUL-2010
#TIME        :             The time of day at which the spectrum was recorded, in 24-hour format
#OWNER       : PIXL Flight Model       (PIXL will use this to indicate which instrument took the data.)
#NPOINTS     : 4096     Number of data points in the spectrum (This can be zero for configuration only files)
#NCOLUMNS    : 2     Number of data columns in the spectrum (This can be zero for configuration only files)
#XUNITS      : eV
#YUNITS      : COUNTS
#DATATYPE    : YY
#XPERCHAN    : 7.862, 7.881   eV per channel (separate by commas if more than one detector)
#OFFSET      : 18.5, -22.4         eV of first channel  (separate by commas if more than one detector
#SIGNALTYPE  : XRF
#YP_TEMP     : 2.46
#LIVETIME    : 8.53181, 8.56868   seconds (separate by commas if more than one detector)
#REALTIME    : 10, 10.0   seconds (separate by commas if more than one detector)
#SPECTRUM    : start of spectrum data
0, 0
0, 0
0, 0
0, 0
0, 0
0, 0
0, 0
0, 0
1, 1
0, 1
4, 2
49, 45
70, 58
1, 4
2, 5
104, 93
377, 394
101, 100
2, 5
1, 2
4, 2
16, 4
6, 2
11, 4
19, 29
59, 43
26, 20
21, 10
5, 0
1, 0
3, 2
2, 3
8, 5
20, 12
24, 32
7, 5
4, 6
4, 8
8, 6
2, 2
7, 9
13, 13
19, 10
10, 18
8, 7
8, 9
10, 5
6, 8
4, 8
11, 17
21, 9
24, 22
15, 28
47, 55
64, 68
25, 23
36, 30
490, 602
2157, 2360
1594, 1439
212, 167
17, 12
29, 21
95, 109
299, 321
225, 213
31, 17
10, 11
8, 14
14, 12
6, 4
5, 4
5, 2
2, 4
3, 12
11, 9
6, 2
7, 5
5, 6
6, 5
9, 4
5, 3
4, 6
5, 21
1, 16
6, 10
6, 3
4, 0
2, 15
6, 5
1, 6
3, 2
1, 2
2, 4
4, 9
2, 6
5, 3
4, 2
4, 2
1, 3
0, 4
0, 5
3, 1
5, 2
0, 4
1, 5
3, 4
4, 1
1, 2
4, 1
2, 3
4, 3
3, 0
0, 2
2, 1
4, 1
2, 3
6, 4
2, 4
2, 3
0, 2
1, 2
2, 2
0, 1
1, 1
2, 3
0, 0
1, 1
0, 0
2, 2
0, 0
4, 1
1, 1
0, 1
0, 0
1, 0
1, 0
2, 0
0, 1
0, 1
1, 0
2, 0
0, 0
1, 0
1, 0
0, 2
0, 0
0, 0
0, 2
0, 1
0, 1
2, 0
0, 0
2, 0
1, 1
0, 0
1, 3
0, 1
1, 3
2, 1
0, 0
0, 0
0, 0
1, 0
0, 0
0, 0
0, 0
0, 1
0, 0
0, 1
0, 1
1, 0
0, 0
1, 1
0, 0
0, 0
0, 0
0, 0
0, 0
0, 1
0, 0
0, 0
0, 0
1, 0
1, 0
0, 0
0, 0
0, 0
0, 0
0, 0
0, 0
0, 0
0, 1
0, 0
0, 0
0, 0
0, 0
0, 0
0, 0
0, 0
0, 0
1, 0
0, 0
0, 0
0, 0
1, 0
0, 0
0, 0
0, 0
0, 0
0, 0
0, 0
0, 1
0, 0
0, 0
0, 0
0, 0
0, 0
0, 0
0, 0
0, 0
0, 0
0, 0
0, 0
0, 0
0, 0
0, 0
0, 0
0, 0
0, 0
0, 0
0, 0
0, 0
0, 0
0, 0
0, 0
0, 0
0, 0
0, 0
0, 0
0, 0
0, 0
0, 0
0, 0
0, 0
0, 0
0, 0
0, 0
0, 0
0, 0
0, 0
0, 0
0, 0
0, 0
0, 0
0, 0
0, 0
0, 0
0, 0
0, 0
0, 0
0, 0
0, 0
0, 0
0, 0
0, 0
0, 0
0, 0
0, 0
0, 0
0, 0
0, 0
0, 0
0, 0
0, 0
0, 0
0, 0
0, 0
0, 0
0, 0
0, 0
0, 0
0, 0
0, 0
0, 0
0, 0
0, 0
0, 0
0, 0
0, 0
0, 0
0, 0
0, 0
0, 0
#ENDOFDATA     end of spectrum data