File: host_upload/06-09-2024/ps_0852/dump3/ps__0852shot_2472.msa
#FORMAT      : EMSA/MAS spectral data file
#VERSION     : TC202v2.0 PIXL
#TITLE       : N/A
#DATE        :       Date in the format DD-MMM-YYYY, for example 07-JUL-2010
#TIME        :             The time of day at which the spectrum was recorded, in 24-hour format
#OWNER       : PIXL Flight Model       (PIXL will use this to indicate which instrument took the data.)
#NPOINTS     : 4096     Number of data points in the spectrum (This can be zero for configuration only files)
#NCOLUMNS    : 2     Number of data columns in the spectrum (This can be zero for configuration only files)
#XUNITS      : eV
#YUNITS      : COUNTS
#DATATYPE    : YY
#XPERCHAN    : 7.862, 7.881   eV per channel (separate by commas if more than one detector)
#OFFSET      : 18.5, -22.4         eV of first channel  (separate by commas if more than one detector
#SIGNALTYPE  : XRF
#YP_TEMP     : 2.203
#LIVETIME    : 8.55424, 8.54367   seconds (separate by commas if more than one detector)
#REALTIME    : 10, 10.0   seconds (separate by commas if more than one detector)
#SPECTRUM    : start of spectrum data
0, 0
0, 0
0, 0
0, 0
0, 0
0, 0
0, 0
1, 2
1, 0
1, 0
1, 3
50, 38
56, 54
5, 4
2, 4
97, 96
392, 376
90, 90
10, 3
1, 1
9, 13
68, 79
26, 21
13, 7
32, 41
34, 35
17, 23
10, 13
6, 3
0, 3
1, 3
2, 1
1, 1
11, 11
7, 14
6, 9
3, 7
7, 10
4, 28
8, 18
6, 6
6, 12
12, 17
15, 42
13, 29
9, 9
7, 5
9, 3
8, 15
22, 22
26, 14
12, 12
13, 42
35, 55
61, 73
71, 24
179, 28
559, 530
2192, 2264
1652, 1374
177, 137
17, 17
28, 18
111, 137
362, 362
228, 193
32, 19
9, 8
11, 19
5, 7
10, 5
7, 5
4, 1
6, 6
8, 4
12, 7
27, 5
39, 14
17, 2
5, 4
0, 4
2, 5
4, 2
7, 4
5, 5
5, 1
5, 4
5, 5
1, 5
4, 4
3, 3
2, 1
6, 0
3, 1
3, 2
8, 3
4, 3
4, 3
0, 4
3, 0
0, 3
2, 0
0, 1
2, 0
3, 3
0, 2
2, 2
1, 4
2, 1
2, 2
0, 0
2, 1
3, 3
1, 3
3, 2
1, 4
1, 5
7, 7
5, 1
4, 3
0, 0
2, 1
5, 0
5, 0
1, 1
1, 0
2, 2
0, 1
1, 1
3, 0
1, 1
1, 1
3, 0
2, 0
1, 1
1, 1
1, 0
1, 0
1, 0
0, 0
1, 1
0, 0
2, 1
0, 0
0, 0
0, 0
0, 0
0, 0
0, 0
1, 1
0, 1
0, 0
1, 0
1, 1
0, 0
0, 0
0, 0
0, 0
0, 0
0, 0
0, 1
1, 0
0, 0
0, 0
0, 0
0, 0
0, 0
0, 0
0, 0
1, 0
0, 1
0, 1
0, 0
1, 0
0, 0
0, 0
0, 0
0, 1
0, 0
0, 0
0, 0
0, 0
0, 0
0, 0
0, 0
0, 0
0, 0
0, 0
0, 0
0, 0
0, 0
0, 0
0, 0
0, 0
0, 0
0, 0
0, 0
0, 0
0, 0
0, 0
0, 0
0, 0
0, 0
0, 0
0, 0
0, 0
0, 0
0, 0
0, 0
0, 0
0, 0
0, 0
0, 0
0, 0
0, 0
0, 0
0, 0
0, 0
0, 0
0, 0
0, 0
0, 0
0, 0
0, 0
0, 0
0, 0
0, 0
0, 0
0, 0
0, 0
0, 0
0, 0
0, 0
0, 0
0, 0
0, 0
0, 0
0, 0
0, 0
0, 0
0, 0
0, 0
0, 0
0, 0
0, 0
0, 0
0, 0
0, 0
0, 0
0, 0
0, 0
0, 0
0, 0
0, 0
0, 0
0, 0
0, 0
0, 0
0, 0
0, 0
0, 0
0, 0
0, 0
0, 0
0, 0
0, 0
0, 0
0, 0
0, 0
0, 0
0, 0
0, 0
0, 0
0, 0
0, 0
0, 0
0, 0
0, 0
0, 0
0, 0
0, 0
0, 0
0, 0
0, 0
0, 0
0, 0
0, 0
0, 0
0, 0
0, 0
0, 0
0, 0
0, 0
0, 0
#ENDOFDATA     end of spectrum data