File: host_upload/06-09-2024/ps_0852/dump3/ps__0852shot_2254.msa
#FORMAT      : EMSA/MAS spectral data file
#VERSION     : TC202v2.0 PIXL
#TITLE       : N/A
#DATE        :       Date in the format DD-MMM-YYYY, for example 07-JUL-2010
#TIME        :             The time of day at which the spectrum was recorded, in 24-hour format
#OWNER       : PIXL Flight Model       (PIXL will use this to indicate which instrument took the data.)
#NPOINTS     : 4096     Number of data points in the spectrum (This can be zero for configuration only files)
#NCOLUMNS    : 2     Number of data columns in the spectrum (This can be zero for configuration only files)
#XUNITS      : eV
#YUNITS      : COUNTS
#DATATYPE    : YY
#XPERCHAN    : 7.862, 7.881   eV per channel (separate by commas if more than one detector)
#OFFSET      : 18.5, -22.4         eV of first channel  (separate by commas if more than one detector
#SIGNALTYPE  : XRF
#YP_TEMP     : 2.364
#LIVETIME    : 8.58024, 8.57009   seconds (separate by commas if more than one detector)
#REALTIME    : 10, 10.0   seconds (separate by commas if more than one detector)
#SPECTRUM    : start of spectrum data
0, 0
0, 0
0, 0
0, 0
0, 0
0, 0
0, 0
1, 0
1, 0
0, 2
1, 1
47, 48
75, 56
8, 6
1, 6
115, 90
438, 398
114, 94
12, 3
2, 1
2, 4
6, 6
3, 0
7, 13
26, 23
33, 35
17, 26
16, 12
5, 6
5, 4
2, 2
6, 0
5, 4
26, 17
43, 35
10, 5
10, 7
7, 17
8, 20
5, 9
10, 7
14, 7
19, 25
54, 30
64, 13
19, 4
8, 12
2, 5
8, 8
15, 11
17, 14
7, 12
12, 12
42, 40
52, 49
15, 13
37, 43
532, 557
2264, 2300
1664, 1338
221, 142
62, 11
70, 25
118, 103
323, 357
248, 203
39, 24
8, 9
12, 13
15, 8
9, 0
4, 4
6, 4
8, 4
8, 4
6, 3
3, 7
3, 4
3, 5
4, 6
5, 4
3, 5
2, 3
2, 5
4, 10
5, 25
9, 17
7, 3
6, 2
17, 1
20, 6
4, 2
3, 3
2, 4
4, 3
5, 3
3, 3
1, 4
2, 4
4, 4
4, 4
1, 3
6, 2
3, 3
2, 2
3, 7
0, 3
1, 4
1, 5
2, 1
2, 1
4, 1
3, 1
0, 1
2, 3
3, 3
4, 5
6, 5
3, 0
3, 1
2, 1
0, 2
2, 1
4, 2
0, 1
1, 0
1, 3
1, 1
1, 0
1, 3
4, 1
2, 1
2, 0
1, 2
2, 1
0, 0
1, 0
0, 0
0, 1
1, 0
0, 2
0, 0
0, 2
0, 0
1, 0
0, 0
0, 0
0, 0
0, 0
1, 2
0, 0
0, 0
0, 1
0, 0
0, 1
0, 0
1, 0
0, 1
0, 0
1, 0
0, 1
0, 0
0, 0
1, 1
0, 0
0, 0
0, 0
0, 0
0, 1
0, 0
0, 0
0, 1
0, 0
0, 1
0, 0
0, 0
0, 1
1, 0
0, 0
0, 0
0, 1
1, 0
0, 0
0, 1
0, 0
0, 1
0, 0
0, 0
0, 0
0, 0
0, 0
0, 0
0, 0
0, 0
0, 0
0, 0
0, 1
0, 0
0, 1
0, 0
0, 0
0, 0
0, 0
0, 0
0, 0
0, 0
0, 0
0, 0
0, 0
0, 0
0, 0
0, 0
0, 0
0, 0
0, 0
0, 0
0, 0
0, 0
0, 0
0, 0
0, 0
0, 0
0, 0
0, 0
0, 0
0, 0
0, 0
0, 0
0, 0
0, 0
0, 0
0, 0
0, 0
0, 0
0, 0
0, 0
0, 0
0, 0
0, 0
0, 0
0, 0
0, 0
0, 0
0, 0
0, 0
0, 0
0, 0
0, 0
0, 0
0, 0
0, 0
0, 0
0, 0
0, 0
0, 0
0, 0
0, 0
0, 0
0, 0
0, 0
0, 0
0, 0
0, 0
0, 0
0, 0
0, 0
0, 0
0, 0
0, 0
0, 0
0, 0
0, 0
0, 0
0, 0
0, 0
0, 0
0, 0
0, 0
0, 0
0, 0
0, 0
0, 0
0, 0
0, 0
0, 0
0, 0
0, 0
0, 0
0, 0
0, 0
0, 0
0, 0
0, 0
0, 0
#ENDOFDATA     end of spectrum data