File: host_upload/06-09-2024/ps_0852/dump3/ps__0852shot_2184.msa
#FORMAT      : EMSA/MAS spectral data file
#VERSION     : TC202v2.0 PIXL
#TITLE       : N/A
#DATE        :       Date in the format DD-MMM-YYYY, for example 07-JUL-2010
#TIME        :             The time of day at which the spectrum was recorded, in 24-hour format
#OWNER       : PIXL Flight Model       (PIXL will use this to indicate which instrument took the data.)
#NPOINTS     : 4096     Number of data points in the spectrum (This can be zero for configuration only files)
#NCOLUMNS    : 2     Number of data columns in the spectrum (This can be zero for configuration only files)
#XUNITS      : eV
#YUNITS      : COUNTS
#DATATYPE    : YY
#XPERCHAN    : 7.862, 7.881   eV per channel (separate by commas if more than one detector)
#OFFSET      : 18.5, -22.4         eV of first channel  (separate by commas if more than one detector
#SIGNALTYPE  : XRF
#YP_TEMP     : 2.267
#LIVETIME    : 8.56536, 8.55195   seconds (separate by commas if more than one detector)
#REALTIME    : 10, 10.0   seconds (separate by commas if more than one detector)
#SPECTRUM    : start of spectrum data
0, 0
0, 0
0, 0
0, 0
0, 0
0, 0
0, 0
1, 0
1, 5
5, 10
3, 3
43, 47
59, 73
5, 5
5, 7
93, 93
369, 435
88, 103
4, 4
2, 3
0, 4
3, 0
5, 3
10, 30
137, 512
227, 718
39, 107
15, 19
3, 1
1, 1
0, 5
1, 3
2, 0
7, 3
10, 6
4, 9
26, 28
36, 42
14, 8
2, 2
3, 5
8, 14
5, 13
11, 16
2, 8
4, 6
4, 2
8, 6
8, 12
17, 15
10, 12
6, 7
3, 12
33, 45
47, 44
20, 10
27, 27
496, 595
2066, 2372
1494, 1399
224, 179
35, 43
37, 36
104, 118
313, 361
238, 193
35, 26
11, 5
14, 15
9, 10
9, 3
4, 4
7, 6
15, 20
18, 7
7, 4
4, 4
5, 5
4, 5
3, 7
5, 6
3, 0
3, 1
3, 6
6, 11
2, 6
5, 6
4, 3
11, 4
2, 1
1, 4
5, 2
2, 3
3, 1
2, 2
4, 1
5, 0
2, 5
7, 8
3, 13
3, 4
6, 4
2, 4
3, 1
0, 3
1, 5
2, 3
1, 2
4, 4
1, 2
4, 4
2, 4
1, 0
3, 0
0, 1
3, 6
4, 5
2, 1
2, 3
2, 2
3, 0
1, 3
3, 8
2, 1
1, 0
1, 1
1, 2
1, 2
2, 0
1, 0
2, 0
0, 0
1, 0
1, 0
1, 1
1, 1
0, 0
1, 1
2, 0
1, 1
0, 2
0, 0
1, 1
1, 0
0, 1
0, 0
0, 1
1, 1
1, 1
0, 0
0, 3
1, 1
0, 0
0, 1
0, 0
1, 0
1, 0
2, 0
0, 1
0, 2
0, 0
0, 1
0, 0
0, 0
1, 1
0, 0
0, 0
0, 0
1, 1
0, 0
1, 0
0, 0
0, 0
1, 0
0, 1
1, 1
0, 0
0, 0
0, 0
0, 0
2, 0
0, 0
0, 0
0, 1
0, 0
0, 0
1, 1
1, 0
1, 0
0, 0
0, 0
0, 0
0, 0
0, 0
0, 0
0, 0
0, 0
0, 0
0, 0
0, 0
0, 0
0, 0
0, 0
0, 0
0, 0
0, 0
0, 0
0, 0
0, 0
0, 0
0, 0
0, 0
0, 0
0, 0
0, 0
0, 0
0, 0
0, 0
0, 0
0, 0
0, 0
0, 0
0, 0
0, 0
0, 0
0, 0
0, 0
0, 0
0, 0
0, 0
0, 0
0, 0
0, 0
0, 1
0, 0
0, 0
0, 0
0, 0
0, 0
0, 0
0, 0
0, 0
0, 0
0, 0
0, 0
0, 0
0, 0
0, 0
0, 0
0, 0
0, 0
0, 0
0, 0
0, 0
0, 0
0, 0
0, 0
0, 0
0, 0
0, 0
0, 0
0, 0
0, 0
0, 0
0, 0
0, 0
0, 0
0, 0
0, 0
0, 0
0, 0
0, 0
0, 0
0, 0
0, 0
0, 0
0, 0
0, 0
0, 0
0, 0
0, 0
0, 0
0, 0
0, 0
0, 0
0, 0
0, 0
0, 0
0, 0
0, 0
0, 0
0, 0
0, 0
0, 0
#ENDOFDATA     end of spectrum data