File: host_upload/06-09-2024/ps_0852/dump3/ps__0852shot_2456.msa
#FORMAT      : EMSA/MAS spectral data file
#VERSION     : TC202v2.0 PIXL
#TITLE       : N/A
#DATE        :       Date in the format DD-MMM-YYYY, for example 07-JUL-2010
#TIME        :             The time of day at which the spectrum was recorded, in 24-hour format
#OWNER       : PIXL Flight Model       (PIXL will use this to indicate which instrument took the data.)
#NPOINTS     : 4096     Number of data points in the spectrum (This can be zero for configuration only files)
#NCOLUMNS    : 2     Number of data columns in the spectrum (This can be zero for configuration only files)
#XUNITS      : eV
#YUNITS      : COUNTS
#DATATYPE    : YY
#XPERCHAN    : 7.862, 7.881   eV per channel (separate by commas if more than one detector)
#OFFSET      : 18.5, -22.4         eV of first channel  (separate by commas if more than one detector
#SIGNALTYPE  : XRF
#YP_TEMP     : 2.332
#LIVETIME    : 8.51593, 8.56157   seconds (separate by commas if more than one detector)
#REALTIME    : 10, 10.0   seconds (separate by commas if more than one detector)
#SPECTRUM    : start of spectrum data
0, 0
0, 0
0, 0
0, 0
0, 0
0, 0
0, 0
0, 0
0, 1
0, 2
2, 6
50, 45
57, 45
5, 5
4, 6
106, 118
478, 427
108, 89
6, 1
0, 1
17, 16
72, 57
30, 23
17, 14
53, 54
43, 36
18, 28
14, 13
6, 4
2, 1
7, 3
2, 0
13, 4
88, 84
128, 119
30, 30
12, 31
18, 12
6, 7
2, 3
7, 3
6, 28
15, 36
7, 21
5, 2
13, 17
4, 14
1, 6
6, 16
25, 54
23, 31
8, 11
11, 23
31, 41
67, 58
20, 14
41, 36
430, 487
2098, 2116
1471, 1195
165, 109
23, 13
22, 25
121, 123
321, 305
206, 167
27, 24
11, 7
13, 8
11, 3
1, 8
2, 7
1, 7
1, 7
4, 4
6, 6
6, 6
6, 19
6, 8
11, 5
14, 4
10, 0
2, 4
8, 1
5, 11
6, 5
4, 4
4, 3
4, 2
6, 3
2, 8
4, 7
4, 3
7, 3
6, 3
9, 4
6, 2
3, 4
3, 1
1, 2
6, 3
3, 5
5, 0
5, 2
1, 3
5, 2
5, 4
5, 1
5, 3
4, 2
1, 2
2, 3
2, 4
2, 0
1, 1
3, 4
3, 3
2, 3
4, 1
0, 1
1, 0
1, 1
1, 2
2, 2
1, 0
1, 3
1, 1
1, 0
2, 1
0, 0
0, 0
1, 0
0, 0
3, 0
0, 2
0, 0
1, 0
0, 0
2, 0
1, 1
2, 0
2, 1
1, 0
0, 1
1, 0
0, 0
1, 1
0, 1
0, 2
1, 0
0, 1
0, 0
1, 0
0, 0
0, 0
0, 0
1, 2
2, 0
0, 0
0, 1
0, 0
0, 0
2, 0
1, 0
0, 1
1, 2
0, 0
1, 1
0, 0
0, 0
0, 1
0, 0
0, 1
0, 0
0, 0
1, 0
0, 0
0, 0
0, 0
0, 0
1, 0
0, 0
0, 0
0, 0
0, 0
0, 0
0, 0
0, 0
0, 0
0, 0
0, 0
1, 0
0, 0
0, 1
0, 1
0, 0
0, 0
0, 0
0, 0
0, 0
0, 0
0, 0
0, 0
0, 0
0, 0
0, 0
0, 0
1, 0
0, 0
0, 0
0, 0
0, 0
0, 0
0, 0
0, 0
0, 0
0, 0
0, 0
0, 0
0, 0
0, 0
0, 0
0, 0
0, 0
0, 0
0, 0
0, 0
0, 0
0, 0
0, 0
0, 0
0, 0
0, 0
0, 0
0, 0
0, 0
0, 0
0, 0
0, 0
0, 0
0, 0
0, 0
0, 0
0, 0
0, 0
0, 0
0, 0
0, 0
0, 0
0, 0
0, 0
0, 0
0, 0
0, 0
0, 0
0, 0
0, 0
0, 0
0, 0
0, 0
0, 0
0, 0
0, 0
0, 0
0, 0
0, 0
0, 0
0, 0
0, 0
0, 0
0, 0
0, 0
0, 0
0, 0
0, 0
0, 0
0, 0
0, 0
0, 0
0, 0
0, 0
0, 0
0, 0
0, 0
0, 0
0, 0
0, 0
0, 0
0, 0
0, 0
0, 0
0, 0
0, 0
0, 0
#ENDOFDATA     end of spectrum data