File: host_upload/06-09-2024/ps_0852/dump3/ps__0852shot_2440.msa
#FORMAT      : EMSA/MAS spectral data file
#VERSION     : TC202v2.0 PIXL
#TITLE       : N/A
#DATE        :       Date in the format DD-MMM-YYYY, for example 07-JUL-2010
#TIME        :             The time of day at which the spectrum was recorded, in 24-hour format
#OWNER       : PIXL Flight Model       (PIXL will use this to indicate which instrument took the data.)
#NPOINTS     : 4096     Number of data points in the spectrum (This can be zero for configuration only files)
#NCOLUMNS    : 2     Number of data columns in the spectrum (This can be zero for configuration only files)
#XUNITS      : eV
#YUNITS      : COUNTS
#DATATYPE    : YY
#XPERCHAN    : 7.862, 7.881   eV per channel (separate by commas if more than one detector)
#OFFSET      : 18.5, -22.4         eV of first channel  (separate by commas if more than one detector
#SIGNALTYPE  : XRF
#YP_TEMP     : 2.364
#LIVETIME    : 8.56285, 8.55983   seconds (separate by commas if more than one detector)
#REALTIME    : 10, 10.0   seconds (separate by commas if more than one detector)
#SPECTRUM    : start of spectrum data
0, 0
0, 0
0, 0
0, 0
0, 0
0, 0
0, 0
0, 0
0, 1
2, 1
4, 4
42, 47
59, 67
5, 4
3, 7
111, 89
411, 432
117, 95
6, 10
1, 0
1, 4
2, 3
5, 2
4, 12
56, 37
76, 44
35, 21
18, 10
5, 4
2, 3
4, 5
1, 1
2, 4
28, 21
55, 32
16, 4
10, 5
13, 5
12, 8
6, 3
6, 3
18, 19
17, 47
16, 35
16, 23
28, 9
18, 22
10, 10
10, 6
15, 10
19, 13
9, 14
13, 16
45, 51
63, 68
35, 26
29, 37
462, 598
2155, 2241
1524, 1352
153, 130
23, 48
23, 67
95, 116
344, 372
219, 185
30, 32
15, 8
20, 11
12, 4
6, 7
1, 7
1, 3
7, 5
7, 5
20, 6
13, 6
9, 5
7, 2
7, 4
3, 3
5, 0
5, 2
2, 6
2, 8
2, 10
4, 8
1, 8
2, 8
9, 5
5, 3
5, 6
7, 6
5, 9
2, 3
1, 3
0, 7
2, 2
5, 2
2, 1
3, 2
1, 4
5, 2
3, 4
0, 3
1, 2
2, 3
1, 1
4, 1
3, 1
0, 1
1, 1
2, 3
1, 1
1, 2
4, 0
4, 1
6, 1
2, 4
1, 4
0, 2
0, 2
0, 2
1, 0
0, 0
3, 0
2, 0
1, 1
3, 1
2, 0
0, 0
2, 1
1, 2
1, 1
1, 0
1, 1
0, 2
2, 1
0, 1
0, 1
0, 0
1, 0
0, 1
1, 0
0, 0
0, 0
1, 1
2, 2
0, 1
0, 0
0, 1
1, 0
0, 0
1, 1
0, 3
0, 0
0, 0
0, 1
0, 0
1, 0
0, 0
0, 0
0, 0
0, 0
0, 0
0, 0
0, 1
0, 0
0, 0
1, 1
0, 0
0, 0
0, 0
0, 0
0, 0
0, 0
0, 1
0, 0
0, 0
0, 0
0, 0
0, 0
0, 0
0, 0
1, 0
0, 0
0, 0
0, 0
0, 1
0, 0
0, 0
0, 0
0, 0
0, 0
0, 0
0, 0
0, 0
0, 0
1, 0
0, 1
0, 0
0, 0
0, 0
0, 0
0, 0
0, 0
0, 1
0, 0
0, 0
0, 0
0, 0
0, 0
0, 0
1, 0
0, 0
0, 0
0, 0
0, 0
0, 0
0, 0
0, 0
0, 0
0, 0
0, 0
0, 0
0, 0
0, 0
0, 0
0, 0
0, 0
0, 0
0, 0
0, 0
1, 0
0, 0
0, 0
0, 0
0, 0
0, 0
0, 0
0, 0
0, 0
0, 0
0, 0
0, 0
0, 0
0, 0
0, 0
0, 0
0, 0
0, 0
0, 0
0, 0
0, 0
0, 0
0, 0
0, 0
0, 0
0, 0
0, 0
0, 0
0, 0
0, 0
0, 0
0, 0
0, 0
0, 0
0, 0
0, 0
0, 0
0, 0
0, 0
0, 0
0, 0
0, 0
0, 0
0, 0
0, 0
0, 0
0, 0
0, 0
0, 0
0, 0
0, 0
0, 0
0, 0
0, 0
0, 0
0, 0
0, 0
0, 0
0, 0
0, 0
0, 0
#ENDOFDATA     end of spectrum data