File: host_upload/06-09-2024/ps_0852/dump3/ps__0852shot_2331.msa
#FORMAT      : EMSA/MAS spectral data file
#VERSION     : TC202v2.0 PIXL
#TITLE       : N/A
#DATE        :       Date in the format DD-MMM-YYYY, for example 07-JUL-2010
#TIME        :             The time of day at which the spectrum was recorded, in 24-hour format
#OWNER       : PIXL Flight Model       (PIXL will use this to indicate which instrument took the data.)
#NPOINTS     : 4096     Number of data points in the spectrum (This can be zero for configuration only files)
#NCOLUMNS    : 2     Number of data columns in the spectrum (This can be zero for configuration only files)
#XUNITS      : eV
#YUNITS      : COUNTS
#DATATYPE    : YY
#XPERCHAN    : 7.862, 7.881   eV per channel (separate by commas if more than one detector)
#OFFSET      : 18.5, -22.4         eV of first channel  (separate by commas if more than one detector
#SIGNALTYPE  : XRF
#YP_TEMP     : 2.428
#LIVETIME    : 8.54389, 8.35262   seconds (separate by commas if more than one detector)
#REALTIME    : 10, 10.0   seconds (separate by commas if more than one detector)
#SPECTRUM    : start of spectrum data
0, 0
0, 0
0, 0
0, 0
0, 0
0, 0
0, 0
0, 1
0, 0
2, 2
1, 3
40, 30
54, 44
8, 7
4, 5
82, 95
422, 399
102, 101
8, 6
6, 3
16, 20
98, 101
49, 44
11, 11
55, 43
62, 49
34, 22
16, 17
4, 5
2, 1
2, 3
4, 4
6, 7
64, 49
80, 61
19, 13
16, 11
22, 13
7, 12
4, 4
9, 8
7, 14
10, 24
18, 16
6, 9
7, 5
11, 6
18, 5
16, 8
58, 12
60, 13
22, 6
16, 12
42, 40
63, 60
23, 37
38, 49
462, 571
2171, 2118
1546, 1251
218, 118
29, 16
31, 15
87, 105
317, 383
239, 186
35, 31
7, 13
13, 17
7, 8
5, 7
2, 2
3, 5
3, 3
2, 3
7, 7
6, 11
2, 7
9, 9
2, 6
5, 3
5, 1
7, 3
3, 6
4, 8
5, 14
4, 4
2, 7
2, 6
5, 6
7, 4
5, 3
2, 4
9, 1
6, 1
3, 2
1, 3
7, 3
4, 4
3, 3
3, 3
1, 1
2, 3
0, 7
4, 2
2, 4
1, 0
2, 2
1, 3
1, 2
0, 2
5, 4
1, 1
1, 2
1, 1
4, 1
1, 1
1, 2
4, 2
0, 0
2, 2
1, 0
2, 1
2, 1
0, 0
1, 4
2, 2
3, 0
2, 0
1, 0
1, 2
3, 1
2, 0
3, 0
2, 1
1, 1
1, 0
0, 2
0, 0
0, 1
1, 2
0, 1
1, 0
0, 0
1, 0
0, 0
0, 1
0, 0
0, 0
0, 0
0, 1
1, 1
0, 0
0, 0
0, 0
0, 0
0, 0
0, 0
1, 0
0, 0
0, 0
0, 0
0, 0
0, 1
0, 0
0, 1
0, 0
0, 0
0, 1
1, 0
0, 0
0, 1
1, 0
0, 0
0, 0
0, 1
0, 0
1, 1
0, 0
0, 0
0, 0
0, 0
0, 0
0, 0
1, 1
0, 0
0, 1
1, 0
0, 0
0, 0
0, 0
0, 1
0, 0
0, 0
0, 0
0, 0
0, 0
0, 0
0, 0
0, 0
0, 0
0, 0
0, 0
0, 0
1, 0
0, 0
0, 0
0, 0
0, 0
0, 0
0, 0
0, 0
0, 0
0, 0
0, 0
0, 0
0, 0
0, 0
0, 0
0, 0
0, 0
0, 0
0, 0
0, 0
0, 0
0, 0
0, 0
0, 0
0, 0
0, 0
0, 0
0, 0
0, 0
0, 0
0, 0
0, 0
0, 0
0, 0
0, 0
0, 0
0, 0
0, 0
0, 0
0, 0
0, 0
0, 0
0, 0
0, 0
0, 0
0, 0
0, 0
0, 0
0, 0
0, 0
0, 0
0, 0
0, 0
0, 0
0, 0
0, 0
0, 0
0, 0
0, 0
0, 0
0, 0
0, 0
0, 0
0, 0
0, 0
0, 0
0, 0
0, 0
0, 0
0, 0
0, 0
0, 0
0, 0
0, 0
0, 0
0, 0
0, 0
0, 0
0, 0
0, 0
0, 0
0, 0
0, 0
0, 0
0, 0
0, 0
0, 0
0, 0
0, 0
0, 0
#ENDOFDATA     end of spectrum data