File: host_upload/06-09-2024/ps_0852/dump3/ps__0852shot_2513.msa
#FORMAT      : EMSA/MAS spectral data file
#VERSION     : TC202v2.0 PIXL
#TITLE       : N/A
#DATE        :       Date in the format DD-MMM-YYYY, for example 07-JUL-2010
#TIME        :             The time of day at which the spectrum was recorded, in 24-hour format
#OWNER       : PIXL Flight Model       (PIXL will use this to indicate which instrument took the data.)
#NPOINTS     : 4096     Number of data points in the spectrum (This can be zero for configuration only files)
#NCOLUMNS    : 2     Number of data columns in the spectrum (This can be zero for configuration only files)
#XUNITS      : eV
#YUNITS      : COUNTS
#DATATYPE    : YY
#XPERCHAN    : 7.862, 7.881   eV per channel (separate by commas if more than one detector)
#OFFSET      : 18.5, -22.4         eV of first channel  (separate by commas if more than one detector
#SIGNALTYPE  : XRF
#YP_TEMP     : 2.3
#LIVETIME    : 8.54849, 8.56817   seconds (separate by commas if more than one detector)
#REALTIME    : 10, 10.0   seconds (separate by commas if more than one detector)
#SPECTRUM    : start of spectrum data
0, 0
0, 0
0, 0
0, 0
0, 0
0, 0
0, 0
0, 0
1, 3
2, 2
2, 2
53, 55
70, 68
7, 1
2, 5
105, 86
431, 394
111, 79
7, 1
0, 0
3, 5
15, 18
3, 4
4, 6
26, 31
40, 45
34, 21
8, 8
7, 3
0, 1
2, 1
0, 3
4, 1
8, 18
18, 13
8, 2
6, 3
2, 8
5, 7
4, 2
5, 2
8, 12
11, 13
9, 12
12, 20
8, 42
6, 37
9, 11
19, 8
19, 19
34, 8
11, 9
4, 10
45, 50
62, 45
35, 25
37, 28
498, 627
2302, 2280
1699, 1321
224, 143
24, 23
13, 20
88, 135
346, 344
258, 202
32, 22
14, 8
16, 17
11, 9
7, 5
3, 4
0, 3
4, 4
3, 8
7, 5
3, 6
5, 6
9, 4
9, 9
11, 5
3, 6
4, 4
5, 5
2, 6
2, 3
3, 1
1, 2
6, 4
7, 9
3, 5
3, 4
7, 2
1, 1
0, 3
4, 5
3, 2
2, 2
7, 3
4, 3
10, 1
7, 3
2, 2
4, 3
2, 5
3, 2
1, 3
2, 1
5, 3
2, 4
1, 1
1, 4
4, 3
2, 4
0, 2
4, 4
6, 5
6, 3
3, 4
2, 4
1, 4
4, 2
2, 3
3, 0
1, 2
0, 0
1, 0
0, 1
0, 1
2, 2
1, 2
3, 1
0, 0
0, 0
0, 0
1, 0
2, 0
0, 0
2, 0
1, 1
0, 0
1, 1
0, 2
1, 1
0, 0
1, 2
0, 0
0, 0
1, 0
0, 2
0, 0
0, 0
1, 0
2, 0
1, 1
1, 1
1, 0
0, 0
0, 0
2, 1
0, 1
1, 0
0, 0
0, 0
0, 0
0, 0
1, 1
1, 0
0, 0
0, 3
1, 0
0, 1
0, 0
0, 0
0, 0
0, 0
0, 0
1, 0
0, 0
0, 0
0, 0
0, 0
1, 0
0, 0
0, 0
0, 0
0, 0
0, 0
0, 0
0, 0
0, 0
0, 0
0, 0
0, 0
0, 0
1, 0
0, 0
0, 0
0, 0
0, 0
0, 0
0, 0
0, 0
0, 0
0, 0
0, 0
0, 0
0, 1
0, 0
0, 0
0, 0
0, 0
0, 0
0, 0
0, 0
0, 0
0, 0
0, 0
0, 0
0, 0
0, 0
0, 0
0, 0
0, 0
0, 0
0, 0
0, 0
0, 0
0, 0
0, 0
0, 0
0, 0
0, 0
0, 0
0, 0
0, 0
0, 0
0, 0
0, 0
0, 0
0, 0
0, 0
0, 0
0, 0
0, 0
0, 0
0, 0
0, 0
0, 0
0, 0
0, 0
0, 0
0, 0
0, 0
0, 0
0, 0
0, 0
0, 0
0, 0
0, 0
0, 0
0, 0
0, 0
0, 0
0, 0
0, 0
0, 0
0, 0
0, 0
0, 0
0, 0
0, 0
0, 0
0, 0
0, 0
0, 0
0, 0
0, 0
0, 0
0, 0
0, 0
0, 0
0, 0
0, 0
0, 0
0, 0
0, 0
0, 0
0, 0
0, 0
0, 0
0, 0
0, 0
0, 0
#ENDOFDATA     end of spectrum data