File: host_upload/06-09-2024/ps_0852/dump3/ps__0852shot_2500.msa
#FORMAT      : EMSA/MAS spectral data file
#VERSION     : TC202v2.0 PIXL
#TITLE       : N/A
#DATE        :       Date in the format DD-MMM-YYYY, for example 07-JUL-2010
#TIME        :             The time of day at which the spectrum was recorded, in 24-hour format
#OWNER       : PIXL Flight Model       (PIXL will use this to indicate which instrument took the data.)
#NPOINTS     : 4096     Number of data points in the spectrum (This can be zero for configuration only files)
#NCOLUMNS    : 2     Number of data columns in the spectrum (This can be zero for configuration only files)
#XUNITS      : eV
#YUNITS      : COUNTS
#DATATYPE    : YY
#XPERCHAN    : 7.862, 7.881   eV per channel (separate by commas if more than one detector)
#OFFSET      : 18.5, -22.4         eV of first channel  (separate by commas if more than one detector
#SIGNALTYPE  : XRF
#YP_TEMP     : 2.396
#LIVETIME    : 8.55426, 8.55002   seconds (separate by commas if more than one detector)
#REALTIME    : 10, 10.0   seconds (separate by commas if more than one detector)
#SPECTRUM    : start of spectrum data
0, 0
0, 0
0, 0
0, 0
0, 0
0, 0
0, 0
0, 1
0, 1
2, 0
2, 3
48, 51
53, 44
7, 8
2, 5
90, 91
359, 366
82, 77
4, 4
3, 2
0, 2
3, 2
3, 4
11, 9
37, 27
36, 33
21, 20
8, 14
5, 11
2, 3
2, 2
4, 1
2, 4
26, 26
37, 49
27, 9
18, 4
10, 9
1, 5
2, 24
14, 23
62, 74
46, 38
8, 14
10, 15
22, 9
6, 14
10, 17
117, 175
639, 792
484, 511
56, 49
8, 19
80, 81
147, 197
59, 139
31, 50
387, 599
1811, 2201
1260, 1267
150, 126
19, 31
19, 56
97, 127
277, 316
191, 179
20, 43
4, 16
11, 14
4, 9
6, 5
7, 3
5, 1
6, 3
6, 9
2, 1
2, 14
4, 3
3, 4
3, 4
5, 3
4, 4
4, 7
3, 1
3, 3
5, 3
2, 4
2, 2
0, 5
4, 2
3, 1
0, 2
0, 7
1, 2
3, 6
1, 1
1, 3
0, 3
1, 0
2, 4
2, 2
1, 3
3, 4
0, 3
2, 1
1, 3
0, 0
1, 6
6, 2
3, 3
0, 4
1, 1
1, 1
5, 0
1, 2
4, 7
4, 7
3, 2
1, 1
0, 2
0, 1
1, 0
1, 0
1, 2
0, 3
0, 2
0, 3
0, 0
1, 0
1, 1
1, 2
0, 0
1, 2
0, 0
0, 3
0, 0
0, 1
0, 0
0, 2
0, 0
0, 1
0, 1
2, 0
0, 0
2, 1
0, 0
1, 2
1, 0
0, 1
0, 0
0, 0
1, 0
0, 1
0, 0
0, 2
0, 1
0, 0
0, 0
0, 0
1, 0
0, 1
0, 0
0, 0
0, 0
1, 0
0, 0
0, 0
0, 0
0, 0
0, 0
0, 0
0, 1
0, 1
0, 0
0, 0
1, 0
0, 0
0, 1
0, 0
0, 0
0, 1
0, 0
0, 0
0, 0
0, 0
1, 0
0, 0
0, 0
0, 0
0, 0
0, 2
0, 0
0, 0
0, 0
0, 0
0, 0
0, 0
0, 0
0, 0
0, 0
0, 0
0, 0
0, 0
0, 0
0, 0
0, 0
0, 0
1, 0
0, 0
0, 0
0, 0
0, 0
0, 0
0, 0
0, 0
0, 0
0, 0
0, 0
0, 0
0, 0
0, 0
0, 0
0, 0
0, 0
0, 0
0, 0
0, 0
0, 0
0, 0
0, 0
0, 0
0, 0
0, 0
0, 0
0, 0
0, 0
0, 0
0, 0
0, 0
0, 0
0, 0
0, 0
0, 0
0, 0
0, 0
0, 0
0, 0
0, 0
0, 0
0, 0
0, 0
0, 0
0, 0
0, 0
0, 0
0, 0
0, 0
0, 0
0, 0
0, 0
0, 0
0, 0
0, 0
0, 0
0, 0
0, 0
0, 0
0, 0
0, 0
0, 0
0, 0
0, 0
0, 0
0, 0
0, 0
0, 0
0, 0
0, 0
0, 0
0, 0
0, 0
0, 0
0, 0
0, 0
0, 0
0, 0
0, 0
0, 0
0, 0
0, 0
0, 0
0, 0
0, 0
0, 0
#ENDOFDATA     end of spectrum data