File: host_upload/06-09-2024/ps_0852/dump3/ps__0852shot_2022.msa
#FORMAT      : EMSA/MAS spectral data file
#VERSION     : TC202v2.0 PIXL
#TITLE       : N/A
#DATE        :       Date in the format DD-MMM-YYYY, for example 07-JUL-2010
#TIME        :             The time of day at which the spectrum was recorded, in 24-hour format
#OWNER       : PIXL Flight Model       (PIXL will use this to indicate which instrument took the data.)
#NPOINTS     : 4096     Number of data points in the spectrum (This can be zero for configuration only files)
#NCOLUMNS    : 2     Number of data columns in the spectrum (This can be zero for configuration only files)
#XUNITS      : eV
#YUNITS      : COUNTS
#DATATYPE    : YY
#XPERCHAN    : 7.862, 7.881   eV per channel (separate by commas if more than one detector)
#OFFSET      : 18.5, -22.4         eV of first channel  (separate by commas if more than one detector
#SIGNALTYPE  : XRF
#YP_TEMP     : 2.171
#LIVETIME    : 8.56589, 8.55789   seconds (separate by commas if more than one detector)
#REALTIME    : 10, 10.0   seconds (separate by commas if more than one detector)
#SPECTRUM    : start of spectrum data
0, 0
0, 0
0, 0
0, 0
0, 0
0, 0
0, 0
0, 0
1, 0
0, 2
3, 3
37, 35
67, 62
6, 5
7, 6
88, 108
445, 434
100, 88
6, 4
1, 2
3, 3
3, 7
2, 5
16, 8
57, 52
75, 59
43, 32
12, 20
4, 4
0, 2
5, 3
3, 4
5, 4
10, 22
17, 34
8, 11
7, 4
13, 13
11, 17
8, 8
7, 10
9, 14
21, 22
19, 19
6, 10
15, 9
6, 8
8, 4
9, 9
20, 19
21, 15
12, 15
19, 8
46, 64
56, 61
26, 58
31, 61
502, 619
2053, 2226
1532, 1368
213, 161
24, 26
29, 34
111, 127
355, 371
254, 188
44, 27
6, 6
21, 20
11, 4
2, 10
5, 2
6, 9
4, 5
7, 13
6, 4
9, 6
4, 6
4, 6
7, 2
3, 6
5, 3
2, 5
0, 8
4, 10
1, 8
4, 5
4, 5
5, 7
1, 3
2, 6
4, 3
4, 7
2, 1
1, 1
1, 4
2, 5
3, 2
5, 0
2, 2
2, 3
5, 2
6, 1
4, 0
3, 2
1, 2
3, 4
5, 2
1, 3
3, 3
6, 1
3, 3
6, 4
1, 0
2, 1
1, 2
5, 5
2, 1
2, 1
3, 3
3, 1
2, 5
1, 2
1, 2
2, 2
1, 1
1, 3
0, 2
1, 0
1, 2
3, 1
0, 2
2, 0
1, 0
4, 0
1, 1
0, 2
1, 0
1, 3
1, 0
0, 1
0, 1
1, 0
0, 1
2, 0
0, 0
1, 0
1, 0
1, 0
0, 2
1, 0
0, 0
0, 0
0, 0
0, 0
0, 0
1, 0
1, 0
1, 0
1, 1
0, 1
0, 0
0, 0
0, 0
0, 0
0, 0
0, 2
1, 0
0, 0
2, 2
0, 0
0, 0
0, 0
0, 0
0, 0
0, 0
0, 2
1, 0
0, 1
0, 0
0, 1
0, 0
0, 0
0, 0
0, 0
0, 0
1, 0
0, 0
0, 0
0, 0
0, 0
0, 0
0, 0
0, 0
0, 0
0, 0
0, 0
0, 0
0, 0
0, 0
0, 0
0, 0
0, 0
0, 0
0, 0
0, 0
0, 0
0, 0
0, 0
0, 0
0, 0
0, 0
0, 0
0, 0
0, 0
0, 0
0, 0
0, 0
0, 0
0, 0
0, 0
0, 0
0, 0
0, 0
0, 0
0, 0
0, 0
0, 0
0, 0
0, 0
0, 0
0, 0
0, 0
0, 0
0, 0
0, 0
0, 0
0, 0
0, 0
0, 0
0, 0
0, 0
0, 0
0, 0
0, 0
0, 0
0, 0
0, 0
0, 0
0, 0
0, 0
0, 0
0, 0
0, 0
0, 0
0, 0
0, 0
0, 0
0, 0
0, 0
0, 0
0, 0
0, 0
0, 0
0, 0
0, 0
0, 0
0, 0
0, 0
0, 0
0, 0
0, 0
0, 0
0, 0
0, 0
0, 0
0, 0
0, 0
0, 0
0, 0
0, 0
0, 0
0, 0
0, 0
0, 0
0, 0
0, 0
0, 0
0, 0
0, 0
0, 0
0, 0
0, 0
0, 0
#ENDOFDATA     end of spectrum data