File: host_upload/06-09-2024/ps_0852/dump3/ps__0852shot_2183.msa
#FORMAT      : EMSA/MAS spectral data file
#VERSION     : TC202v2.0 PIXL
#TITLE       : N/A
#DATE        :       Date in the format DD-MMM-YYYY, for example 07-JUL-2010
#TIME        :             The time of day at which the spectrum was recorded, in 24-hour format
#OWNER       : PIXL Flight Model       (PIXL will use this to indicate which instrument took the data.)
#NPOINTS     : 4096     Number of data points in the spectrum (This can be zero for configuration only files)
#NCOLUMNS    : 2     Number of data columns in the spectrum (This can be zero for configuration only files)
#XUNITS      : eV
#YUNITS      : COUNTS
#DATATYPE    : YY
#XPERCHAN    : 7.862, 7.881   eV per channel (separate by commas if more than one detector)
#OFFSET      : 18.5, -22.4         eV of first channel  (separate by commas if more than one detector
#SIGNALTYPE  : XRF
#YP_TEMP     : 2.46
#LIVETIME    : 8.56031, 8.3635   seconds (separate by commas if more than one detector)
#REALTIME    : 10, 10.0   seconds (separate by commas if more than one detector)
#SPECTRUM    : start of spectrum data
0, 0
0, 0
0, 0
0, 0
0, 0
0, 0
0, 0
0, 1
0, 11
3, 28
6, 13
38, 53
77, 54
3, 4
5, 3
100, 112
418, 403
116, 106
4, 2
1, 0
1, 4
4, 9
3, 6
12, 88
80, 1510
135, 2084
49, 210
13, 11
1, 1
2, 3
1, 3
3, 1
3, 7
14, 16
25, 40
9, 8
25, 12
38, 14
11, 10
5, 10
0, 6
18, 11
14, 7
16, 9
13, 4
10, 2
6, 5
12, 8
26, 11
27, 14
44, 8
25, 13
8, 25
48, 53
61, 51
29, 14
27, 35
501, 641
2058, 2260
1525, 1382
238, 145
58, 31
43, 45
126, 129
338, 332
221, 177
31, 23
13, 9
14, 14
11, 6
5, 8
4, 7
13, 7
17, 9
10, 14
8, 22
8, 20
5, 6
7, 6
2, 5
0, 4
2, 5
11, 8
4, 14
13, 3
17, 3
2, 4
8, 3
5, 3
2, 1
5, 3
1, 7
1, 3
1, 2
0, 0
2, 2
2, 4
1, 5
6, 7
7, 3
4, 6
2, 3
2, 4
1, 1
0, 2
4, 4
3, 1
2, 6
3, 2
4, 0
7, 3
2, 4
3, 0
3, 1
1, 2
3, 1
6, 3
1, 1
2, 0
2, 3
2, 1
4, 0
2, 4
3, 1
0, 1
0, 0
1, 2
0, 1
1, 0
2, 2
2, 1
1, 0
1, 0
2, 0
1, 0
0, 0
3, 1
2, 0
0, 0
1, 1
0, 0
0, 1
0, 2
1, 1
1, 0
1, 0
0, 0
0, 0
0, 1
0, 0
0, 0
0, 1
0, 0
0, 0
1, 0
0, 1
0, 1
1, 0
0, 1
0, 0
0, 0
0, 0
0, 1
0, 1
0, 0
0, 1
0, 0
1, 1
0, 1
0, 0
0, 0
0, 0
1, 0
1, 0
0, 1
0, 0
0, 1
0, 1
0, 1
1, 1
0, 0
0, 0
0, 0
0, 0
0, 0
0, 0
1, 0
0, 0
0, 0
0, 0
0, 1
1, 0
0, 0
0, 0
0, 0
0, 0
0, 0
0, 1
0, 0
1, 0
0, 0
0, 0
0, 0
0, 0
0, 0
0, 0
0, 0
0, 0
0, 0
0, 0
1, 0
0, 0
0, 0
0, 0
1, 0
0, 0
0, 0
0, 0
0, 0
0, 0
0, 0
0, 0
0, 0
0, 0
0, 0
0, 0
0, 0
0, 0
0, 0
0, 0
0, 0
0, 0
0, 0
0, 0
0, 0
0, 0
0, 0
0, 0
0, 0
0, 0
0, 0
0, 0
0, 0
0, 0
0, 0
0, 0
0, 0
0, 0
0, 0
0, 0
0, 0
0, 0
0, 0
0, 0
0, 0
0, 0
0, 0
0, 0
0, 0
0, 0
0, 0
0, 0
0, 0
0, 0
0, 0
0, 0
0, 0
0, 0
0, 0
0, 0
0, 0
0, 0
0, 0
0, 0
0, 0
0, 0
0, 0
0, 0
0, 0
0, 0
0, 0
0, 0
0, 0
0, 0
0, 0
0, 0
0, 0
0, 0
0, 0
0, 0
0, 0
0, 0
0, 0
0, 0
#ENDOFDATA     end of spectrum data