File: host_upload/06-09-2024/ps_0852/dump3/ps__0852shot_2146.msa
#FORMAT      : EMSA/MAS spectral data file
#VERSION     : TC202v2.0 PIXL
#TITLE       : N/A
#DATE        :       Date in the format DD-MMM-YYYY, for example 07-JUL-2010
#TIME        :             The time of day at which the spectrum was recorded, in 24-hour format
#OWNER       : PIXL Flight Model       (PIXL will use this to indicate which instrument took the data.)
#NPOINTS     : 4096     Number of data points in the spectrum (This can be zero for configuration only files)
#NCOLUMNS    : 2     Number of data columns in the spectrum (This can be zero for configuration only files)
#XUNITS      : eV
#YUNITS      : COUNTS
#DATATYPE    : YY
#XPERCHAN    : 7.862, 7.881   eV per channel (separate by commas if more than one detector)
#OFFSET      : 18.5, -22.4         eV of first channel  (separate by commas if more than one detector
#SIGNALTYPE  : XRF
#YP_TEMP     : 2.492
#LIVETIME    : 8.57648, 8.57655   seconds (separate by commas if more than one detector)
#REALTIME    : 10, 10.0   seconds (separate by commas if more than one detector)
#SPECTRUM    : start of spectrum data
0, 0
0, 0
0, 0
0, 0
0, 0
0, 0
0, 0
0, 0
1, 0
3, 1
5, 1
52, 37
70, 59
8, 8
4, 4
99, 80
451, 387
107, 88
5, 7
1, 2
2, 3
4, 4
2, 3
5, 4
50, 19
80, 24
26, 23
9, 14
3, 5
3, 1
3, 1
2, 4
9, 6
46, 43
53, 55
12, 12
13, 7
11, 10
10, 9
5, 7
6, 4
11, 7
11, 11
6, 9
11, 6
5, 10
7, 5
9, 7
4, 1
15, 22
22, 17
21, 16
16, 14
68, 43
79, 61
26, 15
39, 33
499, 521
2125, 2141
1645, 1233
187, 132
12, 25
12, 34
98, 99
342, 363
232, 159
39, 33
8, 11
9, 20
4, 8
7, 6
6, 1
4, 5
6, 6
13, 3
4, 6
6, 2
8, 14
5, 7
5, 5
5, 4
3, 6
7, 9
2, 15
7, 11
3, 2
6, 3
2, 4
4, 8
5, 7
1, 4
2, 2
9, 6
0, 3
4, 2
4, 3
4, 3
5, 0
3, 1
3, 1
4, 2
2, 0
3, 0
1, 4
2, 0
2, 2
4, 3
4, 1
3, 4
6, 2
2, 0
6, 4
2, 2
2, 2
3, 0
2, 0
1, 4
4, 4
0, 1
2, 2
2, 0
2, 0
1, 1
3, 0
2, 0
1, 3
2, 2
0, 1
2, 1
1, 1
2, 1
2, 0
0, 1
0, 1
0, 0
1, 1
0, 1
0, 0
0, 1
2, 1
0, 0
0, 0
0, 0
0, 2
0, 1
1, 1
0, 0
1, 1
0, 1
0, 0
0, 0
0, 0
1, 0
0, 0
0, 0
1, 0
0, 0
0, 1
0, 0
0, 1
0, 0
0, 0
1, 0
1, 0
0, 0
1, 2
0, 1
1, 0
0, 0
0, 0
1, 0
0, 0
1, 0
0, 0
0, 0
0, 1
0, 0
0, 1
0, 0
1, 0
0, 0
0, 0
0, 0
0, 0
0, 0
0, 1
0, 0
0, 0
1, 0
0, 0
0, 0
0, 0
0, 0
0, 0
1, 0
0, 0
0, 0
2, 0
0, 0
0, 0
0, 0
0, 0
0, 0
0, 0
0, 0
0, 0
0, 0
0, 0
0, 0
0, 0
0, 0
0, 0
0, 0
0, 0
0, 0
0, 0
0, 0
0, 0
0, 0
0, 0
0, 0
0, 0
0, 0
0, 0
0, 0
0, 0
0, 0
0, 0
0, 0
0, 0
0, 0
0, 0
0, 0
0, 0
0, 0
0, 0
0, 0
0, 0
0, 0
0, 0
0, 0
0, 0
0, 0
0, 0
0, 0
0, 0
0, 0
0, 0
0, 0
0, 0
0, 0
0, 0
0, 0
0, 0
0, 0
0, 0
0, 0
0, 0
0, 0
0, 0
0, 0
0, 0
0, 0
0, 0
0, 0
0, 0
0, 0
0, 0
0, 0
0, 0
0, 0
0, 0
0, 0
0, 0
0, 0
0, 0
0, 0
0, 0
0, 0
0, 0
0, 0
0, 0
0, 0
0, 0
0, 0
0, 0
0, 0
0, 0
0, 0
0, 0
0, 0
0, 0
0, 0
0, 0
#ENDOFDATA     end of spectrum data