File: host_upload/06-09-2024/ps_0852/dump3/ps__0852shot_2376.msa
#FORMAT      : EMSA/MAS spectral data file
#VERSION     : TC202v2.0 PIXL
#TITLE       : N/A
#DATE        :       Date in the format DD-MMM-YYYY, for example 07-JUL-2010
#TIME        :             The time of day at which the spectrum was recorded, in 24-hour format
#OWNER       : PIXL Flight Model       (PIXL will use this to indicate which instrument took the data.)
#NPOINTS     : 4096     Number of data points in the spectrum (This can be zero for configuration only files)
#NCOLUMNS    : 2     Number of data columns in the spectrum (This can be zero for configuration only files)
#XUNITS      : eV
#YUNITS      : COUNTS
#DATATYPE    : YY
#XPERCHAN    : 7.862, 7.881   eV per channel (separate by commas if more than one detector)
#OFFSET      : 18.5, -22.4         eV of first channel  (separate by commas if more than one detector
#SIGNALTYPE  : XRF
#YP_TEMP     : 2.492
#LIVETIME    : 8.55082, 8.55177   seconds (separate by commas if more than one detector)
#REALTIME    : 10, 10.0   seconds (separate by commas if more than one detector)
#SPECTRUM    : start of spectrum data
0, 0
0, 0
0, 0
0, 0
0, 0
0, 0
0, 0
0, 1
0, 1
1, 2
5, 5
47, 47
66, 38
7, 5
6, 2
101, 85
452, 466
113, 92
13, 5
4, 3
4, 1
3, 4
4, 2
11, 11
46, 45
48, 47
18, 20
10, 18
4, 3
3, 2
1, 7
6, 1
20, 2
41, 20
29, 28
3, 10
6, 2
8, 10
5, 1
2, 2
6, 3
17, 16
13, 12
13, 10
4, 8
3, 8
7, 7
6, 10
10, 10
14, 26
19, 25
18, 9
11, 9
39, 32
72, 55
46, 14
40, 39
509, 623
2228, 2352
1672, 1408
225, 159
20, 23
26, 16
125, 113
412, 334
227, 198
25, 26
9, 11
20, 11
13, 6
4, 3
5, 3
2, 4
5, 8
6, 9
4, 3
1, 3
6, 3
2, 2
3, 5
2, 3
4, 6
23, 6
9, 1
3, 5
5, 4
8, 1
10, 2
4, 0
3, 3
3, 4
1, 3
3, 4
0, 4
1, 1
7, 1
14, 1
9, 3
2, 3
6, 7
4, 5
2, 5
1, 0
6, 3
0, 1
1, 1
2, 2
1, 1
0, 1
2, 1
1, 1
1, 0
1, 2
2, 1
3, 2
8, 2
6, 3
5, 2
3, 0
3, 2
1, 4
3, 1
3, 6
1, 0
2, 2
0, 0
3, 3
0, 2
0, 0
1, 1
0, 1
2, 0
0, 0
0, 1
2, 0
2, 1
2, 0
1, 1
1, 1
0, 0
0, 1
0, 0
0, 0
3, 0
0, 0
1, 0
0, 0
0, 1
0, 0
0, 0
0, 0
0, 0
1, 1
0, 0
1, 0
1, 0
0, 0
0, 1
0, 0
0, 0
1, 0
0, 0
0, 1
0, 0
0, 0
0, 0
1, 0
0, 2
0, 0
0, 0
0, 0
0, 0
0, 0
0, 0
0, 1
0, 0
0, 2
0, 0
0, 0
0, 0
0, 0
0, 0
0, 1
1, 1
0, 0
0, 0
0, 0
0, 0
0, 0
0, 0
0, 1
0, 0
0, 0
0, 0
0, 0
0, 0
0, 0
0, 0
0, 0
0, 0
0, 0
0, 0
0, 0
0, 0
0, 0
0, 0
0, 0
0, 0
0, 0
0, 0
0, 0
0, 0
0, 0
0, 0
0, 0
0, 0
0, 0
0, 0
0, 0
0, 0
0, 0
0, 0
0, 0
0, 0
0, 0
0, 0
0, 0
0, 0
0, 0
0, 0
0, 0
0, 0
0, 0
0, 0
0, 0
0, 0
0, 0
0, 0
0, 0
0, 0
0, 0
0, 0
0, 0
0, 0
0, 0
0, 0
0, 0
0, 0
0, 0
0, 0
0, 0
0, 0
0, 0
0, 0
0, 0
0, 0
0, 0
0, 0
0, 0
0, 0
0, 0
0, 0
0, 0
0, 0
0, 0
0, 0
0, 0
0, 0
0, 0
0, 0
0, 0
0, 0
0, 0
0, 0
0, 0
0, 0
0, 0
0, 0
0, 0
0, 0
0, 0
0, 0
0, 0
0, 0
0, 0
0, 0
0, 0
0, 0
0, 0
0, 0
0, 0
0, 0
0, 0
0, 0
#ENDOFDATA     end of spectrum data