File: host_upload/06-09-2024/ps_0852/dump3/ps__0852shot_2350.msa
#FORMAT      : EMSA/MAS spectral data file
#VERSION     : TC202v2.0 PIXL
#TITLE       : N/A
#DATE        :       Date in the format DD-MMM-YYYY, for example 07-JUL-2010
#TIME        :             The time of day at which the spectrum was recorded, in 24-hour format
#OWNER       : PIXL Flight Model       (PIXL will use this to indicate which instrument took the data.)
#NPOINTS     : 4096     Number of data points in the spectrum (This can be zero for configuration only files)
#NCOLUMNS    : 2     Number of data columns in the spectrum (This can be zero for configuration only files)
#XUNITS      : eV
#YUNITS      : COUNTS
#DATATYPE    : YY
#XPERCHAN    : 7.862, 7.881   eV per channel (separate by commas if more than one detector)
#OFFSET      : 18.5, -22.4         eV of first channel  (separate by commas if more than one detector
#SIGNALTYPE  : XRF
#YP_TEMP     : 2.107
#LIVETIME    : 8.55615, 8.55023   seconds (separate by commas if more than one detector)
#REALTIME    : 10, 10.0   seconds (separate by commas if more than one detector)
#SPECTRUM    : start of spectrum data
0, 0
0, 0
0, 0
0, 0
0, 0
0, 0
0, 0
0, 0
0, 0
0, 2
0, 3
39, 47
64, 58
6, 4
3, 6
89, 118
441, 476
108, 110
6, 8
1, 1
6, 10
22, 32
13, 13
10, 6
31, 33
32, 39
19, 26
6, 14
4, 3
1, 1
3, 1
5, 2
4, 1
21, 20
24, 32
10, 21
9, 12
8, 5
2, 4
1, 1
5, 4
25, 4
13, 12
15, 6
8, 4
12, 8
6, 8
3, 6
5, 29
10, 89
9, 40
11, 30
7, 34
38, 61
46, 58
28, 32
31, 37
473, 647
2100, 2381
1603, 1422
202, 156
19, 13
18, 38
109, 144
362, 377
258, 214
30, 26
7, 5
18, 16
11, 4
2, 6
15, 4
2, 7
10, 7
2, 4
3, 4
3, 7
3, 6
4, 2
2, 5
14, 2
4, 2
3, 3
5, 4
7, 3
5, 4
7, 4
4, 1
3, 4
2, 10
2, 8
9, 5
2, 1
1, 5
10, 6
8, 4
8, 3
5, 2
3, 4
0, 2
6, 1
5, 2
5, 2
4, 3
2, 4
4, 3
3, 1
10, 4
8, 2
3, 2
2, 1
1, 3
0, 3
0, 3
3, 2
2, 3
3, 2
3, 3
1, 3
0, 1
1, 2
2, 1
3, 4
1, 0
2, 3
0, 1
2, 1
0, 0
0, 1
1, 0
1, 0
1, 2
0, 0
1, 1
0, 1
1, 3
2, 0
1, 2
1, 0
0, 0
0, 0
0, 0
0, 1
0, 0
0, 0
0, 1
1, 0
0, 0
0, 1
0, 0
1, 1
0, 0
0, 0
0, 0
0, 0
0, 1
0, 1
0, 0
0, 2
1, 2
0, 0
0, 0
0, 0
0, 0
1, 0
0, 0
0, 0
0, 0
2, 0
0, 0
0, 0
1, 0
1, 0
1, 0
0, 0
0, 0
0, 1
1, 0
0, 0
0, 0
0, 0
0, 1
0, 0
0, 0
0, 0
0, 0
0, 0
0, 0
0, 0
0, 0
0, 0
1, 1
0, 0
0, 0
0, 0
0, 0
0, 0
0, 0
0, 0
0, 0
0, 0
0, 0
0, 0
0, 0
0, 0
0, 0
0, 0
0, 0
0, 0
0, 0
0, 0
0, 0
0, 1
0, 0
0, 0
0, 0
0, 0
0, 0
0, 0
0, 0
0, 0
0, 0
0, 0
0, 0
0, 0
0, 0
0, 0
0, 0
0, 0
0, 0
0, 0
0, 0
0, 0
0, 0
0, 0
0, 0
0, 0
0, 0
0, 0
0, 0
0, 0
0, 0
0, 0
0, 0
0, 0
0, 0
0, 0
0, 0
0, 0
0, 0
0, 0
0, 0
0, 0
0, 0
0, 0
0, 0
0, 0
0, 0
0, 0
0, 0
0, 0
0, 0
0, 0
0, 0
0, 0
0, 0
0, 0
0, 0
0, 0
0, 0
0, 0
0, 0
0, 0
0, 0
0, 0
0, 0
0, 0
0, 0
0, 0
0, 0
0, 0
0, 0
0, 0
0, 0
0, 0
0, 0
0, 0
0, 0
0, 0
0, 0
0, 0
0, 0
0, 0
0, 0
#ENDOFDATA     end of spectrum data