File: host_upload/06-09-2024/ps_0852/dump3/ps__0852shot_2096.msa
#FORMAT      : EMSA/MAS spectral data file
#VERSION     : TC202v2.0 PIXL
#TITLE       : N/A
#DATE        :       Date in the format DD-MMM-YYYY, for example 07-JUL-2010
#TIME        :             The time of day at which the spectrum was recorded, in 24-hour format
#OWNER       : PIXL Flight Model       (PIXL will use this to indicate which instrument took the data.)
#NPOINTS     : 4096     Number of data points in the spectrum (This can be zero for configuration only files)
#NCOLUMNS    : 2     Number of data columns in the spectrum (This can be zero for configuration only files)
#XUNITS      : eV
#YUNITS      : COUNTS
#DATATYPE    : YY
#XPERCHAN    : 7.862, 7.881   eV per channel (separate by commas if more than one detector)
#OFFSET      : 18.5, -22.4         eV of first channel  (separate by commas if more than one detector
#SIGNALTYPE  : XRF
#YP_TEMP     : 2.364
#LIVETIME    : 8.54768, 8.55755   seconds (separate by commas if more than one detector)
#REALTIME    : 10, 10.0   seconds (separate by commas if more than one detector)
#SPECTRUM    : start of spectrum data
0, 0
0, 0
0, 0
0, 0
0, 0
0, 0
0, 0
1, 0
2, 1
1, 4
5, 4
45, 35
55, 51
6, 2
2, 4
87, 83
312, 342
83, 76
4, 2
3, 4
73, 84
418, 391
157, 177
40, 37
36, 51
51, 51
21, 24
13, 20
8, 7
3, 2
5, 3
4, 4
1, 3
6, 7
13, 8
6, 11
3, 8
2, 5
5, 2
3, 3
9, 4
41, 10
32, 14
21, 14
10, 14
6, 13
9, 6
13, 2
10, 9
8, 14
13, 13
8, 4
11, 18
28, 63
51, 51
30, 18
58, 28
469, 520
2013, 2209
1408, 1271
177, 115
16, 13
20, 18
108, 109
293, 307
214, 191
34, 20
9, 14
16, 11
13, 10
8, 5
5, 2
3, 3
2, 7
6, 4
6, 5
8, 4
7, 3
10, 3
3, 3
5, 6
2, 5
2, 3
4, 4
10, 1
8, 2
2, 7
6, 6
4, 4
4, 3
5, 4
1, 4
7, 5
4, 7
3, 7
4, 11
3, 3
3, 2
1, 2
0, 2
1, 3
3, 0
1, 1
1, 1
2, 3
0, 6
3, 1
1, 5
0, 5
2, 6
2, 1
2, 2
1, 5
2, 1
2, 1
6, 2
6, 2
1, 3
2, 2
0, 2
1, 0
0, 0
3, 3
2, 0
3, 1
2, 0
1, 0
1, 1
0, 0
1, 2
0, 1
0, 1
0, 2
1, 0
3, 0
0, 1
2, 0
2, 0
0, 1
0, 0
0, 0
1, 0
1, 0
0, 0
0, 2
3, 0
1, 0
0, 0
0, 0
0, 0
1, 2
0, 1
1, 0
0, 0
0, 1
1, 0
1, 0
0, 2
0, 0
0, 0
2, 0
0, 1
0, 0
1, 0
0, 0
0, 0
0, 0
0, 0
0, 0
0, 0
0, 1
0, 0
0, 0
0, 1
0, 0
0, 0
2, 0
0, 0
0, 0
1, 0
2, 0
0, 0
1, 0
0, 0
1, 0
0, 0
0, 0
0, 0
0, 0
0, 0
0, 0
0, 0
0, 0
0, 0
0, 0
0, 0
0, 0
0, 0
0, 0
0, 0
0, 0
0, 0
0, 0
0, 0
0, 0
0, 0
0, 0
0, 0
0, 0
0, 0
0, 0
0, 0
0, 0
0, 0
0, 0
0, 0
0, 0
0, 0
0, 1
0, 0
0, 0
0, 0
0, 0
0, 0
0, 0
0, 0
0, 0
0, 0
0, 0
0, 0
0, 0
0, 0
0, 0
0, 0
0, 0
0, 0
0, 0
1, 0
0, 0
0, 0
0, 0
0, 0
0, 0
0, 0
0, 0
0, 0
0, 0
0, 0
0, 0
0, 0
0, 0
0, 0
0, 0
0, 0
0, 0
0, 0
0, 0
0, 0
0, 0
0, 0
0, 0
0, 0
0, 0
0, 0
0, 0
0, 0
0, 0
0, 0
0, 0
0, 0
0, 0
0, 0
0, 0
0, 0
0, 0
0, 0
0, 0
0, 0
0, 0
0, 0
0, 0
0, 0
0, 0
0, 0
0, 0
0, 0
0, 0
0, 0
0, 0
0, 0
0, 0
0, 0
0, 0
0, 0
#ENDOFDATA     end of spectrum data