File: host_upload/06-09-2024/ps_0852/dump3/ps__0852shot_2106.msa
#FORMAT      : EMSA/MAS spectral data file
#VERSION     : TC202v2.0 PIXL
#TITLE       : N/A
#DATE        :       Date in the format DD-MMM-YYYY, for example 07-JUL-2010
#TIME        :             The time of day at which the spectrum was recorded, in 24-hour format
#OWNER       : PIXL Flight Model       (PIXL will use this to indicate which instrument took the data.)
#NPOINTS     : 4096     Number of data points in the spectrum (This can be zero for configuration only files)
#NCOLUMNS    : 2     Number of data columns in the spectrum (This can be zero for configuration only files)
#XUNITS      : eV
#YUNITS      : COUNTS
#DATATYPE    : YY
#XPERCHAN    : 7.862, 7.881   eV per channel (separate by commas if more than one detector)
#OFFSET      : 18.5, -22.4         eV of first channel  (separate by commas if more than one detector
#SIGNALTYPE  : XRF
#YP_TEMP     : 2.332
#LIVETIME    : 8.51714, 8.32789   seconds (separate by commas if more than one detector)
#REALTIME    : 10, 10.0   seconds (separate by commas if more than one detector)
#SPECTRUM    : start of spectrum data
0, 0
0, 0
0, 0
0, 0
0, 0
0, 0
1, 0
0, 0
1, 1
2, 4
2, 3
36, 38
44, 54
3, 9
5, 5
81, 80
333, 363
90, 94
8, 8
6, 5
40, 58
316, 340
93, 138
25, 38
64, 69
63, 71
26, 29
25, 21
4, 2
2, 8
8, 4
5, 1
5, 4
42, 69
87, 113
18, 17
17, 10
25, 14
3, 4
8, 2
1, 5
7, 8
13, 20
10, 7
13, 6
11, 12
8, 16
9, 9
8, 12
28, 30
36, 25
22, 9
10, 8
77, 45
117, 54
69, 21
19, 33
420, 532
1830, 2129
1419, 1187
183, 117
18, 22
11, 20
97, 119
289, 293
212, 180
29, 24
8, 5
13, 6
22, 11
10, 7
1, 4
4, 4
7, 4
5, 3
4, 4
2, 4
4, 2
6, 6
5, 3
4, 4
2, 6
2, 3
5, 2
6, 5
7, 6
8, 5
6, 5
3, 3
3, 4
4, 4
5, 6
2, 11
3, 8
3, 5
6, 4
0, 2
3, 3
6, 4
5, 6
4, 6
2, 8
2, 4
4, 1
4, 3
2, 1
6, 3
6, 2
14, 4
7, 1
0, 3
4, 2
2, 2
3, 2
1, 4
5, 4
2, 7
6, 8
2, 2
0, 2
1, 0
3, 0
2, 0
1, 2
0, 1
0, 1
1, 1
0, 3
1, 1
1, 2
1, 1
1, 2
2, 1
0, 1
2, 0
0, 1
1, 0
0, 0
0, 0
1, 2
2, 0
1, 0
0, 0
0, 1
0, 0
0, 0
0, 0
0, 0
0, 1
0, 0
0, 0
0, 0
0, 0
1, 0
0, 0
0, 0
0, 0
1, 0
0, 0
0, 1
2, 0
0, 0
0, 0
1, 0
0, 0
0, 0
0, 0
0, 0
0, 1
1, 0
0, 1
0, 1
0, 0
0, 0
0, 0
0, 0
1, 0
0, 0
0, 0
0, 0
0, 0
1, 0
0, 0
0, 0
0, 0
0, 1
0, 0
0, 0
1, 0
0, 0
0, 0
1, 0
0, 0
0, 0
0, 0
0, 0
0, 0
0, 0
0, 0
0, 0
0, 0
0, 0
0, 0
0, 0
0, 0
0, 0
0, 0
0, 0
0, 0
0, 0
0, 0
0, 0
0, 0
0, 0
0, 0
0, 0
0, 0
0, 0
0, 1
0, 0
0, 0
0, 0
0, 0
0, 0
0, 0
0, 0
0, 0
0, 0
0, 0
0, 0
0, 0
0, 0
0, 0
0, 0
0, 0
0, 0
0, 0
0, 0
0, 0
0, 0
0, 0
0, 0
0, 0
0, 0
0, 0
0, 0
0, 0
0, 0
0, 0
0, 0
0, 0
0, 0
0, 0
0, 0
0, 0
0, 0
0, 0
0, 0
0, 0
0, 0
0, 0
0, 0
0, 0
0, 0
0, 0
0, 0
0, 0
0, 0
0, 0
0, 0
0, 0
0, 0
0, 0
0, 0
0, 0
0, 0
0, 0
0, 0
0, 0
0, 0
0, 0
0, 0
0, 0
0, 0
0, 0
0, 0
0, 0
0, 0
0, 0
0, 0
0, 0
0, 0
0, 0
0, 0
#ENDOFDATA     end of spectrum data