File: host_upload/06-09-2024/ps_0852/dump3/ps__0852shot_2092.msa
#FORMAT      : EMSA/MAS spectral data file
#VERSION     : TC202v2.0 PIXL
#TITLE       : N/A
#DATE        :       Date in the format DD-MMM-YYYY, for example 07-JUL-2010
#TIME        :             The time of day at which the spectrum was recorded, in 24-hour format
#OWNER       : PIXL Flight Model       (PIXL will use this to indicate which instrument took the data.)
#NPOINTS     : 4096     Number of data points in the spectrum (This can be zero for configuration only files)
#NCOLUMNS    : 2     Number of data columns in the spectrum (This can be zero for configuration only files)
#XUNITS      : eV
#YUNITS      : COUNTS
#DATATYPE    : YY
#XPERCHAN    : 7.862, 7.881   eV per channel (separate by commas if more than one detector)
#OFFSET      : 18.5, -22.4         eV of first channel  (separate by commas if more than one detector
#SIGNALTYPE  : XRF
#YP_TEMP     : 2.62
#LIVETIME    : 8.56134, 8.55689   seconds (separate by commas if more than one detector)
#REALTIME    : 10, 10.0   seconds (separate by commas if more than one detector)
#SPECTRUM    : start of spectrum data
0, 0
0, 0
0, 0
0, 0
0, 0
0, 0
0, 0
0, 0
1, 0
0, 0
3, 4
43, 40
79, 66
6, 9
3, 3
98, 111
411, 383
116, 99
6, 3
1, 1
1, 2
4, 3
5, 4
9, 8
41, 68
56, 72
22, 29
20, 16
4, 6
6, 3
6, 2
2, 4
4, 4
16, 23
26, 14
12, 5
7, 9
8, 6
13, 13
13, 26
4, 5
8, 16
14, 16
14, 20
11, 25
4, 18
11, 8
11, 7
13, 9
21, 23
20, 18
13, 18
15, 18
34, 42
64, 69
34, 33
58, 43
475, 584
2239, 2274
1540, 1303
218, 131
20, 14
18, 22
110, 135
314, 335
229, 185
42, 42
12, 14
14, 15
12, 11
7, 13
5, 4
5, 5
7, 9
8, 7
9, 5
6, 7
10, 7
8, 10
4, 6
4, 3
1, 7
3, 5
6, 7
2, 6
6, 4
4, 1
4, 6
2, 5
5, 4
5, 10
2, 1
4, 4
0, 8
6, 6
5, 4
3, 2
0, 4
8, 4
2, 1
3, 1
4, 4
1, 1
1, 2
4, 0
1, 2
2, 1
0, 5
3, 1
2, 4
2, 2
1, 5
2, 0
0, 2
3, 2
1, 7
10, 3
7, 3
1, 2
1, 3
3, 1
1, 4
3, 1
2, 1
0, 0
6, 0
1, 3
0, 3
1, 2
3, 2
0, 3
1, 0
1, 2
1, 2
1, 0
1, 3
1, 2
0, 0
0, 1
0, 0
0, 0
0, 0
0, 0
1, 0
0, 0
0, 0
0, 2
0, 0
0, 1
0, 1
1, 1
0, 0
0, 1
0, 0
1, 0
0, 0
0, 0
0, 0
0, 0
0, 0
0, 0
0, 0
0, 0
1, 0
1, 0
0, 0
0, 1
0, 0
0, 0
0, 0
1, 0
0, 1
0, 0
0, 0
0, 0
0, 0
0, 1
0, 0
0, 0
0, 0
0, 0
0, 0
0, 0
0, 1
0, 1
0, 1
0, 0
0, 1
0, 0
0, 0
0, 0
0, 0
0, 0
0, 0
0, 0
0, 0
0, 0
0, 0
0, 0
0, 0
1, 0
0, 0
0, 0
0, 0
0, 1
0, 0
0, 0
0, 0
0, 0
0, 0
0, 0
0, 0
0, 0
0, 0
0, 0
0, 0
0, 0
0, 0
0, 0
0, 0
0, 0
0, 0
0, 0
0, 0
0, 0
0, 0
0, 0
0, 0
0, 0
0, 0
0, 0
0, 0
0, 0
0, 0
0, 0
0, 0
0, 0
0, 0
0, 0
0, 0
0, 0
0, 0
0, 0
0, 0
0, 0
0, 0
0, 0
0, 0
0, 0
0, 0
0, 0
0, 0
0, 0
0, 0
0, 0
0, 0
0, 0
0, 0
0, 0
0, 0
0, 0
0, 0
0, 0
0, 0
0, 0
0, 0
0, 0
0, 0
0, 0
0, 0
0, 0
0, 0
0, 0
0, 0
0, 0
0, 0
0, 0
0, 0
0, 0
0, 0
0, 0
0, 0
0, 0
0, 0
0, 0
0, 0
0, 0
0, 0
0, 0
0, 0
0, 0
0, 0
0, 0
0, 0
#ENDOFDATA     end of spectrum data