File: host_upload/06-09-2024/ps_0852/dump3/ps__0852shot_2249.msa
#FORMAT      : EMSA/MAS spectral data file
#VERSION     : TC202v2.0 PIXL
#TITLE       : N/A
#DATE        :       Date in the format DD-MMM-YYYY, for example 07-JUL-2010
#TIME        :             The time of day at which the spectrum was recorded, in 24-hour format
#OWNER       : PIXL Flight Model       (PIXL will use this to indicate which instrument took the data.)
#NPOINTS     : 4096     Number of data points in the spectrum (This can be zero for configuration only files)
#NCOLUMNS    : 2     Number of data columns in the spectrum (This can be zero for configuration only files)
#XUNITS      : eV
#YUNITS      : COUNTS
#DATATYPE    : YY
#XPERCHAN    : 7.862, 7.881   eV per channel (separate by commas if more than one detector)
#OFFSET      : 18.5, -22.4         eV of first channel  (separate by commas if more than one detector
#SIGNALTYPE  : XRF
#YP_TEMP     : 2.588
#LIVETIME    : 8.56292, 8.55433   seconds (separate by commas if more than one detector)
#REALTIME    : 10, 10.0   seconds (separate by commas if more than one detector)
#SPECTRUM    : start of spectrum data
0, 0
0, 0
0, 0
0, 0
0, 0
0, 0
0, 0
0, 0
1, 0
0, 1
5, 2
56, 49
57, 58
11, 3
6, 7
103, 90
467, 418
111, 94
3, 4
2, 1
0, 6
3, 5
4, 3
2, 8
30, 32
42, 29
15, 21
14, 8
8, 6
1, 3
4, 7
7, 3
11, 3
9, 5
10, 11
1, 6
3, 5
1, 3
3, 0
3, 1
4, 8
10, 12
13, 17
9, 6
4, 4
6, 10
5, 5
5, 21
3, 38
17, 34
17, 12
11, 3
29, 6
47, 39
78, 49
29, 22
38, 42
484, 609
2075, 2405
1648, 1465
204, 146
34, 19
30, 16
100, 122
344, 355
222, 203
34, 26
14, 13
21, 14
13, 7
4, 2
3, 2
1, 3
3, 7
1, 13
4, 12
6, 8
7, 3
2, 6
9, 1
6, 1
13, 6
23, 4
4, 5
5, 2
10, 1
4, 3
9, 3
2, 1
2, 2
4, 4
4, 1
4, 1
2, 2
4, 1
4, 2
2, 5
1, 5
2, 3
3, 1
5, 0
1, 4
2, 2
0, 3
1, 1
5, 2
1, 2
3, 2
1, 1
1, 1
1, 2
1, 0
1, 3
1, 1
5, 1
0, 4
7, 4
3, 2
3, 0
4, 2
1, 3
1, 0
4, 3
2, 0
1, 3
7, 2
0, 2
2, 3
0, 4
1, 0
1, 1
1, 0
2, 0
2, 1
0, 3
0, 0
2, 0
0, 1
0, 2
0, 0
0, 0
0, 0
0, 0
1, 1
0, 1
0, 0
0, 0
0, 0
0, 0
0, 0
0, 0
0, 0
0, 1
0, 0
0, 0
0, 1
0, 0
1, 1
0, 0
0, 0
0, 0
0, 0
0, 0
0, 0
0, 0
0, 0
0, 0
0, 1
0, 0
1, 0
0, 0
0, 0
1, 0
0, 1
0, 0
0, 0
0, 0
0, 0
0, 2
0, 0
0, 0
2, 0
0, 1
0, 0
0, 1
0, 0
0, 1
0, 0
0, 0
0, 0
0, 0
0, 1
0, 0
0, 0
0, 0
0, 0
0, 0
0, 0
0, 0
0, 0
0, 0
0, 0
0, 0
0, 0
0, 0
0, 0
0, 0
0, 0
0, 0
0, 0
0, 0
0, 0
0, 0
0, 0
0, 0
0, 0
0, 0
0, 0
0, 0
0, 0
0, 0
0, 0
0, 0
0, 0
0, 0
0, 0
0, 0
0, 0
0, 0
0, 0
0, 0
0, 0
0, 0
0, 0
0, 0
0, 0
0, 0
0, 0
0, 0
0, 0
0, 0
0, 0
0, 0
0, 0
0, 0
0, 0
0, 0
0, 0
0, 0
0, 0
0, 0
0, 0
0, 0
0, 0
0, 0
0, 0
0, 0
0, 0
0, 0
0, 0
0, 0
0, 0
0, 0
0, 0
0, 0
0, 0
0, 0
0, 0
0, 0
0, 0
0, 0
0, 0
0, 0
0, 0
0, 0
0, 0
0, 0
0, 0
0, 0
0, 0
0, 0
0, 0
0, 0
0, 0
0, 0
0, 0
0, 0
0, 0
0, 0
0, 0
0, 0
0, 0
0, 0
0, 0
#ENDOFDATA     end of spectrum data