File: host_upload/06-09-2024/ps_0852/dump3/ps__0852shot_2253.msa
#FORMAT      : EMSA/MAS spectral data file
#VERSION     : TC202v2.0 PIXL
#TITLE       : N/A
#DATE        :       Date in the format DD-MMM-YYYY, for example 07-JUL-2010
#TIME        :             The time of day at which the spectrum was recorded, in 24-hour format
#OWNER       : PIXL Flight Model       (PIXL will use this to indicate which instrument took the data.)
#NPOINTS     : 4096     Number of data points in the spectrum (This can be zero for configuration only files)
#NCOLUMNS    : 2     Number of data columns in the spectrum (This can be zero for configuration only files)
#XUNITS      : eV
#YUNITS      : COUNTS
#DATATYPE    : YY
#XPERCHAN    : 7.862, 7.881   eV per channel (separate by commas if more than one detector)
#OFFSET      : 18.5, -22.4         eV of first channel  (separate by commas if more than one detector
#SIGNALTYPE  : XRF
#YP_TEMP     : 2.3
#LIVETIME    : 8.56681, 8.55657   seconds (separate by commas if more than one detector)
#REALTIME    : 10, 10.0   seconds (separate by commas if more than one detector)
#SPECTRUM    : start of spectrum data
0, 0
0, 0
0, 0
0, 0
0, 0
0, 0
0, 0
0, 0
1, 0
1, 0
3, 2
44, 29
54, 52
11, 4
6, 3
129, 105
479, 430
101, 95
8, 4
1, 2
5, 2
10, 5
6, 4
15, 13
61, 70
49, 66
28, 34
17, 21
8, 2
2, 2
3, 5
16, 5
25, 6
49, 44
95, 59
14, 13
7, 13
21, 14
8, 11
5, 2
5, 1
17, 11
22, 14
33, 13
16, 7
8, 6
6, 5
11, 9
9, 12
25, 31
18, 36
13, 20
9, 11
41, 47
55, 50
31, 18
28, 36
471, 541
2233, 2144
1607, 1373
230, 180
35, 34
100, 31
264, 93
421, 309
247, 182
40, 20
8, 8
13, 16
9, 7
5, 4
5, 2
3, 3
7, 7
8, 4
3, 7
1, 1
1, 3
5, 2
8, 0
3, 4
3, 2
4, 4
6, 3
5, 4
6, 7
8, 3
5, 1
2, 3
8, 3
3, 4
4, 3
7, 9
3, 5
4, 2
4, 8
4, 5
3, 0
5, 0
4, 0
4, 1
5, 0
3, 2
3, 0
5, 1
1, 2
3, 1
1, 1
3, 0
2, 2
2, 6
4, 3
4, 1
5, 2
4, 4
4, 3
10, 1
4, 4
1, 1
4, 0
3, 2
1, 2
3, 0
3, 1
6, 3
0, 1
1, 1
1, 0
2, 2
0, 3
0, 2
2, 2
0, 3
1, 2
1, 1
0, 1
0, 0
0, 0
0, 2
0, 0
1, 0
1, 0
1, 3
1, 1
1, 0
2, 0
0, 0
0, 0
0, 0
1, 1
0, 0
1, 0
0, 1
1, 0
0, 0
0, 0
0, 1
0, 0
1, 0
0, 0
1, 0
2, 0
0, 0
0, 0
0, 0
0, 0
0, 0
1, 0
0, 0
0, 2
1, 0
0, 0
0, 0
0, 0
0, 1
0, 0
0, 0
1, 0
0, 1
0, 0
0, 0
0, 0
0, 0
0, 1
0, 0
0, 0
0, 0
0, 0
0, 1
0, 0
0, 0
0, 0
0, 0
0, 0
0, 0
0, 0
0, 0
0, 0
0, 0
0, 0
0, 0
0, 0
0, 0
0, 0
0, 0
1, 0
0, 0
0, 0
0, 0
0, 0
0, 0
0, 0
0, 0
0, 0
1, 0
0, 0
0, 0
0, 0
0, 0
0, 0
0, 0
0, 0
0, 0
0, 0
0, 0
0, 0
0, 0
0, 0
0, 0
0, 0
0, 0
0, 0
0, 0
0, 0
0, 0
0, 0
0, 0
0, 0
0, 0
0, 0
0, 0
0, 0
0, 0
0, 0
0, 0
0, 0
0, 0
0, 0
0, 0
0, 0
0, 0
0, 0
0, 0
0, 0
0, 0
0, 0
0, 0
0, 0
0, 0
0, 0
0, 0
0, 0
0, 0
0, 0
0, 0
0, 0
0, 0
0, 0
0, 0
0, 0
0, 0
0, 0
0, 0
0, 0
0, 0
0, 0
0, 0
0, 0
0, 0
0, 0
0, 0
0, 0
0, 0
0, 0
0, 0
0, 0
0, 0
0, 0
0, 0
0, 0
0, 0
0, 0
0, 0
0, 0
#ENDOFDATA     end of spectrum data