File: host_upload/06-09-2024/ps_0852/dump3/ps__0852shot_2036.msa
#FORMAT      : EMSA/MAS spectral data file
#VERSION     : TC202v2.0 PIXL
#TITLE       : N/A
#DATE        :       Date in the format DD-MMM-YYYY, for example 07-JUL-2010
#TIME        :             The time of day at which the spectrum was recorded, in 24-hour format
#OWNER       : PIXL Flight Model       (PIXL will use this to indicate which instrument took the data.)
#NPOINTS     : 4096     Number of data points in the spectrum (This can be zero for configuration only files)
#NCOLUMNS    : 2     Number of data columns in the spectrum (This can be zero for configuration only files)
#XUNITS      : eV
#YUNITS      : COUNTS
#DATATYPE    : YY
#XPERCHAN    : 7.862, 7.881   eV per channel (separate by commas if more than one detector)
#OFFSET      : 18.5, -22.4         eV of first channel  (separate by commas if more than one detector
#SIGNALTYPE  : XRF
#YP_TEMP     : 2.267
#LIVETIME    : 8.56248, 8.52   seconds (separate by commas if more than one detector)
#REALTIME    : 10, 10.0   seconds (separate by commas if more than one detector)
#SPECTRUM    : start of spectrum data
0, 0
0, 0
0, 0
0, 0
0, 0
0, 0
0, 0
0, 0
0, 1
3, 0
0, 1
44, 48
47, 45
2, 3
10, 3
78, 98
444, 370
121, 104
4, 6
2, 1
0, 1
4, 4
4, 6
9, 4
55, 31
84, 24
40, 16
21, 10
6, 5
1, 1
3, 3
1, 1
3, 5
13, 19
15, 28
4, 13
6, 0
4, 3
13, 5
4, 6
5, 3
14, 8
12, 11
9, 12
7, 7
6, 4
2, 7
5, 7
14, 15
15, 26
13, 69
12, 42
22, 13
51, 40
76, 43
26, 19
29, 39
451, 542
2287, 2134
1766, 1293
217, 135
23, 13
19, 19
117, 116
331, 347
269, 176
57, 26
17, 13
14, 14
10, 5
4, 1
3, 4
4, 3
5, 3
3, 4
3, 5
9, 1
6, 2
8, 4
13, 8
3, 7
1, 2
5, 2
3, 8
3, 6
2, 4
4, 6
6, 4
4, 4
9, 3
9, 2
14, 4
3, 1
0, 4
3, 2
2, 4
3, 3
3, 7
0, 2
3, 2
4, 4
3, 10
3, 2
8, 1
5, 2
2, 4
5, 1
1, 1
4, 3
1, 1
2, 0
2, 0
1, 4
1, 6
4, 2
2, 2
0, 4
4, 3
1, 1
3, 0
1, 1
3, 2
1, 1
2, 0
2, 0
1, 0
0, 0
2, 1
0, 3
2, 2
2, 0
0, 0
1, 2
0, 2
1, 0
0, 0
0, 4
1, 2
0, 2
1, 1
1, 3
1, 0
0, 2
1, 0
0, 0
1, 1
1, 1
0, 3
0, 0
0, 0
3, 2
0, 0
0, 1
0, 0
2, 0
0, 0
1, 0
0, 0
0, 0
0, 0
0, 0
1, 0
0, 1
0, 2
1, 0
0, 0
1, 0
0, 1
1, 0
1, 1
1, 0
0, 0
0, 0
0, 0
0, 0
0, 0
0, 0
0, 0
0, 1
0, 0
2, 0
0, 0
0, 0
1, 0
0, 0
0, 0
0, 0
0, 0
0, 0
0, 1
0, 0
0, 0
0, 0
0, 0
0, 0
0, 0
0, 0
0, 0
0, 0
0, 0
0, 0
0, 0
0, 0
0, 0
0, 0
0, 0
0, 0
0, 0
0, 0
0, 0
0, 0
0, 0
0, 0
0, 0
0, 0
0, 0
0, 0
0, 0
0, 0
0, 0
0, 0
0, 0
0, 0
0, 0
0, 0
0, 0
0, 0
0, 0
0, 0
0, 0
0, 0
0, 0
0, 0
0, 0
0, 0
0, 0
0, 0
0, 0
0, 0
0, 0
0, 0
0, 0
0, 0
0, 0
0, 0
0, 0
0, 0
0, 0
0, 0
0, 0
0, 0
0, 0
0, 0
0, 0
0, 0
0, 0
0, 0
0, 0
0, 0
0, 0
0, 0
0, 0
0, 0
0, 0
0, 0
0, 0
0, 0
0, 0
0, 0
0, 0
0, 0
0, 0
0, 0
0, 0
0, 0
0, 0
0, 0
0, 0
0, 0
0, 0
0, 0
0, 0
0, 0
0, 0
0, 0
0, 0
0, 0
0, 0
0, 0
0, 0
0, 0
0, 0
0, 0
0, 0
#ENDOFDATA     end of spectrum data