File: host_upload/06-09-2024/ps_0852/dump3/ps__0852shot_2306.msa
#FORMAT      : EMSA/MAS spectral data file
#VERSION     : TC202v2.0 PIXL
#TITLE       : N/A
#DATE        :       Date in the format DD-MMM-YYYY, for example 07-JUL-2010
#TIME        :             The time of day at which the spectrum was recorded, in 24-hour format
#OWNER       : PIXL Flight Model       (PIXL will use this to indicate which instrument took the data.)
#NPOINTS     : 4096     Number of data points in the spectrum (This can be zero for configuration only files)
#NCOLUMNS    : 2     Number of data columns in the spectrum (This can be zero for configuration only files)
#XUNITS      : eV
#YUNITS      : COUNTS
#DATATYPE    : YY
#XPERCHAN    : 7.862, 7.881   eV per channel (separate by commas if more than one detector)
#OFFSET      : 18.5, -22.4         eV of first channel  (separate by commas if more than one detector
#SIGNALTYPE  : XRF
#YP_TEMP     : 2.235
#LIVETIME    : 8.55769, 8.56562   seconds (separate by commas if more than one detector)
#REALTIME    : 10, 10.0   seconds (separate by commas if more than one detector)
#SPECTRUM    : start of spectrum data
0, 0
0, 0
0, 0
0, 0
0, 0
0, 0
0, 0
1, 0
0, 0
4, 0
0, 0
33, 48
43, 58
5, 8
6, 2
85, 96
429, 501
90, 106
8, 7
2, 1
1, 1
5, 7
3, 2
4, 3
38, 41
28, 31
25, 18
6, 14
2, 3
3, 6
0, 0
1, 2
6, 8
33, 20
32, 43
21, 6
32, 7
12, 5
7, 6
6, 6
7, 5
7, 11
20, 17
11, 7
10, 7
18, 8
10, 12
3, 29
7, 13
11, 18
20, 11
10, 8
11, 16
40, 45
65, 62
17, 19
19, 36
404, 619
1909, 2500
1416, 1446
170, 139
20, 14
19, 24
85, 133
309, 363
193, 203
27, 32
15, 10
11, 19
11, 7
8, 8
21, 2
19, 8
8, 10
3, 8
10, 6
6, 6
4, 2
8, 6
5, 6
2, 8
5, 6
5, 6
1, 5
1, 5
2, 2
3, 9
4, 4
2, 1
1, 2
4, 1
2, 7
6, 2
5, 6
3, 3
3, 4
4, 0
3, 4
1, 3
2, 4
3, 2
2, 5
4, 6
1, 3
1, 1
2, 3
3, 2
2, 2
1, 3
1, 0
2, 3
3, 1
2, 2
0, 2
2, 1
2, 8
7, 7
3, 5
2, 0
2, 2
2, 0
1, 2
3, 3
1, 0
2, 0
1, 3
1, 2
0, 1
1, 3
1, 0
1, 3
1, 1
0, 0
1, 3
0, 3
3, 0
1, 0
1, 1
0, 1
1, 1
1, 1
0, 1
0, 1
0, 0
0, 0
0, 1
1, 0
0, 0
0, 0
0, 1
0, 1
0, 0
0, 0
0, 0
0, 0
0, 3
0, 0
3, 0
1, 0
0, 0
0, 0
0, 1
1, 0
0, 1
1, 0
0, 0
0, 0
0, 0
1, 0
1, 0
0, 2
0, 0
0, 0
0, 0
0, 0
1, 0
0, 0
0, 0
0, 0
0, 0
0, 1
0, 1
0, 0
0, 0
0, 0
0, 0
0, 0
0, 0
0, 0
0, 0
0, 0
1, 0
0, 0
2, 0
0, 0
0, 0
0, 0
0, 0
0, 0
0, 0
0, 0
0, 0
0, 0
0, 0
0, 0
0, 0
0, 0
0, 0
0, 0
0, 0
0, 0
0, 0
0, 0
0, 0
0, 0
0, 0
0, 0
0, 0
0, 0
0, 0
0, 0
0, 0
0, 0
0, 0
0, 0
0, 0
0, 0
0, 0
0, 0
0, 0
0, 0
0, 0
0, 0
0, 0
0, 0
0, 0
0, 0
0, 0
0, 0
0, 0
0, 0
0, 0
0, 0
0, 0
0, 0
0, 0
0, 0
0, 0
0, 0
0, 0
0, 0
0, 0
0, 0
0, 0
0, 0
0, 0
0, 0
0, 0
0, 0
0, 0
0, 0
0, 0
0, 0
0, 0
0, 0
0, 0
0, 0
0, 0
0, 0
0, 0
0, 0
0, 0
0, 0
0, 0
0, 0
0, 0
0, 0
0, 0
0, 0
0, 0
0, 0
0, 0
0, 0
0, 0
0, 0
0, 0
0, 0
0, 0
0, 0
0, 0
0, 0
0, 0
0, 0
0, 0
#ENDOFDATA     end of spectrum data