File: host_upload/06-09-2024/ps_0852/dump3/ps__0852shot_2017.msa
#FORMAT      : EMSA/MAS spectral data file
#VERSION     : TC202v2.0 PIXL
#TITLE       : N/A
#DATE        :       Date in the format DD-MMM-YYYY, for example 07-JUL-2010
#TIME        :             The time of day at which the spectrum was recorded, in 24-hour format
#OWNER       : PIXL Flight Model       (PIXL will use this to indicate which instrument took the data.)
#NPOINTS     : 4096     Number of data points in the spectrum (This can be zero for configuration only files)
#NCOLUMNS    : 2     Number of data columns in the spectrum (This can be zero for configuration only files)
#XUNITS      : eV
#YUNITS      : COUNTS
#DATATYPE    : YY
#XPERCHAN    : 7.862, 7.881   eV per channel (separate by commas if more than one detector)
#OFFSET      : 18.5, -22.4         eV of first channel  (separate by commas if more than one detector
#SIGNALTYPE  : XRF
#YP_TEMP     : 2.396
#LIVETIME    : 8.57002, 8.36492   seconds (separate by commas if more than one detector)
#REALTIME    : 10, 10.0   seconds (separate by commas if more than one detector)
#SPECTRUM    : start of spectrum data
0, 0
0, 0
0, 0
0, 0
0, 0
0, 0
0, 0
0, 1
1, 0
0, 1
3, 4
45, 68
62, 49
7, 1
5, 4
94, 84
446, 423
110, 109
3, 9
1, 1
1, 3
10, 6
1, 4
6, 11
21, 28
26, 40
18, 23
21, 23
4, 8
2, 4
2, 2
3, 1
11, 6
34, 7
26, 9
3, 4
6, 8
6, 5
8, 6
8, 4
3, 6
8, 11
20, 19
17, 21
8, 14
3, 11
6, 10
5, 9
11, 12
16, 7
17, 22
9, 18
18, 12
34, 41
81, 70
66, 17
85, 37
532, 597
2061, 2269
1504, 1387
212, 143
22, 20
24, 28
87, 145
290, 368
253, 192
33, 21
9, 9
8, 19
5, 20
2, 11
6, 3
5, 3
14, 3
17, 2
4, 6
12, 10
3, 2
3, 2
3, 0
4, 2
3, 8
3, 3
2, 4
2, 5
5, 2
6, 5
13, 3
21, 6
6, 7
3, 1
7, 3
2, 7
5, 2
3, 2
2, 2
4, 3
1, 1
1, 5
0, 1
6, 3
2, 1
2, 2
2, 2
2, 4
2, 0
2, 2
0, 0
4, 2
1, 4
2, 2
2, 2
2, 2
3, 3
1, 5
5, 5
5, 4
3, 4
1, 0
4, 1
4, 1
1, 3
3, 3
3, 3
2, 1
0, 0
1, 2
0, 3
5, 0
1, 1
2, 1
0, 0
2, 1
0, 1
1, 1
0, 1
3, 1
1, 2
1, 0
0, 0
0, 0
0, 1
0, 1
0, 1
0, 0
0, 1
1, 0
0, 0
0, 1
0, 0
0, 0
1, 0
0, 0
0, 0
1, 1
1, 0
1, 0
0, 1
0, 1
0, 0
1, 0
0, 0
1, 0
0, 0
0, 0
1, 1
0, 0
1, 0
0, 0
0, 0
0, 0
0, 0
0, 0
0, 0
1, 0
0, 0
2, 0
0, 1
0, 0
0, 0
0, 0
0, 0
0, 0
0, 0
0, 0
0, 0
0, 0
1, 2
0, 0
0, 0
0, 0
0, 0
0, 0
0, 0
0, 0
0, 0
0, 0
0, 0
0, 0
0, 1
0, 0
0, 0
0, 0
0, 0
0, 0
0, 0
0, 0
0, 0
0, 0
0, 0
0, 0
0, 0
0, 0
0, 0
0, 0
0, 0
0, 0
0, 0
0, 0
0, 0
0, 0
0, 0
0, 0
0, 0
0, 0
0, 0
0, 0
0, 0
0, 0
0, 0
0, 0
0, 0
0, 0
0, 0
0, 0
0, 0
0, 0
0, 0
0, 0
0, 0
0, 0
0, 0
0, 0
0, 0
0, 0
0, 0
0, 0
0, 0
0, 0
0, 0
0, 0
0, 0
0, 0
0, 0
0, 0
0, 0
0, 0
0, 0
0, 0
0, 0
0, 0
0, 0
0, 0
0, 0
0, 0
0, 0
0, 0
0, 0
0, 0
0, 0
0, 0
0, 0
0, 0
0, 0
0, 0
0, 0
0, 0
0, 0
0, 0
0, 0
0, 0
0, 0
0, 0
0, 0
0, 0
0, 0
0, 0
0, 0
0, 0
0, 0
0, 0
0, 0
0, 0
0, 0
#ENDOFDATA     end of spectrum data