File: host_upload/06-09-2024/ps_0852/dump3/ps__0852shot_2485.msa
#FORMAT      : EMSA/MAS spectral data file
#VERSION     : TC202v2.0 PIXL
#TITLE       : N/A
#DATE        :       Date in the format DD-MMM-YYYY, for example 07-JUL-2010
#TIME        :             The time of day at which the spectrum was recorded, in 24-hour format
#OWNER       : PIXL Flight Model       (PIXL will use this to indicate which instrument took the data.)
#NPOINTS     : 4096     Number of data points in the spectrum (This can be zero for configuration only files)
#NCOLUMNS    : 2     Number of data columns in the spectrum (This can be zero for configuration only files)
#XUNITS      : eV
#YUNITS      : COUNTS
#DATATYPE    : YY
#XPERCHAN    : 7.862, 7.881   eV per channel (separate by commas if more than one detector)
#OFFSET      : 18.5, -22.4         eV of first channel  (separate by commas if more than one detector
#SIGNALTYPE  : XRF
#YP_TEMP     : 2.107
#LIVETIME    : 8.56907, 8.56539   seconds (separate by commas if more than one detector)
#REALTIME    : 10, 10.0   seconds (separate by commas if more than one detector)
#SPECTRUM    : start of spectrum data
0, 0
0, 0
0, 0
0, 0
0, 0
0, 0
0, 0
0, 0
1, 0
0, 1
2, 0
49, 50
53, 55
3, 7
3, 6
89, 88
413, 432
99, 102
3, 4
1, 2
3, 2
4, 8
2, 7
10, 11
49, 57
55, 43
28, 29
9, 14
4, 8
4, 5
5, 4
6, 4
9, 1
32, 24
40, 33
25, 12
94, 3
65, 7
11, 4
5, 2
6, 4
6, 12
10, 21
19, 8
23, 7
18, 7
8, 9
4, 8
5, 16
13, 13
21, 11
9, 6
9, 12
42, 40
50, 55
21, 15
25, 36
449, 540
2258, 2344
1554, 1372
195, 119
16, 10
27, 16
87, 105
325, 372
211, 222
31, 20
4, 7
9, 15
7, 11
4, 1
28, 4
51, 2
21, 9
8, 10
9, 10
6, 5
3, 5
3, 4
4, 3
3, 1
4, 5
8, 6
8, 2
3, 2
3, 2
9, 6
9, 3
5, 3
5, 2
5, 5
5, 3
4, 4
2, 5
2, 0
3, 2
1, 3
3, 7
2, 2
2, 1
3, 3
3, 3
4, 2
1, 1
0, 0
1, 7
1, 1
2, 3
8, 1
1, 3
2, 4
2, 1
1, 2
1, 2
2, 0
2, 4
5, 4
3, 1
2, 2
3, 1
0, 3
2, 2
1, 1
1, 1
0, 1
1, 0
1, 1
1, 2
1, 0
2, 1
2, 4
3, 1
2, 2
1, 0
1, 1
1, 0
1, 0
0, 0
2, 1
0, 1
2, 1
0, 0
1, 1
1, 0
0, 0
0, 1
0, 1
0, 1
0, 1
0, 0
0, 0
1, 1
3, 0
0, 0
0, 0
1, 1
0, 0
1, 0
1, 0
0, 0
1, 1
0, 0
0, 0
0, 0
0, 0
0, 1
1, 1
0, 0
0, 0
0, 1
0, 1
1, 0
0, 0
0, 0
0, 0
1, 0
0, 0
0, 0
0, 0
0, 0
0, 0
0, 0
0, 0
1, 0
0, 0
0, 0
0, 0
0, 0
0, 0
0, 0
1, 0
0, 0
0, 0
0, 1
0, 0
0, 0
0, 0
0, 0
0, 0
0, 0
0, 0
0, 0
0, 0
0, 0
0, 0
0, 0
0, 0
0, 0
0, 0
0, 0
0, 0
0, 0
0, 0
0, 0
0, 0
0, 0
0, 0
0, 0
0, 0
0, 0
0, 0
0, 0
0, 0
0, 0
0, 0
0, 0
0, 0
0, 0
0, 0
0, 0
0, 0
0, 0
0, 0
0, 0
0, 0
0, 0
0, 0
0, 0
0, 0
0, 0
0, 0
0, 0
0, 0
0, 0
0, 0
0, 0
0, 0
0, 0
0, 0
0, 0
0, 0
0, 0
0, 0
0, 0
0, 0
0, 0
0, 0
0, 0
0, 0
0, 0
0, 0
0, 0
0, 0
0, 0
0, 0
0, 0
0, 0
0, 0
0, 0
0, 0
0, 0
0, 0
0, 0
0, 0
0, 0
0, 0
0, 0
0, 0
0, 0
0, 0
0, 0
0, 0
0, 0
0, 0
0, 0
0, 0
0, 0
0, 0
0, 0
0, 0
0, 0
0, 0
0, 0
0, 0
#ENDOFDATA     end of spectrum data