File: host_upload/06-09-2024/ps_0852/dump3/ps__0852shot_2534.msa
#FORMAT      : EMSA/MAS spectral data file
#VERSION     : TC202v2.0 PIXL
#TITLE       : N/A
#DATE        :       Date in the format DD-MMM-YYYY, for example 07-JUL-2010
#TIME        :             The time of day at which the spectrum was recorded, in 24-hour format
#OWNER       : PIXL Flight Model       (PIXL will use this to indicate which instrument took the data.)
#NPOINTS     : 4096     Number of data points in the spectrum (This can be zero for configuration only files)
#NCOLUMNS    : 2     Number of data columns in the spectrum (This can be zero for configuration only files)
#XUNITS      : eV
#YUNITS      : COUNTS
#DATATYPE    : YY
#XPERCHAN    : 7.862, 7.881   eV per channel (separate by commas if more than one detector)
#OFFSET      : 18.5, -22.4         eV of first channel  (separate by commas if more than one detector
#SIGNALTYPE  : XRF
#YP_TEMP     : 2.332
#LIVETIME    : 8.56205, 8.55898   seconds (separate by commas if more than one detector)
#REALTIME    : 10, 10.0   seconds (separate by commas if more than one detector)
#SPECTRUM    : start of spectrum data
0, 0
0, 0
0, 0
0, 0
0, 0
0, 0
0, 0
1, 0
0, 0
2, 1
3, 2
33, 48
54, 60
3, 4
5, 3
92, 101
360, 428
93, 88
6, 4
3, 3
9, 13
101, 109
43, 40
15, 18
48, 52
41, 62
30, 27
18, 14
2, 6
1, 3
2, 3
1, 2
3, 2
11, 15
12, 14
9, 10
2, 5
9, 7
8, 4
2, 5
3, 5
8, 7
11, 11
17, 9
15, 11
9, 6
14, 5
6, 2
8, 6
12, 21
11, 23
5, 22
8, 12
30, 36
55, 55
26, 84
37, 195
483, 717
2133, 2444
1520, 1365
189, 156
17, 13
18, 14
106, 123
321, 378
207, 211
49, 34
14, 10
18, 15
7, 12
5, 12
4, 6
5, 4
7, 11
8, 5
4, 10
5, 7
1, 2
3, 1
3, 7
8, 2
2, 1
3, 3
4, 6
4, 5
7, 5
4, 1
1, 3
5, 2
6, 4
1, 3
7, 1
1, 5
4, 3
8, 3
2, 3
1, 2
2, 3
2, 2
2, 2
4, 4
2, 6
5, 2
1, 1
4, 1
1, 1
4, 3
2, 2
3, 0
2, 3
3, 1
1, 2
0, 4
1, 0
3, 2
1, 7
1, 10
4, 4
4, 3
1, 0
2, 1
2, 2
1, 0
4, 2
1, 1
1, 2
1, 3
1, 1
2, 1
0, 1
1, 0
1, 1
1, 3
2, 0
0, 1
0, 0
0, 2
0, 1
0, 1
1, 0
0, 1
0, 0
0, 3
0, 1
0, 2
0, 0
2, 0
0, 0
0, 0
0, 1
0, 0
0, 0
1, 0
0, 0
0, 0
0, 0
1, 0
0, 0
0, 1
1, 0
0, 0
0, 1
1, 0
1, 0
0, 0
0, 0
0, 0
1, 1
0, 0
0, 0
0, 0
1, 0
0, 1
0, 1
0, 0
0, 0
0, 0
0, 1
1, 0
1, 0
0, 0
1, 0
2, 1
0, 0
0, 0
0, 0
0, 0
0, 0
0, 0
0, 0
0, 0
0, 0
0, 1
0, 1
0, 0
0, 0
0, 0
0, 0
0, 0
0, 0
0, 0
0, 0
0, 0
0, 0
0, 0
0, 1
0, 0
0, 0
0, 0
0, 0
1, 0
0, 1
0, 0
0, 0
0, 0
0, 0
0, 0
0, 0
0, 0
0, 0
0, 0
0, 0
0, 0
0, 0
0, 0
0, 0
0, 0
0, 0
0, 0
0, 0
0, 0
0, 0
0, 0
0, 0
0, 0
0, 0
0, 0
0, 0
0, 0
0, 0
0, 0
0, 0
0, 0
0, 0
0, 0
0, 0
0, 0
0, 0
0, 0
0, 0
0, 0
0, 0
0, 0
0, 0
0, 0
0, 0
0, 0
0, 0
0, 0
0, 0
0, 0
0, 0
0, 0
0, 0
0, 0
0, 0
0, 0
0, 0
0, 0
0, 0
0, 0
0, 0
0, 0
0, 0
0, 0
0, 0
0, 0
0, 0
0, 0
0, 0
0, 0
0, 0
0, 0
0, 0
0, 0
0, 0
0, 0
0, 0
0, 0
0, 0
0, 0
0, 0
0, 0
0, 0
#ENDOFDATA     end of spectrum data