File: host_upload/06-09-2024/ps_0852/dump3/ps__0852shot_2524.msa
#FORMAT      : EMSA/MAS spectral data file
#VERSION     : TC202v2.0 PIXL
#TITLE       : N/A
#DATE        :       Date in the format DD-MMM-YYYY, for example 07-JUL-2010
#TIME        :             The time of day at which the spectrum was recorded, in 24-hour format
#OWNER       : PIXL Flight Model       (PIXL will use this to indicate which instrument took the data.)
#NPOINTS     : 4096     Number of data points in the spectrum (This can be zero for configuration only files)
#NCOLUMNS    : 2     Number of data columns in the spectrum (This can be zero for configuration only files)
#XUNITS      : eV
#YUNITS      : COUNTS
#DATATYPE    : YY
#XPERCHAN    : 7.862, 7.881   eV per channel (separate by commas if more than one detector)
#OFFSET      : 18.5, -22.4         eV of first channel  (separate by commas if more than one detector
#SIGNALTYPE  : XRF
#YP_TEMP     : 2.364
#LIVETIME    : 8.5446, 8.53877   seconds (separate by commas if more than one detector)
#REALTIME    : 10, 10.0   seconds (separate by commas if more than one detector)
#SPECTRUM    : start of spectrum data
0, 0
0, 0
0, 0
0, 0
0, 0
0, 0
0, 0
0, 0
0, 0
2, 1
2, 1
53, 56
64, 71
5, 3
5, 5
106, 88
416, 453
101, 107
5, 3
2, 1
2, 1
6, 11
7, 5
15, 8
31, 22
19, 22
19, 24
11, 6
8, 2
1, 3
2, 2
1, 1
2, 2
11, 17
10, 9
5, 7
3, 0
3, 1
2, 3
1, 3
2, 4
4, 13
14, 10
10, 13
6, 4
5, 10
4, 7
1, 5
12, 8
51, 9
124, 7
47, 6
15, 8
56, 30
103, 50
34, 24
32, 38
459, 594
2203, 2321
1611, 1365
175, 144
6, 10
18, 16
98, 128
376, 390
216, 205
38, 33
8, 9
12, 11
7, 13
2, 3
3, 12
6, 12
12, 5
2, 1
5, 6
4, 3
4, 3
9, 3
8, 5
14, 4
23, 3
14, 9
6, 17
4, 4
2, 5
3, 3
5, 7
0, 5
6, 2
7, 5
3, 2
5, 2
4, 4
2, 1
1, 3
3, 2
2, 4
4, 7
7, 3
10, 1
5, 2
3, 3
1, 1
2, 1
2, 4
0, 5
3, 5
1, 4
2, 1
2, 1
6, 2
1, 2
1, 1
2, 2
0, 2
8, 4
3, 2
3, 1
2, 1
2, 2
2, 2
4, 2
0, 0
1, 0
2, 2
2, 0
2, 1
1, 0
1, 1
2, 3
1, 0
1, 1
0, 0
0, 0
1, 1
1, 0
0, 1
1, 0
0, 1
0, 0
0, 1
0, 2
1, 0
1, 2
0, 0
1, 2
0, 0
2, 0
0, 2
1, 0
1, 2
0, 0
1, 2
1, 0
0, 0
1, 1
0, 0
0, 2
0, 0
1, 0
0, 0
2, 1
0, 0
0, 0
0, 0
0, 0
0, 0
1, 1
0, 0
0, 0
0, 0
0, 0
1, 0
0, 1
0, 0
1, 0
1, 0
0, 1
0, 1
0, 0
0, 0
1, 0
0, 0
0, 0
0, 0
0, 0
0, 0
0, 0
0, 0
1, 0
0, 0
0, 0
0, 0
1, 0
0, 0
0, 0
0, 0
0, 0
0, 0
0, 0
0, 0
0, 0
0, 0
0, 0
0, 0
0, 0
1, 0
0, 0
0, 0
0, 0
0, 0
0, 0
0, 0
0, 0
0, 0
0, 0
0, 0
0, 0
0, 0
0, 0
0, 0
0, 0
0, 0
0, 0
0, 0
0, 0
0, 0
0, 0
0, 0
0, 0
0, 0
0, 0
0, 0
0, 0
0, 0
0, 0
0, 0
0, 0
0, 0
0, 0
0, 0
0, 0
0, 0
0, 0
0, 0
0, 0
0, 0
0, 0
0, 0
0, 0
0, 0
0, 0
0, 0
0, 0
0, 0
0, 0
0, 0
0, 0
0, 0
0, 0
0, 0
0, 0
0, 0
0, 0
0, 0
0, 0
0, 0
0, 0
0, 0
0, 0
0, 0
0, 0
0, 0
0, 0
0, 0
0, 0
0, 0
0, 0
0, 0
0, 0
0, 0
0, 0
0, 0
0, 0
0, 0
0, 0
0, 0
0, 0
0, 0
0, 0
0, 0
0, 0
0, 0
#ENDOFDATA     end of spectrum data