File: host_upload/06-09-2024/ps_0852/dump3/ps__0852shot_2135.msa
#FORMAT      : EMSA/MAS spectral data file
#VERSION     : TC202v2.0 PIXL
#TITLE       : N/A
#DATE        :       Date in the format DD-MMM-YYYY, for example 07-JUL-2010
#TIME        :             The time of day at which the spectrum was recorded, in 24-hour format
#OWNER       : PIXL Flight Model       (PIXL will use this to indicate which instrument took the data.)
#NPOINTS     : 4096     Number of data points in the spectrum (This can be zero for configuration only files)
#NCOLUMNS    : 2     Number of data columns in the spectrum (This can be zero for configuration only files)
#XUNITS      : eV
#YUNITS      : COUNTS
#DATATYPE    : YY
#XPERCHAN    : 7.862, 7.881   eV per channel (separate by commas if more than one detector)
#OFFSET      : 18.5, -22.4         eV of first channel  (separate by commas if more than one detector
#SIGNALTYPE  : XRF
#YP_TEMP     : 2.396
#LIVETIME    : 8.5665, 8.55171   seconds (separate by commas if more than one detector)
#REALTIME    : 10, 10.0   seconds (separate by commas if more than one detector)
#SPECTRUM    : start of spectrum data
0, 0
0, 0
0, 0
0, 0
0, 0
0, 0
0, 0
0, 1
0, 0
0, 1
2, 3
53, 42
74, 46
8, 1
2, 3
111, 83
438, 383
126, 72
7, 4
2, 1
2, 0
4, 1
4, 4
11, 6
52, 36
66, 54
53, 22
48, 9
9, 6
3, 3
1, 1
3, 4
7, 9
12, 18
16, 16
5, 7
8, 9
9, 7
12, 4
7, 7
12, 7
26, 13
36, 22
19, 42
12, 23
6, 5
7, 11
8, 6
6, 18
14, 18
10, 16
12, 13
23, 17
71, 49
80, 62
27, 41
39, 35
490, 581
2280, 2209
1647, 1338
231, 146
31, 20
25, 19
100, 131
312, 368
207, 200
36, 24
16, 12
22, 14
13, 7
7, 6
7, 2
2, 3
5, 5
3, 9
9, 4
5, 10
6, 2
7, 7
4, 9
2, 4
5, 6
1, 6
5, 4
8, 4
4, 1
4, 3
8, 5
6, 3
3, 3
5, 2
6, 5
5, 4
2, 1
1, 0
4, 1
4, 3
2, 5
4, 3
5, 3
3, 1
3, 2
0, 3
2, 3
1, 4
4, 3
3, 4
3, 3
0, 5
4, 1
1, 1
3, 3
2, 1
1, 1
1, 3
5, 5
3, 3
6, 2
2, 2
4, 2
0, 1
1, 0
3, 1
4, 2
0, 1
0, 3
1, 4
2, 1
2, 2
1, 4
1, 0
2, 1
3, 2
0, 1
1, 2
0, 2
0, 1
0, 2
1, 0
2, 1
0, 0
0, 0
0, 0
1, 2
1, 0
0, 0
1, 1
0, 0
1, 0
2, 0
0, 0
1, 0
0, 0
0, 0
0, 0
0, 0
0, 1
1, 0
0, 0
1, 1
0, 0
0, 0
0, 0
1, 1
0, 0
1, 1
0, 1
0, 0
0, 0
0, 0
0, 0
0, 0
1, 0
0, 1
1, 0
0, 0
0, 1
0, 0
0, 0
0, 0
0, 0
0, 0
0, 1
0, 0
0, 0
0, 0
0, 0
0, 1
0, 0
0, 0
0, 0
0, 0
0, 0
0, 0
0, 0
0, 0
0, 0
0, 0
0, 0
0, 0
0, 0
0, 0
0, 1
0, 0
0, 0
0, 0
0, 0
0, 0
0, 0
0, 0
0, 0
0, 0
0, 0
0, 0
0, 0
0, 0
0, 0
0, 0
0, 0
0, 0
0, 0
0, 0
0, 0
0, 0
0, 0
0, 0
0, 0
0, 0
0, 0
0, 0
1, 0
0, 0
0, 0
0, 0
0, 0
0, 0
0, 0
0, 0
0, 0
0, 0
0, 0
0, 0
0, 0
0, 0
0, 0
0, 0
0, 0
0, 0
0, 0
0, 0
0, 0
0, 0
0, 0
0, 0
0, 0
0, 0
0, 0
0, 0
0, 0
0, 0
0, 0
0, 0
0, 0
0, 0
0, 0
0, 0
0, 0
0, 0
0, 0
0, 0
0, 0
0, 0
0, 0
0, 0
0, 0
0, 0
0, 0
0, 0
0, 0
0, 0
0, 0
0, 0
0, 0
0, 0
0, 0
0, 0
0, 0
0, 0
0, 0
0, 0
0, 0
0, 0
0, 0
0, 0
#ENDOFDATA     end of spectrum data