File: host_upload/06-09-2024/ps_0852/dump3/ps__0852shot_2510.msa
#FORMAT      : EMSA/MAS spectral data file
#VERSION     : TC202v2.0 PIXL
#TITLE       : N/A
#DATE        :       Date in the format DD-MMM-YYYY, for example 07-JUL-2010
#TIME        :             The time of day at which the spectrum was recorded, in 24-hour format
#OWNER       : PIXL Flight Model       (PIXL will use this to indicate which instrument took the data.)
#NPOINTS     : 4096     Number of data points in the spectrum (This can be zero for configuration only files)
#NCOLUMNS    : 2     Number of data columns in the spectrum (This can be zero for configuration only files)
#XUNITS      : eV
#YUNITS      : COUNTS
#DATATYPE    : YY
#XPERCHAN    : 7.862, 7.881   eV per channel (separate by commas if more than one detector)
#OFFSET      : 18.5, -22.4         eV of first channel  (separate by commas if more than one detector
#SIGNALTYPE  : XRF
#YP_TEMP     : 2.171
#LIVETIME    : 8.5663, 8.55001   seconds (separate by commas if more than one detector)
#REALTIME    : 10, 10.0   seconds (separate by commas if more than one detector)
#SPECTRUM    : start of spectrum data
0, 0
0, 0
0, 0
0, 0
0, 0
0, 0
0, 0
0, 0
0, 0
1, 1
3, 7
43, 36
65, 54
7, 5
3, 2
74, 88
445, 361
100, 79
3, 6
3, 5
20, 36
136, 168
60, 54
17, 15
68, 38
71, 35
21, 15
10, 14
7, 3
0, 4
1, 3
1, 4
3, 4
13, 16
12, 18
11, 6
15, 6
11, 6
6, 12
7, 11
3, 4
12, 13
12, 5
12, 27
7, 22
7, 4
9, 9
4, 9
9, 17
14, 26
14, 11
10, 23
12, 60
50, 81
54, 63
50, 23
89, 36
524, 567
2278, 2166
1666, 1352
187, 116
18, 14
19, 27
80, 133
306, 332
231, 198
32, 23
16, 10
12, 15
9, 11
5, 2
16, 4
11, 3
5, 9
10, 11
9, 12
29, 6
45, 3
27, 7
7, 5
5, 3
5, 1
5, 1
3, 1
6, 4
2, 5
3, 2
2, 5
2, 2
5, 2
5, 3
4, 2
6, 2
3, 4
5, 4
3, 2
6, 3
3, 4
3, 1
2, 5
2, 2
0, 2
5, 7
0, 3
3, 1
1, 6
1, 1
4, 2
4, 1
2, 2
2, 2
1, 1
4, 4
0, 2
1, 1
2, 0
3, 4
2, 3
6, 6
1, 3
2, 2
4, 0
3, 1
0, 0
0, 1
0, 0
0, 2
1, 1
0, 1
0, 2
1, 1
2, 1
3, 1
0, 0
2, 1
2, 1
0, 0
0, 0
0, 0
3, 0
0, 0
0, 1
2, 1
0, 0
3, 2
2, 1
0, 0
0, 1
0, 0
0, 0
0, 0
1, 0
0, 0
1, 0
0, 0
0, 2
0, 0
1, 0
0, 1
1, 0
0, 0
0, 2
0, 0
1, 1
0, 0
0, 0
1, 0
0, 0
0, 1
0, 2
0, 0
0, 0
0, 0
0, 1
1, 1
0, 1
0, 0
0, 0
0, 0
0, 0
1, 0
0, 0
0, 1
0, 0
0, 0
1, 0
0, 0
1, 0
0, 0
0, 0
0, 0
0, 0
0, 0
0, 0
0, 0
0, 0
0, 0
0, 0
0, 0
0, 0
0, 0
0, 0
0, 0
0, 0
0, 0
0, 0
0, 0
0, 0
0, 0
0, 0
0, 0
0, 0
0, 0
0, 0
0, 0
0, 0
0, 0
0, 0
0, 0
0, 0
0, 0
0, 0
0, 0
0, 0
0, 0
0, 0
0, 0
0, 0
0, 0
0, 0
0, 0
0, 0
0, 0
0, 0
0, 0
0, 0
0, 0
0, 0
0, 0
0, 0
0, 0
0, 1
0, 0
0, 0
0, 0
0, 0
0, 0
0, 0
0, 0
0, 0
0, 0
0, 0
0, 0
0, 0
0, 0
0, 0
0, 0
0, 0
0, 0
0, 0
0, 0
0, 0
0, 0
0, 0
0, 0
0, 0
0, 0
0, 0
0, 0
0, 0
0, 0
0, 0
0, 0
0, 0
0, 0
0, 0
0, 0
0, 0
0, 0
0, 0
0, 0
0, 0
0, 0
0, 0
0, 0
0, 0
0, 0
0, 0
0, 0
0, 0
0, 0
0, 0
0, 0
0, 0
#ENDOFDATA     end of spectrum data