File: host_upload/06-09-2024/ps_0852/dump3/ps__0852shot_2397.msa
#FORMAT      : EMSA/MAS spectral data file
#VERSION     : TC202v2.0 PIXL
#TITLE       : N/A
#DATE        :       Date in the format DD-MMM-YYYY, for example 07-JUL-2010
#TIME        :             The time of day at which the spectrum was recorded, in 24-hour format
#OWNER       : PIXL Flight Model       (PIXL will use this to indicate which instrument took the data.)
#NPOINTS     : 4096     Number of data points in the spectrum (This can be zero for configuration only files)
#NCOLUMNS    : 2     Number of data columns in the spectrum (This can be zero for configuration only files)
#XUNITS      : eV
#YUNITS      : COUNTS
#DATATYPE    : YY
#XPERCHAN    : 7.862, 7.881   eV per channel (separate by commas if more than one detector)
#OFFSET      : 18.5, -22.4         eV of first channel  (separate by commas if more than one detector
#SIGNALTYPE  : XRF
#YP_TEMP     : 2.107
#LIVETIME    : 8.57781, 8.56642   seconds (separate by commas if more than one detector)
#REALTIME    : 10, 10.0   seconds (separate by commas if more than one detector)
#SPECTRUM    : start of spectrum data
0, 0
0, 0
0, 0
0, 0
0, 0
0, 0
0, 0
0, 1
1, 5
3, 11
3, 4
27, 44
57, 54
4, 5
3, 6
93, 100
443, 478
106, 113
2, 4
3, 2
1, 2
4, 14
3, 7
8, 38
51, 420
39, 485
28, 51
8, 8
5, 6
9, 1
4, 2
2, 4
1, 5
5, 8
13, 12
5, 8
5, 1
10, 4
9, 15
23, 22
7, 5
4, 11
8, 19
24, 12
54, 8
23, 9
9, 6
7, 16
7, 50
16, 39
16, 16
15, 3
17, 12
35, 49
66, 57
29, 30
25, 34
501, 624
2124, 2440
1504, 1406
171, 140
26, 12
18, 19
101, 131
313, 390
233, 215
30, 19
9, 8
12, 15
13, 7
8, 4
2, 8
6, 14
10, 23
14, 14
3, 2
5, 3
0, 4
2, 0
3, 3
3, 7
4, 4
5, 7
3, 8
2, 19
2, 16
2, 8
3, 3
6, 1
2, 5
2, 1
14, 3
6, 3
2, 2
4, 4
1, 4
6, 7
3, 6
3, 4
1, 4
3, 4
2, 1
3, 1
2, 0
5, 1
1, 2
4, 4
2, 2
2, 8
2, 6
6, 4
3, 0
7, 2
3, 1
4, 2
1, 1
4, 8
4, 5
0, 5
0, 0
1, 2
0, 0
0, 1
1, 1
1, 1
1, 1
0, 0
1, 1
1, 0
0, 1
1, 2
2, 1
0, 2
1, 0
0, 1
0, 0
0, 0
0, 2
1, 1
0, 2
0, 0
1, 0
0, 0
1, 0
0, 0
0, 1
1, 1
0, 1
0, 0
1, 0
3, 0
0, 0
1, 0
0, 2
2, 1
1, 0
0, 0
1, 0
0, 0
0, 0
0, 0
1, 0
0, 1
1, 0
1, 0
2, 0
0, 1
0, 0
0, 0
0, 0
0, 0
0, 1
1, 0
1, 0
0, 0
1, 0
1, 0
0, 1
0, 0
0, 0
0, 1
0, 0
0, 0
0, 0
0, 0
0, 0
0, 0
0, 0
0, 0
0, 0
0, 0
0, 0
0, 0
0, 0
0, 0
0, 1
0, 0
0, 0
0, 0
0, 0
0, 0
0, 0
0, 0
0, 0
0, 0
0, 0
0, 0
0, 0
0, 0
0, 0
0, 0
0, 0
0, 0
0, 0
0, 0
0, 0
0, 0
0, 0
0, 0
0, 0
0, 0
0, 0
0, 0
0, 0
0, 0
0, 0
0, 0
0, 0
0, 0
0, 0
0, 0
0, 0
0, 0
0, 0
0, 0
0, 0
0, 0
0, 0
0, 0
0, 0
0, 0
0, 0
0, 0
0, 0
0, 0
0, 0
0, 0
0, 0
0, 0
0, 0
0, 0
0, 0
0, 0
0, 0
0, 0
0, 0
0, 0
0, 0
0, 0
0, 0
0, 0
0, 0
0, 0
0, 0
0, 0
0, 0
0, 0
0, 0
0, 0
0, 0
0, 0
0, 0
0, 0
0, 0
0, 0
0, 0
0, 0
0, 0
0, 0
0, 0
0, 0
0, 0
0, 0
0, 0
0, 0
0, 0
0, 0
0, 0
0, 0
0, 0
0, 0
0, 0
0, 0
0, 0
#ENDOFDATA     end of spectrum data