File: host_upload/06-09-2024/ps_0852/dump3/ps__0852shot_2433.msa
#FORMAT      : EMSA/MAS spectral data file
#VERSION     : TC202v2.0 PIXL
#TITLE       : N/A
#DATE        :       Date in the format DD-MMM-YYYY, for example 07-JUL-2010
#TIME        :             The time of day at which the spectrum was recorded, in 24-hour format
#OWNER       : PIXL Flight Model       (PIXL will use this to indicate which instrument took the data.)
#NPOINTS     : 4096     Number of data points in the spectrum (This can be zero for configuration only files)
#NCOLUMNS    : 2     Number of data columns in the spectrum (This can be zero for configuration only files)
#XUNITS      : eV
#YUNITS      : COUNTS
#DATATYPE    : YY
#XPERCHAN    : 7.862, 7.881   eV per channel (separate by commas if more than one detector)
#OFFSET      : 18.5, -22.4         eV of first channel  (separate by commas if more than one detector
#SIGNALTYPE  : XRF
#YP_TEMP     : 2.267
#LIVETIME    : 8.55818, 8.5628   seconds (separate by commas if more than one detector)
#REALTIME    : 10, 10.0   seconds (separate by commas if more than one detector)
#SPECTRUM    : start of spectrum data
0, 0
0, 0
0, 0
0, 0
0, 0
0, 0
0, 0
0, 0
1, 1
0, 0
2, 3
47, 31
65, 61
5, 6
5, 3
100, 104
466, 377
109, 100
7, 5
1, 0
4, 3
12, 20
9, 5
8, 2
35, 36
22, 32
18, 37
8, 17
11, 3
2, 4
1, 1
1, 1
5, 2
22, 34
62, 53
10, 9
9, 5
12, 28
4, 26
6, 9
3, 3
6, 15
20, 28
34, 32
45, 8
13, 8
5, 6
4, 4
10, 6
10, 12
9, 14
4, 8
7, 7
49, 37
58, 54
30, 17
36, 25
510, 504
2214, 2099
1634, 1266
234, 131
124, 18
109, 17
102, 98
322, 356
237, 209
21, 45
11, 18
11, 14
7, 3
1, 1
2, 8
3, 2
2, 5
4, 2
8, 4
11, 7
6, 7
1, 8
5, 4
3, 4
3, 4
1, 6
2, 3
9, 12
3, 28
3, 14
3, 5
7, 2
17, 4
33, 2
17, 1
2, 2
1, 1
4, 2
1, 3
2, 3
0, 2
2, 2
2, 1
3, 3
2, 1
5, 2
0, 3
2, 2
4, 3
5, 4
1, 3
2, 3
1, 0
2, 1
1, 3
0, 3
1, 2
2, 0
2, 1
5, 3
0, 2
2, 1
2, 5
2, 0
1, 5
2, 0
0, 2
0, 1
0, 2
0, 2
2, 0
1, 0
1, 0
0, 0
6, 2
2, 0
3, 0
1, 0
2, 2
0, 0
1, 0
2, 2
0, 3
0, 1
0, 0
0, 0
0, 0
1, 0
0, 0
2, 1
0, 0
0, 0
0, 1
0, 2
0, 0
0, 0
2, 1
0, 0
1, 0
0, 0
0, 0
0, 0
0, 0
0, 0
0, 1
1, 0
1, 0
1, 0
2, 0
0, 1
0, 0
0, 0
0, 0
0, 0
0, 0
0, 0
1, 0
0, 0
0, 0
0, 0
0, 0
0, 0
0, 0
0, 0
0, 0
1, 0
0, 0
0, 0
1, 0
1, 0
0, 0
0, 0
1, 0
0, 0
0, 0
1, 0
0, 0
0, 0
0, 0
0, 0
0, 0
0, 0
0, 0
0, 0
0, 0
0, 0
0, 0
0, 0
0, 1
0, 0
0, 0
0, 0
0, 0
0, 0
0, 0
0, 0
0, 0
0, 0
0, 0
0, 0
0, 0
0, 0
0, 0
0, 0
0, 0
0, 0
0, 0
0, 0
0, 0
0, 0
0, 0
0, 0
0, 0
0, 0
0, 0
0, 0
0, 0
0, 0
0, 0
0, 0
0, 0
0, 0
0, 0
0, 0
0, 0
0, 0
0, 0
0, 0
0, 0
0, 0
0, 0
0, 0
0, 0
0, 0
0, 0
0, 0
0, 0
0, 0
0, 0
0, 0
0, 0
0, 0
0, 0
0, 0
0, 0
0, 0
0, 0
0, 0
0, 0
0, 0
0, 0
0, 0
0, 0
0, 0
0, 0
0, 0
0, 0
0, 0
0, 0
0, 0
0, 0
0, 0
0, 0
0, 0
0, 0
0, 0
0, 0
0, 0
0, 0
0, 0
0, 0
0, 0
0, 0
0, 0
0, 0
0, 0
0, 0
#ENDOFDATA     end of spectrum data