File: host_upload/06-09-2024/ps_0852/dump3/ps__0852shot_2487.msa
#FORMAT      : EMSA/MAS spectral data file
#VERSION     : TC202v2.0 PIXL
#TITLE       : N/A
#DATE        :       Date in the format DD-MMM-YYYY, for example 07-JUL-2010
#TIME        :             The time of day at which the spectrum was recorded, in 24-hour format
#OWNER       : PIXL Flight Model       (PIXL will use this to indicate which instrument took the data.)
#NPOINTS     : 4096     Number of data points in the spectrum (This can be zero for configuration only files)
#NCOLUMNS    : 2     Number of data columns in the spectrum (This can be zero for configuration only files)
#XUNITS      : eV
#YUNITS      : COUNTS
#DATATYPE    : YY
#XPERCHAN    : 7.862, 7.881   eV per channel (separate by commas if more than one detector)
#OFFSET      : 18.5, -22.4         eV of first channel  (separate by commas if more than one detector
#SIGNALTYPE  : XRF
#YP_TEMP     : 2.46
#LIVETIME    : 8.55563, 8.55236   seconds (separate by commas if more than one detector)
#REALTIME    : 10, 10.0   seconds (separate by commas if more than one detector)
#SPECTRUM    : start of spectrum data
0, 0
0, 0
0, 0
0, 0
0, 0
0, 0
0, 0
0, 0
2, 1
2, 2
2, 2
24, 28
49, 33
5, 4
9, 7
97, 81
436, 384
101, 90
13, 9
3, 4
14, 9
87, 76
39, 47
12, 26
75, 94
64, 64
32, 31
13, 21
8, 6
7, 4
4, 7
5, 6
14, 13
197, 218
336, 381
50, 45
41, 39
57, 42
6, 8
5, 4
12, 0
21, 16
18, 13
46, 13
53, 4
20, 13
8, 8
9, 7
18, 20
68, 64
55, 46
13, 10
18, 9
38, 31
54, 59
32, 23
17, 27
374, 443
1873, 1910
1294, 1133
153, 118
18, 18
24, 18
90, 114
282, 277
220, 158
30, 17
19, 7
14, 19
8, 11
5, 2
3, 3
3, 4
1, 0
3, 7
5, 2
8, 1
9, 5
6, 5
3, 6
5, 3
5, 4
10, 1
19, 2
12, 2
8, 2
3, 1
6, 1
3, 5
3, 2
4, 6
3, 10
6, 8
4, 2
3, 3
0, 4
3, 5
2, 5
3, 6
2, 7
3, 5
4, 2
4, 1
3, 6
2, 2
1, 1
5, 5
4, 2
4, 0
2, 2
4, 4
6, 2
1, 3
2, 4
2, 5
1, 4
1, 3
4, 4
1, 0
1, 0
4, 0
0, 3
3, 3
0, 0
3, 1
0, 0
1, 1
2, 1
0, 0
0, 0
0, 0
1, 1
2, 0
2, 1
0, 1
0, 3
2, 0
1, 1
0, 0
3, 0
3, 0
2, 0
1, 1
0, 1
1, 0
0, 1
1, 2
0, 2
0, 1
2, 0
1, 0
1, 0
0, 1
1, 0
0, 0
1, 1
0, 1
0, 0
0, 0
2, 0
1, 0
0, 0
0, 0
1, 0
0, 1
0, 0
0, 0
0, 0
0, 0
0, 1
1, 0
1, 0
0, 0
0, 0
0, 0
0, 0
0, 1
0, 0
0, 0
0, 0
0, 0
0, 0
0, 0
0, 0
0, 0
0, 0
0, 0
0, 0
0, 0
0, 0
0, 0
0, 0
0, 0
0, 0
0, 1
0, 0
0, 0
1, 0
0, 0
0, 0
0, 0
0, 0
0, 0
0, 0
0, 0
0, 0
0, 0
0, 0
0, 0
0, 0
0, 1
0, 0
0, 0
0, 1
0, 0
0, 0
0, 0
0, 0
0, 0
0, 0
0, 0
0, 0
0, 0
0, 0
0, 0
0, 0
0, 0
1, 0
0, 0
0, 0
0, 0
0, 0
0, 0
0, 0
0, 0
0, 0
0, 0
0, 0
0, 0
0, 0
0, 0
0, 0
0, 0
0, 0
0, 0
0, 0
0, 0
0, 0
0, 0
0, 0
0, 0
0, 0
0, 0
0, 0
0, 0
0, 0
0, 0
0, 0
0, 0
0, 0
0, 0
0, 0
0, 0
0, 0
0, 0
0, 0
0, 0
0, 0
0, 0
0, 0
0, 0
0, 0
0, 0
0, 0
0, 0
0, 0
0, 0
0, 0
0, 0
0, 0
0, 0
0, 0
0, 0
0, 0
0, 0
0, 0
0, 0
0, 0
0, 0
0, 0
0, 0
0, 0
0, 0
0, 0
#ENDOFDATA     end of spectrum data