File: host_upload/06-09-2024/ps_0852/dump3/ps__0852shot_2406.msa
#FORMAT      : EMSA/MAS spectral data file
#VERSION     : TC202v2.0 PIXL
#TITLE       : N/A
#DATE        :       Date in the format DD-MMM-YYYY, for example 07-JUL-2010
#TIME        :             The time of day at which the spectrum was recorded, in 24-hour format
#OWNER       : PIXL Flight Model       (PIXL will use this to indicate which instrument took the data.)
#NPOINTS     : 4096     Number of data points in the spectrum (This can be zero for configuration only files)
#NCOLUMNS    : 2     Number of data columns in the spectrum (This can be zero for configuration only files)
#XUNITS      : eV
#YUNITS      : COUNTS
#DATATYPE    : YY
#XPERCHAN    : 7.862, 7.881   eV per channel (separate by commas if more than one detector)
#OFFSET      : 18.5, -22.4         eV of first channel  (separate by commas if more than one detector
#SIGNALTYPE  : XRF
#YP_TEMP     : 2.524
#LIVETIME    : 8.56934, 8.55911   seconds (separate by commas if more than one detector)
#REALTIME    : 10, 10.0   seconds (separate by commas if more than one detector)
#SPECTRUM    : start of spectrum data
0, 0
0, 0
0, 0
0, 0
0, 0
0, 0
0, 0
0, 0
0, 2
1, 9
0, 5
46, 49
49, 69
1, 4
2, 2
92, 91
429, 450
106, 95
8, 7
1, 1
5, 0
7, 5
4, 11
14, 35
26, 313
41, 391
18, 49
5, 13
5, 4
2, 2
2, 2
2, 2
4, 2
12, 10
12, 10
19, 7
109, 5
122, 13
10, 137
3, 241
4, 45
8, 13
12, 17
12, 15
13, 7
5, 17
3, 21
7, 10
2, 6
8, 18
25, 11
62, 11
45, 10
59, 87
52, 69
19, 18
27, 35
473, 581
2161, 2172
1675, 1344
203, 124
18, 19
21, 25
109, 116
330, 329
225, 175
31, 27
7, 31
8, 25
13, 16
7, 3
4, 4
6, 6
12, 8
13, 6
8, 7
4, 4
5, 10
2, 10
2, 6
7, 2
6, 14
8, 7
5, 3
3, 3
9, 5
4, 1
8, 1
3, 1
2, 5
2, 4
2, 6
4, 7
3, 1
2, 0
12, 3
9, 4
10, 3
5, 1
3, 1
3, 4
0, 1
1, 3
1, 4
5, 4
1, 2
0, 3
2, 9
5, 2
5, 2
2, 2
1, 1
3, 0
1, 2
2, 2
1, 3
5, 4
4, 1
2, 2
2, 2
1, 2
1, 2
4, 1
1, 1
2, 1
2, 0
1, 0
0, 0
3, 1
1, 0
0, 0
0, 3
2, 2
1, 0
0, 0
2, 1
2, 2
0, 1
1, 0
3, 2
0, 1
0, 1
0, 0
2, 0
0, 0
0, 1
1, 1
0, 0
0, 0
1, 1
0, 0
0, 0
0, 0
0, 1
0, 0
0, 0
0, 0
1, 0
0, 0
0, 0
0, 0
1, 0
0, 0
0, 0
0, 0
0, 0
0, 1
2, 0
1, 0
1, 1
0, 0
0, 0
2, 1
0, 0
0, 0
0, 0
0, 0
0, 0
1, 0
0, 0
0, 0
0, 0
0, 1
0, 0
0, 0
0, 0
0, 0
0, 1
0, 0
0, 0
0, 0
0, 0
0, 0
1, 0
0, 0
0, 0
0, 0
0, 0
0, 0
0, 0
0, 0
0, 0
0, 0
0, 0
1, 0
0, 0
0, 0
0, 0
0, 0
0, 0
0, 0
0, 0
0, 0
0, 0
0, 0
0, 0
0, 0
0, 0
0, 0
0, 0
0, 0
0, 0
0, 0
0, 0
0, 0
0, 0
0, 0
0, 0
0, 0
0, 0
0, 0
0, 0
0, 0
0, 0
0, 0
0, 0
0, 0
0, 0
0, 0
0, 0
0, 0
0, 0
0, 0
0, 0
0, 0
0, 0
0, 0
0, 0
0, 0
0, 0
0, 0
0, 0
0, 0
0, 0
0, 0
0, 0
0, 0
0, 0
0, 0
0, 0
0, 0
0, 0
0, 0
0, 0
0, 0
0, 0
0, 0
0, 0
0, 0
0, 0
0, 0
0, 0
0, 0
0, 0
0, 0
0, 0
0, 0
0, 0
0, 0
0, 0
0, 0
0, 0
0, 0
0, 0
0, 0
0, 0
0, 0
0, 0
0, 0
0, 0
0, 0
0, 0
0, 0
0, 0
#ENDOFDATA     end of spectrum data