File: host_upload/06-09-2024/ps_0852/dump3/ps__0852shot_2015.msa
#FORMAT      : EMSA/MAS spectral data file
#VERSION     : TC202v2.0 PIXL
#TITLE       : N/A
#DATE        :       Date in the format DD-MMM-YYYY, for example 07-JUL-2010
#TIME        :             The time of day at which the spectrum was recorded, in 24-hour format
#OWNER       : PIXL Flight Model       (PIXL will use this to indicate which instrument took the data.)
#NPOINTS     : 4096     Number of data points in the spectrum (This can be zero for configuration only files)
#NCOLUMNS    : 2     Number of data columns in the spectrum (This can be zero for configuration only files)
#XUNITS      : eV
#YUNITS      : COUNTS
#DATATYPE    : YY
#XPERCHAN    : 7.862, 7.881   eV per channel (separate by commas if more than one detector)
#OFFSET      : 18.5, -22.4         eV of first channel  (separate by commas if more than one detector
#SIGNALTYPE  : XRF
#YP_TEMP     : 2.588
#LIVETIME    : 8.53784, 8.57299   seconds (separate by commas if more than one detector)
#REALTIME    : 10, 10.0   seconds (separate by commas if more than one detector)
#SPECTRUM    : start of spectrum data
0, 0
0, 0
0, 0
0, 0
0, 0
0, 0
0, 0
1, 0
0, 0
1, 0
1, 0
40, 43
55, 57
4, 8
3, 1
71, 120
358, 448
100, 105
4, 4
2, 2
2, 6
17, 12
6, 6
7, 16
30, 31
31, 38
22, 38
10, 17
3, 4
1, 0
1, 1
2, 1
5, 4
11, 17
11, 21
3, 5
5, 6
5, 11
1, 36
5, 22
1, 5
17, 10
36, 17
40, 27
9, 10
6, 12
6, 8
7, 8
6, 14
15, 21
8, 17
4, 11
9, 9
40, 32
49, 58
21, 18
29, 38
472, 613
2063, 2443
1465, 1516
204, 190
56, 36
63, 23
102, 151
307, 411
206, 239
36, 32
8, 18
11, 9
9, 13
2, 5
4, 4
6, 3
3, 3
5, 4
8, 6
8, 9
3, 5
4, 5
1, 5
5, 5
1, 7
3, 7
3, 10
5, 17
6, 14
6, 10
1, 5
2, 4
12, 3
17, 1
6, 4
1, 4
5, 5
1, 4
2, 1
5, 3
3, 1
2, 3
3, 1
4, 1
3, 1
1, 1
6, 4
2, 0
1, 3
1, 3
2, 2
1, 6
1, 1
3, 1
0, 1
1, 1
3, 4
0, 1
1, 2
1, 9
3, 3
2, 2
1, 1
2, 3
2, 3
2, 0
0, 1
3, 2
2, 1
0, 1
1, 0
1, 1
2, 0
0, 1
1, 2
1, 2
0, 0
1, 0
1, 0
1, 0
0, 1
2, 1
1, 2
0, 2
1, 0
0, 0
0, 0
0, 0
0, 0
0, 0
1, 1
1, 0
0, 0
0, 1
0, 0
1, 0
0, 1
1, 0
0, 0
0, 0
0, 0
1, 1
0, 1
0, 0
1, 0
1, 0
0, 0
0, 0
0, 0
0, 0
0, 1
2, 1
0, 0
1, 0
0, 1
0, 0
1, 0
0, 0
0, 1
0, 0
0, 0
0, 0
0, 0
0, 0
0, 1
0, 0
0, 0
0, 0
0, 0
0, 0
1, 0
0, 0
0, 0
0, 0
0, 0
0, 0
0, 0
0, 0
0, 0
0, 0
0, 0
0, 0
0, 0
0, 0
0, 0
0, 0
0, 0
0, 0
0, 0
0, 0
0, 0
0, 0
0, 0
0, 0
0, 0
0, 0
0, 0
0, 0
0, 0
0, 0
0, 0
0, 0
0, 0
0, 0
0, 0
0, 0
0, 0
0, 0
0, 0
0, 0
0, 0
0, 0
0, 0
0, 0
0, 0
0, 0
0, 0
0, 0
0, 0
0, 0
0, 0
0, 0
0, 0
0, 0
0, 0
0, 0
0, 0
0, 0
0, 0
0, 0
0, 0
0, 0
0, 0
0, 0
0, 0
0, 0
0, 0
0, 0
0, 0
0, 0
0, 0
0, 0
0, 0
0, 0
0, 0
0, 0
0, 0
0, 0
0, 0
0, 0
0, 0
0, 0
0, 0
0, 0
0, 0
0, 0
0, 0
0, 0
0, 0
0, 0
0, 0
0, 0
0, 0
0, 0
0, 0
0, 0
0, 0
0, 0
0, 0
0, 0
0, 0
0, 0
0, 0
0, 0
0, 0
0, 0
0, 0
#ENDOFDATA     end of spectrum data