File: host_upload/06-09-2024/ps_0852/dump3/ps__0852shot_2038.msa
#FORMAT      : EMSA/MAS spectral data file
#VERSION     : TC202v2.0 PIXL
#TITLE       : N/A
#DATE        :       Date in the format DD-MMM-YYYY, for example 07-JUL-2010
#TIME        :             The time of day at which the spectrum was recorded, in 24-hour format
#OWNER       : PIXL Flight Model       (PIXL will use this to indicate which instrument took the data.)
#NPOINTS     : 4096     Number of data points in the spectrum (This can be zero for configuration only files)
#NCOLUMNS    : 2     Number of data columns in the spectrum (This can be zero for configuration only files)
#XUNITS      : eV
#YUNITS      : COUNTS
#DATATYPE    : YY
#XPERCHAN    : 7.862, 7.881   eV per channel (separate by commas if more than one detector)
#OFFSET      : 18.5, -22.4         eV of first channel  (separate by commas if more than one detector
#SIGNALTYPE  : XRF
#YP_TEMP     : 2.3
#LIVETIME    : 8.5543, 8.5238   seconds (separate by commas if more than one detector)
#REALTIME    : 10, 10.0   seconds (separate by commas if more than one detector)
#SPECTRUM    : start of spectrum data
0, 0
0, 0
0, 0
0, 0
0, 0
0, 0
0, 0
0, 0
0, 1
1, 3
2, 1
31, 39
42, 67
5, 6
7, 5
71, 97
403, 382
84, 90
5, 4
2, 0
2, 1
6, 5
6, 8
10, 15
41, 67
35, 92
28, 31
20, 11
7, 6
0, 2
0, 3
2, 4
3, 2
9, 12
17, 13
7, 3
3, 4
7, 5
2, 5
2, 6
2, 4
9, 4
9, 12
10, 13
4, 5
9, 6
4, 12
7, 9
14, 10
21, 21
11, 15
30, 7
71, 12
61, 36
57, 53
29, 14
30, 48
494, 622
1971, 2363
1511, 1448
209, 130
20, 18
22, 24
105, 135
332, 325
230, 220
31, 20
9, 8
11, 22
12, 9
13, 6
11, 4
2, 2
10, 6
7, 8
4, 2
1, 2
5, 6
4, 8
7, 7
2, 6
3, 1
3, 3
5, 4
7, 5
1, 9
0, 7
1, 5
0, 6
0, 4
1, 3
4, 2
5, 7
1, 4
2, 3
1, 4
1, 3
1, 3
4, 4
2, 3
2, 1
2, 3
2, 3
4, 6
2, 2
3, 2
2, 1
2, 2
4, 2
2, 2
4, 3
1, 1
1, 1
3, 2
1, 0
0, 3
2, 7
3, 1
2, 2
0, 1
1, 5
0, 2
2, 0
1, 2
3, 0
0, 1
1, 1
2, 0
0, 1
1, 1
2, 0
0, 0
0, 3
1, 0
1, 1
0, 1
1, 1
2, 0
0, 1
1, 0
0, 0
0, 2
0, 0
0, 0
0, 0
2, 0
1, 0
0, 1
0, 1
0, 0
0, 1
0, 0
0, 0
0, 0
0, 0
1, 0
0, 0
0, 0
0, 0
0, 0
0, 0
1, 0
0, 0
0, 0
0, 1
0, 0
0, 0
2, 1
2, 0
0, 1
0, 0
0, 0
0, 1
1, 1
0, 0
0, 0
0, 0
0, 0
0, 0
0, 0
0, 0
0, 0
0, 0
1, 0
0, 0
0, 0
0, 1
0, 0
0, 0
1, 0
0, 0
0, 0
0, 1
0, 0
0, 0
1, 0
0, 0
0, 0
0, 0
0, 0
0, 0
0, 0
0, 0
2, 0
0, 0
0, 0
0, 0
0, 1
0, 0
0, 0
0, 0
0, 0
0, 0
0, 0
0, 0
0, 0
0, 0
0, 0
0, 0
0, 0
0, 0
0, 0
0, 0
0, 0
0, 0
0, 0
0, 0
0, 0
0, 0
0, 0
0, 0
0, 0
0, 0
0, 0
0, 0
0, 0
0, 0
0, 0
0, 0
0, 0
0, 0
0, 0
0, 0
0, 0
0, 0
0, 0
0, 0
0, 0
0, 0
0, 0
0, 0
0, 0
0, 0
0, 0
0, 0
0, 0
0, 0
0, 0
0, 0
0, 0
0, 0
0, 0
0, 0
0, 0
0, 0
0, 0
0, 0
0, 0
0, 0
0, 0
0, 0
0, 0
0, 0
0, 0
0, 0
0, 0
0, 0
0, 0
0, 0
0, 0
0, 0
0, 0
0, 0
0, 0
0, 0
0, 0
0, 0
0, 0
0, 0
0, 0
0, 0
0, 0
0, 0
0, 0
#ENDOFDATA     end of spectrum data