File: host_upload/06-09-2024/ps_0852/dump3/ps__0852shot_2511.msa
#FORMAT      : EMSA/MAS spectral data file
#VERSION     : TC202v2.0 PIXL
#TITLE       : N/A
#DATE        :       Date in the format DD-MMM-YYYY, for example 07-JUL-2010
#TIME        :             The time of day at which the spectrum was recorded, in 24-hour format
#OWNER       : PIXL Flight Model       (PIXL will use this to indicate which instrument took the data.)
#NPOINTS     : 4096     Number of data points in the spectrum (This can be zero for configuration only files)
#NCOLUMNS    : 2     Number of data columns in the spectrum (This can be zero for configuration only files)
#XUNITS      : eV
#YUNITS      : COUNTS
#DATATYPE    : YY
#XPERCHAN    : 7.862, 7.881   eV per channel (separate by commas if more than one detector)
#OFFSET      : 18.5, -22.4         eV of first channel  (separate by commas if more than one detector
#SIGNALTYPE  : XRF
#YP_TEMP     : 2.492
#LIVETIME    : 8.54797, 8.57539   seconds (separate by commas if more than one detector)
#REALTIME    : 10, 10.0   seconds (separate by commas if more than one detector)
#SPECTRUM    : start of spectrum data
0, 0
0, 0
0, 0
0, 0
0, 0
0, 0
0, 0
0, 0
0, 1
1, 2
1, 1
47, 41
64, 56
6, 2
1, 8
103, 85
416, 382
106, 73
6, 6
1, 0
9, 16
94, 96
31, 38
14, 15
34, 32
38, 43
17, 24
12, 9
10, 4
3, 0
1, 3
3, 1
1, 3
7, 11
18, 12
3, 3
9, 8
8, 11
11, 27
3, 15
9, 10
7, 6
14, 21
18, 49
10, 35
6, 3
9, 7
8, 6
14, 10
17, 18
14, 12
10, 18
8, 44
51, 58
55, 59
69, 30
153, 44
567, 552
2262, 2301
1675, 1308
196, 142
14, 13
30, 21
101, 131
333, 362
238, 174
30, 23
14, 9
13, 13
8, 10
7, 6
3, 5
5, 7
2, 3
2, 10
11, 12
30, 5
47, 3
26, 4
6, 4
4, 2
4, 9
7, 1
5, 8
5, 4
3, 7
4, 5
6, 6
1, 1
5, 3
3, 1
1, 3
4, 3
4, 3
4, 2
1, 3
1, 0
3, 3
2, 4
2, 2
3, 0
3, 0
3, 2
1, 5
3, 5
1, 2
3, 3
2, 1
2, 0
3, 1
2, 3
1, 0
2, 2
1, 0
3, 3
4, 3
8, 4
2, 7
2, 1
3, 1
2, 0
3, 0
2, 1
2, 1
0, 1
0, 1
0, 0
2, 2
0, 1
0, 2
0, 1
1, 2
0, 2
2, 0
1, 1
0, 1
0, 0
0, 1
0, 0
0, 0
0, 0
2, 2
1, 0
0, 1
0, 0
0, 0
1, 0
0, 0
0, 1
0, 0
0, 0
1, 1
0, 0
0, 0
0, 1
0, 0
1, 0
0, 0
0, 0
0, 0
0, 1
1, 0
0, 2
1, 0
0, 1
0, 0
0, 0
0, 0
0, 0
0, 0
1, 0
1, 0
0, 0
0, 0
0, 0
1, 0
1, 0
0, 0
0, 0
0, 0
0, 0
0, 0
0, 0
0, 0
0, 0
0, 0
1, 0
0, 0
0, 0
0, 0
0, 0
0, 0
0, 0
0, 0
0, 0
0, 0
0, 0
0, 0
0, 0
0, 0
0, 0
0, 0
0, 0
1, 0
0, 0
0, 0
0, 0
0, 0
0, 0
0, 0
0, 0
0, 0
1, 0
0, 0
0, 0
0, 0
0, 0
0, 0
0, 0
0, 0
0, 0
0, 0
0, 0
0, 0
0, 0
0, 0
0, 0
0, 0
0, 0
0, 0
0, 0
0, 0
0, 0
0, 0
0, 0
0, 0
0, 0
0, 0
0, 0
0, 0
0, 0
0, 0
0, 0
0, 0
0, 0
0, 0
0, 0
0, 0
0, 0
0, 0
0, 0
0, 0
0, 0
0, 0
0, 0
0, 0
0, 0
0, 0
0, 0
0, 0
0, 0
0, 0
0, 0
0, 0
0, 0
0, 0
0, 0
0, 0
0, 0
0, 0
0, 0
0, 0
0, 0
0, 0
0, 0
0, 0
0, 0
0, 0
0, 0
0, 0
0, 0
0, 0
0, 0
0, 0
0, 0
0, 0
0, 0
0, 0
0, 0
0, 0
0, 0
0, 0
0, 0
0, 0
#ENDOFDATA     end of spectrum data