File: host_upload/06-09-2024/ps_0852/dump3/ps__0852shot_2378.msa
#FORMAT      : EMSA/MAS spectral data file
#VERSION     : TC202v2.0 PIXL
#TITLE       : N/A
#DATE        :       Date in the format DD-MMM-YYYY, for example 07-JUL-2010
#TIME        :             The time of day at which the spectrum was recorded, in 24-hour format
#OWNER       : PIXL Flight Model       (PIXL will use this to indicate which instrument took the data.)
#NPOINTS     : 4096     Number of data points in the spectrum (This can be zero for configuration only files)
#NCOLUMNS    : 2     Number of data columns in the spectrum (This can be zero for configuration only files)
#XUNITS      : eV
#YUNITS      : COUNTS
#DATATYPE    : YY
#XPERCHAN    : 7.862, 7.881   eV per channel (separate by commas if more than one detector)
#OFFSET      : 18.5, -22.4         eV of first channel  (separate by commas if more than one detector
#SIGNALTYPE  : XRF
#YP_TEMP     : 2.235
#LIVETIME    : 8.55919, 8.55788   seconds (separate by commas if more than one detector)
#REALTIME    : 10, 10.0   seconds (separate by commas if more than one detector)
#SPECTRUM    : start of spectrum data
0, 0
0, 0
0, 0
0, 0
0, 0
0, 0
0, 0
0, 0
2, 1
0, 0
3, 1
51, 42
54, 57
5, 4
5, 4
87, 97
487, 436
116, 107
9, 6
1, 0
2, 1
1, 0
1, 6
4, 7
21, 24
34, 25
23, 18
12, 5
11, 4
1, 2
2, 1
5, 3
6, 2
12, 14
20, 17
6, 4
2, 2
1, 3
1, 4
5, 3
3, 6
10, 11
6, 8
6, 5
8, 8
3, 1
3, 5
8, 16
9, 59
18, 24
12, 14
20, 10
31, 17
55, 40
92, 49
47, 15
37, 40
490, 559
2363, 2252
1695, 1344
194, 119
18, 19
23, 22
115, 130
383, 365
252, 196
23, 13
13, 7
19, 17
9, 3
3, 5
7, 3
6, 4
6, 9
1, 15
5, 16
4, 9
4, 2
5, 1
9, 6
7, 2
23, 0
28, 2
6, 6
0, 3
7, 3
8, 5
4, 2
2, 6
2, 2
4, 3
3, 0
5, 2
7, 5
2, 7
3, 1
8, 4
6, 2
5, 3
7, 4
3, 0
1, 1
0, 1
5, 6
2, 2
3, 1
3, 1
5, 1
3, 3
5, 1
3, 2
0, 2
2, 0
5, 1
1, 8
0, 3
3, 4
7, 4
3, 2
3, 2
2, 4
0, 2
1, 2
1, 1
4, 1
0, 2
2, 4
0, 0
1, 2
1, 2
1, 0
0, 1
1, 1
1, 1
0, 0
0, 1
3, 1
1, 1
0, 0
1, 2
2, 1
2, 0
0, 0
0, 2
1, 1
1, 0
0, 1
1, 0
0, 0
1, 0
0, 0
0, 0
0, 0
1, 1
0, 0
0, 0
1, 1
0, 0
2, 0
0, 0
1, 0
1, 0
0, 0
0, 0
0, 0
0, 0
0, 0
0, 0
0, 0
0, 0
1, 1
0, 0
0, 0
0, 0
0, 0
0, 1
0, 0
1, 0
0, 0
0, 0
0, 0
0, 0
0, 0
0, 0
0, 0
0, 0
0, 0
0, 0
0, 0
0, 0
0, 1
0, 0
0, 0
1, 0
0, 0
0, 0
0, 0
0, 0
0, 0
0, 0
0, 0
0, 0
0, 0
0, 0
0, 0
0, 0
0, 0
0, 0
0, 0
0, 1
0, 0
0, 0
0, 0
0, 0
1, 0
0, 0
0, 0
0, 0
0, 0
0, 0
0, 0
0, 0
0, 0
0, 0
0, 0
0, 0
0, 0
0, 0
0, 0
0, 0
0, 0
0, 0
0, 0
0, 0
0, 0
0, 0
0, 0
0, 0
0, 0
0, 0
0, 0
0, 0
0, 0
0, 0
0, 0
0, 0
0, 0
0, 0
0, 0
0, 0
0, 0
0, 0
0, 0
0, 0
0, 0
0, 0
0, 0
0, 0
0, 0
0, 0
0, 0
0, 0
0, 0
0, 0
0, 0
0, 0
0, 0
0, 0
0, 0
0, 0
0, 0
0, 0
0, 0
0, 0
0, 0
0, 0
0, 0
0, 0
0, 0
0, 0
0, 0
0, 0
0, 0
0, 0
0, 0
0, 0
0, 0
0, 0
0, 0
0, 0
0, 0
0, 0
0, 0
0, 0
#ENDOFDATA     end of spectrum data