File: host_upload/06-09-2024/ps_0852/dump3/ps__0852shot_2347.msa
#FORMAT      : EMSA/MAS spectral data file
#VERSION     : TC202v2.0 PIXL
#TITLE       : N/A
#DATE        :       Date in the format DD-MMM-YYYY, for example 07-JUL-2010
#TIME        :             The time of day at which the spectrum was recorded, in 24-hour format
#OWNER       : PIXL Flight Model       (PIXL will use this to indicate which instrument took the data.)
#NPOINTS     : 4096     Number of data points in the spectrum (This can be zero for configuration only files)
#NCOLUMNS    : 2     Number of data columns in the spectrum (This can be zero for configuration only files)
#XUNITS      : eV
#YUNITS      : COUNTS
#DATATYPE    : YY
#XPERCHAN    : 7.862, 7.881   eV per channel (separate by commas if more than one detector)
#OFFSET      : 18.5, -22.4         eV of first channel  (separate by commas if more than one detector
#SIGNALTYPE  : XRF
#YP_TEMP     : 2.203
#LIVETIME    : 8.57169, 8.55611   seconds (separate by commas if more than one detector)
#REALTIME    : 10, 10.0   seconds (separate by commas if more than one detector)
#SPECTRUM    : start of spectrum data
0, 0
0, 0
0, 0
0, 0
0, 0
0, 0
0, 0
0, 0
0, 0
0, 1
3, 4
35, 80
59, 69
5, 4
1, 3
90, 115
374, 475
91, 101
4, 10
2, 1
3, 1
0, 2
2, 4
5, 5
18, 23
28, 34
13, 26
8, 12
1, 1
2, 4
1, 1
1, 1
1, 0
9, 11
17, 9
2, 7
4, 2
4, 9
1, 2
1, 1
9, 7
7, 13
18, 11
6, 8
5, 11
4, 6
2, 5
5, 3
6, 5
49, 15
119, 7
46, 7
8, 8
42, 44
113, 81
37, 25
33, 53
403, 660
1915, 2527
1449, 1513
182, 148
15, 11
16, 15
71, 141
286, 372
215, 219
24, 29
5, 10
9, 11
7, 9
4, 7
4, 10
6, 12
9, 5
8, 2
6, 9
4, 7
8, 4
9, 1
7, 5
20, 2
22, 6
16, 14
3, 6
3, 4
4, 1
6, 4
2, 3
4, 10
1, 4
0, 2
1, 3
3, 1
2, 3
2, 1
4, 2
0, 7
3, 4
5, 0
10, 3
8, 3
5, 1
1, 4
1, 3
1, 3
4, 3
3, 4
0, 4
2, 4
1, 1
4, 4
1, 1
1, 3
0, 5
1, 3
1, 3
3, 4
3, 2
0, 0
1, 3
0, 2
2, 1
3, 3
1, 1
1, 2
1, 2
2, 1
0, 1
1, 1
2, 1
1, 2
1, 2
1, 0
1, 0
0, 0
0, 0
1, 0
0, 3
0, 0
0, 0
0, 0
1, 1
0, 0
1, 0
0, 0
0, 0
0, 0
1, 0
0, 2
0, 0
0, 0
0, 0
0, 0
1, 2
0, 0
0, 0
0, 0
0, 0
0, 0
0, 0
0, 0
0, 0
1, 0
0, 0
0, 0
1, 0
0, 0
0, 1
1, 0
1, 0
1, 0
0, 0
1, 0
0, 0
0, 0
0, 0
0, 0
0, 0
0, 0
0, 0
0, 0
0, 0
0, 0
1, 0
0, 0
0, 0
0, 0
0, 0
0, 0
0, 0
0, 0
0, 0
0, 0
0, 0
1, 0
0, 0
0, 0
0, 0
0, 0
0, 0
0, 0
0, 0
0, 0
0, 0
0, 0
0, 0
0, 0
0, 0
0, 0
0, 0
0, 0
0, 0
0, 0
0, 0
0, 0
0, 0
0, 0
0, 0
0, 0
0, 0
0, 0
0, 0
0, 0
0, 0
0, 0
0, 0
0, 0
0, 0
0, 0
0, 0
0, 0
0, 0
0, 0
0, 0
0, 0
0, 0
0, 0
0, 0
0, 0
0, 0
0, 0
0, 0
0, 0
0, 0
0, 0
0, 0
0, 0
0, 0
0, 0
0, 0
0, 0
0, 0
0, 0
0, 0
0, 0
0, 0
0, 0
0, 0
0, 0
0, 0
0, 0
0, 0
0, 0
0, 0
0, 0
0, 0
0, 0
0, 0
0, 0
0, 0
0, 0
0, 0
0, 0
0, 0
0, 0
0, 0
0, 0
0, 0
0, 0
0, 0
0, 0
0, 0
0, 0
0, 0
0, 0
0, 0
0, 0
0, 0
0, 0
0, 0
0, 0
0, 0
0, 0
0, 0
#ENDOFDATA     end of spectrum data