File: host_upload/06-09-2024/ps_0852/dump3/ps__0852shot_2462.msa
#FORMAT      : EMSA/MAS spectral data file
#VERSION     : TC202v2.0 PIXL
#TITLE       : N/A
#DATE        :       Date in the format DD-MMM-YYYY, for example 07-JUL-2010
#TIME        :             The time of day at which the spectrum was recorded, in 24-hour format
#OWNER       : PIXL Flight Model       (PIXL will use this to indicate which instrument took the data.)
#NPOINTS     : 4096     Number of data points in the spectrum (This can be zero for configuration only files)
#NCOLUMNS    : 2     Number of data columns in the spectrum (This can be zero for configuration only files)
#XUNITS      : eV
#YUNITS      : COUNTS
#DATATYPE    : YY
#XPERCHAN    : 7.862, 7.881   eV per channel (separate by commas if more than one detector)
#OFFSET      : 18.5, -22.4         eV of first channel  (separate by commas if more than one detector
#SIGNALTYPE  : XRF
#YP_TEMP     : 2.524
#LIVETIME    : 8.56484, 8.54817   seconds (separate by commas if more than one detector)
#REALTIME    : 10, 10.0   seconds (separate by commas if more than one detector)
#SPECTRUM    : start of spectrum data
0, 0
0, 0
0, 0
0, 0
0, 0
0, 0
0, 0
0, 0
0, 0
5, 1
3, 3
35, 33
60, 46
11, 6
6, 13
85, 85
363, 358
85, 93
3, 3
4, 7
48, 42
266, 271
121, 88
19, 27
146, 49
165, 36
41, 23
10, 16
3, 4
1, 2
6, 6
6, 2
12, 5
46, 53
66, 84
15, 12
9, 16
7, 9
11, 4
3, 6
7, 8
9, 12
11, 10
12, 12
6, 5
10, 8
1, 9
7, 11
6, 9
18, 17
16, 15
13, 6
33, 12
103, 38
107, 65
24, 17
33, 39
519, 582
2094, 2217
1436, 1275
201, 149
6, 19
17, 23
108, 125
324, 331
239, 177
37, 16
4, 8
13, 11
11, 7
2, 3
0, 4
0, 9
3, 3
5, 4
7, 7
8, 3
10, 5
5, 3
4, 3
3, 4
1, 6
2, 4
9, 3
5, 5
6, 3
5, 3
2, 4
6, 6
8, 5
6, 2
6, 5
1, 1
3, 2
1, 3
3, 5
5, 2
2, 3
1, 2
3, 2
1, 2
3, 1
1, 5
2, 3
3, 4
4, 7
3, 5
7, 1
6, 1
2, 3
3, 0
0, 1
3, 3
3, 1
2, 1
1, 3
4, 11
1, 3
1, 3
2, 1
0, 1
1, 0
0, 3
4, 2
0, 2
0, 1
2, 1
2, 0
1, 1
1, 0
2, 0
2, 1
0, 1
0, 1
1, 0
2, 1
1, 0
0, 0
1, 1
0, 0
1, 1
1, 2
1, 0
0, 0
0, 0
2, 1
2, 1
0, 0
1, 0
0, 1
2, 0
1, 0
0, 0
1, 0
1, 0
1, 0
0, 0
1, 0
0, 0
0, 0
1, 0
1, 0
1, 1
0, 0
0, 0
0, 0
0, 0
0, 1
0, 0
0, 0
1, 0
0, 0
0, 0
0, 0
0, 0
0, 0
0, 0
0, 0
0, 0
0, 0
0, 0
0, 0
0, 1
0, 1
0, 0
0, 1
0, 0
0, 0
0, 0
1, 0
1, 0
0, 0
1, 0
0, 0
0, 0
0, 0
0, 0
0, 0
0, 0
0, 0
0, 0
0, 0
0, 0
0, 0
0, 1
0, 0
1, 0
0, 0
0, 0
0, 0
0, 0
0, 0
0, 0
0, 0
0, 0
0, 0
0, 0
0, 0
0, 0
0, 0
0, 0
0, 0
0, 0
0, 0
0, 0
0, 0
0, 0
0, 0
0, 0
0, 0
0, 0
0, 0
0, 0
0, 0
0, 1
0, 0
0, 0
0, 0
0, 0
0, 0
0, 0
0, 0
0, 0
0, 0
0, 0
0, 0
0, 0
0, 0
0, 0
0, 0
0, 0
0, 0
0, 0
0, 0
0, 0
0, 0
0, 0
0, 0
0, 0
0, 0
0, 0
0, 0
0, 0
0, 0
0, 0
0, 0
0, 0
0, 0
0, 0
0, 0
0, 0
0, 0
0, 0
0, 0
0, 0
0, 0
0, 0
0, 0
0, 0
0, 0
0, 0
0, 0
0, 0
0, 0
0, 0
0, 0
0, 0
0, 0
0, 0
0, 0
0, 0
0, 0
0, 0
0, 0
#ENDOFDATA     end of spectrum data