File: host_upload/06-09-2024/ps_0852/dump3/ps__0852shot_2321.msa
#FORMAT      : EMSA/MAS spectral data file
#VERSION     : TC202v2.0 PIXL
#TITLE       : N/A
#DATE        :       Date in the format DD-MMM-YYYY, for example 07-JUL-2010
#TIME        :             The time of day at which the spectrum was recorded, in 24-hour format
#OWNER       : PIXL Flight Model       (PIXL will use this to indicate which instrument took the data.)
#NPOINTS     : 4096     Number of data points in the spectrum (This can be zero for configuration only files)
#NCOLUMNS    : 2     Number of data columns in the spectrum (This can be zero for configuration only files)
#XUNITS      : eV
#YUNITS      : COUNTS
#DATATYPE    : YY
#XPERCHAN    : 7.862, 7.881   eV per channel (separate by commas if more than one detector)
#OFFSET      : 18.5, -22.4         eV of first channel  (separate by commas if more than one detector
#SIGNALTYPE  : XRF
#YP_TEMP     : 2.139
#LIVETIME    : 8.57287, 8.55474   seconds (separate by commas if more than one detector)
#REALTIME    : 10, 10.0   seconds (separate by commas if more than one detector)
#SPECTRUM    : start of spectrum data
0, 0
0, 0
0, 0
0, 0
0, 0
0, 0
0, 0
1, 1
0, 0
1, 0
2, 2
42, 46
49, 65
6, 6
5, 6
98, 99
408, 483
84, 109
6, 9
0, 1
4, 1
4, 4
4, 9
10, 14
49, 51
47, 35
21, 12
14, 24
4, 11
0, 4
2, 5
3, 2
3, 4
19, 18
33, 24
28, 7
81, 4
29, 10
7, 3
0, 3
3, 5
8, 10
14, 17
9, 13
6, 5
7, 2
7, 7
4, 20
7, 11
24, 28
20, 15
10, 5
6, 12
31, 36
57, 58
15, 24
27, 37
453, 636
2110, 2542
1516, 1460
155, 138
8, 9
22, 19
100, 133
327, 406
213, 211
31, 26
7, 11
20, 15
6, 14
15, 7
46, 5
48, 8
29, 9
4, 9
0, 5
7, 2
6, 3
4, 6
6, 9
8, 6
2, 5
10, 5
7, 4
2, 2
2, 5
9, 4
5, 2
3, 1
2, 4
3, 6
1, 4
1, 1
4, 5
3, 4
0, 4
1, 2
5, 4
3, 2
4, 2
4, 3
3, 3
0, 2
1, 2
4, 1
3, 4
0, 2
2, 2
5, 1
2, 2
2, 1
1, 4
2, 0
0, 2
4, 2
0, 6
2, 8
1, 5
6, 1
0, 1
0, 1
0, 1
6, 1
0, 1
0, 1
1, 1
2, 0
1, 0
1, 0
2, 0
0, 0
0, 1
0, 0
1, 1
0, 0
0, 0
3, 1
2, 3
2, 1
1, 0
1, 2
0, 0
0, 1
0, 2
1, 0
0, 1
0, 1
0, 2
1, 0
2, 0
0, 0
1, 0
0, 1
0, 0
0, 1
1, 1
0, 0
1, 1
0, 1
0, 0
0, 0
0, 0
0, 1
1, 0
1, 0
0, 0
0, 1
1, 0
0, 0
1, 0
1, 1
0, 0
1, 0
1, 0
0, 0
0, 0
0, 0
0, 0
0, 0
0, 0
0, 0
0, 0
0, 0
0, 0
1, 1
0, 0
0, 0
0, 0
0, 0
0, 0
0, 0
1, 0
0, 0
0, 0
0, 0
0, 0
0, 0
0, 0
1, 0
0, 0
0, 0
0, 0
0, 0
0, 0
0, 0
0, 0
0, 0
0, 0
0, 0
0, 0
0, 0
0, 0
0, 0
0, 0
0, 0
0, 0
0, 0
0, 0
0, 0
0, 0
0, 0
0, 0
0, 0
0, 0
0, 0
0, 0
0, 0
0, 0
0, 0
0, 0
0, 0
0, 0
0, 0
0, 0
0, 0
0, 0
0, 0
0, 0
0, 0
0, 0
0, 0
0, 0
0, 0
0, 0
0, 0
0, 0
0, 0
0, 0
0, 0
0, 0
0, 0
0, 0
0, 0
0, 0
0, 0
0, 0
0, 0
0, 0
0, 0
0, 0
0, 0
0, 0
0, 0
0, 0
0, 0
0, 0
0, 0
0, 0
0, 0
0, 0
0, 0
0, 0
0, 0
0, 0
0, 0
0, 0
0, 0
0, 0
0, 0
0, 0
0, 0
0, 0
0, 0
0, 0
0, 0
0, 0
0, 0
0, 0
0, 0
0, 0
0, 0
0, 0
0, 0
0, 0
#ENDOFDATA     end of spectrum data