File: host_upload/06-09-2024/ps_0852/dump3/ps__0852shot_2482.msa
#FORMAT      : EMSA/MAS spectral data file
#VERSION     : TC202v2.0 PIXL
#TITLE       : N/A
#DATE        :       Date in the format DD-MMM-YYYY, for example 07-JUL-2010
#TIME        :             The time of day at which the spectrum was recorded, in 24-hour format
#OWNER       : PIXL Flight Model       (PIXL will use this to indicate which instrument took the data.)
#NPOINTS     : 4096     Number of data points in the spectrum (This can be zero for configuration only files)
#NCOLUMNS    : 2     Number of data columns in the spectrum (This can be zero for configuration only files)
#XUNITS      : eV
#YUNITS      : COUNTS
#DATATYPE    : YY
#XPERCHAN    : 7.862, 7.881   eV per channel (separate by commas if more than one detector)
#OFFSET      : 18.5, -22.4         eV of first channel  (separate by commas if more than one detector
#SIGNALTYPE  : XRF
#YP_TEMP     : 2.235
#LIVETIME    : 8.59211, 8.55805   seconds (separate by commas if more than one detector)
#REALTIME    : 10, 10.0   seconds (separate by commas if more than one detector)
#SPECTRUM    : start of spectrum data
0, 0
0, 0
0, 0
0, 0
0, 0
0, 0
0, 0
0, 0
0, 0
1, 1
4, 2
36, 29
71, 41
4, 5
3, 2
94, 73
461, 382
126, 105
3, 4
2, 4
3, 0
0, 2
2, 5
9, 8
29, 30
56, 39
42, 17
15, 16
3, 1
1, 5
0, 0
4, 0
4, 9
44, 51
67, 77
15, 15
14, 10
13, 22
5, 6
4, 16
5, 11
16, 10
12, 17
10, 14
10, 7
8, 12
5, 9
12, 6
14, 10
53, 52
59, 28
34, 13
13, 31
45, 86
74, 92
29, 57
26, 52
423, 584
2067, 2144
1421, 1259
153, 113
13, 16
23, 27
114, 128
305, 315
211, 172
31, 22
10, 10
11, 11
6, 13
8, 3
6, 1
6, 4
20, 1
21, 8
6, 13
6, 6
5, 5
4, 8
4, 5
5, 5
5, 5
6, 9
4, 6
5, 3
4, 4
6, 5
4, 3
6, 5
5, 14
3, 14
8, 8
1, 3
4, 3
4, 3
2, 3
3, 2
5, 3
0, 3
1, 4
2, 4
1, 0
1, 4
4, 4
2, 2
1, 4
2, 1
0, 2
2, 2
1, 0
1, 5
2, 4
2, 6
4, 1
4, 4
4, 3
4, 3
4, 3
0, 2
1, 2
0, 5
0, 3
2, 2
1, 1
1, 3
1, 2
1, 1
1, 0
3, 1
3, 0
0, 0
1, 0
1, 1
0, 1
0, 3
0, 2
0, 0
1, 2
0, 1
1, 1
1, 0
2, 0
0, 0
1, 1
0, 1
0, 1
0, 0
1, 0
0, 0
0, 0
0, 1
1, 2
1, 1
0, 0
1, 1
0, 0
0, 0
0, 0
1, 1
0, 1
0, 0
0, 0
0, 0
0, 0
0, 0
0, 0
0, 2
0, 0
0, 0
1, 1
0, 1
1, 1
0, 1
0, 1
0, 0
0, 0
0, 0
0, 0
0, 0
0, 0
0, 0
0, 0
0, 0
0, 0
1, 0
0, 0
0, 0
0, 0
0, 0
0, 0
0, 0
0, 0
0, 0
0, 0
0, 0
0, 0
0, 0
0, 0
0, 0
0, 0
0, 0
0, 0
0, 0
0, 0
0, 0
0, 0
0, 0
0, 0
0, 0
0, 0
0, 0
0, 0
0, 0
0, 0
0, 0
0, 0
0, 0
0, 0
0, 0
0, 0
0, 0
0, 0
0, 0
0, 0
0, 0
0, 0
0, 0
0, 0
0, 0
0, 0
0, 0
0, 0
0, 0
0, 0
0, 0
0, 0
0, 0
0, 0
0, 0
0, 0
0, 0
0, 0
0, 0
0, 0
0, 0
0, 0
0, 0
0, 0
0, 0
0, 0
0, 0
0, 0
0, 0
0, 0
0, 0
0, 0
0, 0
0, 0
0, 0
0, 0
0, 0
0, 0
0, 0
0, 0
0, 0
0, 0
0, 0
0, 0
0, 0
0, 0
0, 0
0, 0
0, 0
0, 0
0, 0
0, 0
0, 0
0, 0
0, 0
0, 0
0, 0
0, 0
0, 0
0, 0
0, 0
0, 0
0, 0
0, 0
0, 0
0, 0
0, 0
0, 0
0, 0
0, 0
#ENDOFDATA     end of spectrum data