File: host_upload/06-09-2024/ps_0852/dump3/ps__0852shot_2292.msa
#FORMAT      : EMSA/MAS spectral data file
#VERSION     : TC202v2.0 PIXL
#TITLE       : N/A
#DATE        :       Date in the format DD-MMM-YYYY, for example 07-JUL-2010
#TIME        :             The time of day at which the spectrum was recorded, in 24-hour format
#OWNER       : PIXL Flight Model       (PIXL will use this to indicate which instrument took the data.)
#NPOINTS     : 4096     Number of data points in the spectrum (This can be zero for configuration only files)
#NCOLUMNS    : 2     Number of data columns in the spectrum (This can be zero for configuration only files)
#XUNITS      : eV
#YUNITS      : COUNTS
#DATATYPE    : YY
#XPERCHAN    : 7.862, 7.881   eV per channel (separate by commas if more than one detector)
#OFFSET      : 18.5, -22.4         eV of first channel  (separate by commas if more than one detector
#SIGNALTYPE  : XRF
#YP_TEMP     : 2.396
#LIVETIME    : 8.55018, 8.56367   seconds (separate by commas if more than one detector)
#REALTIME    : 10, 10.0   seconds (separate by commas if more than one detector)
#SPECTRUM    : start of spectrum data
0, 0
0, 0
0, 0
0, 0
0, 0
0, 0
0, 0
0, 1
1, 0
1, 0
1, 4
29, 41
42, 60
4, 6
4, 9
86, 84
339, 407
65, 87
6, 6
3, 8
38, 45
164, 186
67, 62
24, 26
42, 51
30, 65
26, 31
11, 12
7, 5
4, 3
0, 4
2, 3
4, 7
25, 35
43, 53
9, 8
10, 12
9, 17
6, 2
4, 8
9, 5
10, 11
18, 19
6, 16
6, 15
9, 45
10, 33
4, 6
5, 9
20, 16
27, 11
5, 5
7, 7
26, 46
64, 53
20, 15
37, 35
436, 645
2105, 2466
1556, 1421
236, 155
23, 25
18, 22
90, 130
282, 413
203, 213
31, 19
9, 22
24, 32
30, 20
16, 2
4, 6
3, 3
2, 6
4, 3
8, 6
4, 2
2, 4
6, 8
4, 4
4, 3
3, 6
1, 7
1, 5
3, 8
4, 3
6, 2
4, 2
7, 4
3, 4
1, 4
1, 5
3, 5
1, 7
4, 12
2, 4
0, 7
4, 4
4, 3
10, 2
6, 0
3, 2
2, 2
0, 2
1, 1
0, 2
2, 4
2, 3
2, 1
3, 2
0, 2
2, 3
1, 2
2, 6
1, 4
1, 3
3, 2
6, 2
2, 2
0, 2
0, 4
1, 2
2, 1
3, 4
2, 1
3, 0
1, 2
1, 0
4, 1
2, 1
0, 3
0, 0
0, 0
0, 0
0, 0
1, 0
0, 0
0, 0
1, 0
1, 0
0, 0
1, 1
0, 0
1, 1
0, 1
0, 0
0, 0
0, 0
0, 0
0, 1
0, 1
0, 1
0, 0
0, 0
0, 0
0, 1
0, 0
0, 0
2, 0
0, 0
1, 0
0, 0
0, 0
0, 1
0, 0
0, 0
0, 0
0, 2
1, 1
0, 0
0, 0
0, 0
0, 0
0, 0
0, 1
0, 0
0, 0
0, 0
0, 0
0, 0
0, 0
0, 0
0, 0
0, 0
0, 1
0, 1
1, 1
0, 0
0, 1
0, 0
1, 0
0, 0
0, 0
0, 0
0, 0
0, 0
0, 0
0, 0
0, 0
0, 0
0, 0
0, 0
0, 0
0, 0
0, 0
0, 0
0, 0
0, 0
0, 0
0, 0
0, 0
0, 0
0, 0
0, 0
0, 0
0, 0
0, 0
0, 0
0, 0
0, 0
0, 0
0, 0
0, 0
0, 0
0, 0
0, 0
0, 0
0, 0
0, 0
0, 0
0, 0
0, 0
0, 0
0, 0
0, 0
0, 0
0, 0
0, 0
0, 0
0, 0
0, 0
0, 0
0, 0
0, 0
0, 0
0, 0
0, 0
0, 0
0, 0
0, 0
0, 0
0, 0
0, 0
0, 0
0, 0
0, 0
0, 0
0, 0
0, 0
0, 0
0, 0
0, 0
0, 0
0, 0
0, 0
0, 0
0, 0
0, 0
0, 0
0, 0
0, 0
0, 0
0, 0
0, 0
0, 0
0, 0
0, 0
0, 0
0, 0
0, 0
0, 0
0, 0
0, 0
0, 0
0, 0
0, 0
0, 0
0, 0
0, 0
0, 0
0, 0
0, 0
0, 0
0, 0
#ENDOFDATA     end of spectrum data