File: host_upload/06-09-2024/ps_0852/dump3/ps__0852shot_2079.msa
#FORMAT      : EMSA/MAS spectral data file
#VERSION     : TC202v2.0 PIXL
#TITLE       : N/A
#DATE        :       Date in the format DD-MMM-YYYY, for example 07-JUL-2010
#TIME        :             The time of day at which the spectrum was recorded, in 24-hour format
#OWNER       : PIXL Flight Model       (PIXL will use this to indicate which instrument took the data.)
#NPOINTS     : 4096     Number of data points in the spectrum (This can be zero for configuration only files)
#NCOLUMNS    : 2     Number of data columns in the spectrum (This can be zero for configuration only files)
#XUNITS      : eV
#YUNITS      : COUNTS
#DATATYPE    : YY
#XPERCHAN    : 7.862, 7.881   eV per channel (separate by commas if more than one detector)
#OFFSET      : 18.5, -22.4         eV of first channel  (separate by commas if more than one detector
#SIGNALTYPE  : XRF
#YP_TEMP     : 2.396
#LIVETIME    : 8.57483, 8.55214   seconds (separate by commas if more than one detector)
#REALTIME    : 10, 10.0   seconds (separate by commas if more than one detector)
#SPECTRUM    : start of spectrum data
0, 0
0, 0
0, 0
0, 0
0, 0
0, 0
0, 1
0, 0
0, 1
3, 2
1, 4
63, 43
56, 37
8, 6
4, 1
95, 113
453, 338
92, 72
7, 7
4, 3
5, 2
11, 18
9, 7
11, 7
91, 36
113, 50
36, 36
18, 12
5, 6
3, 3
4, 1
2, 4
6, 4
17, 14
14, 15
6, 5
4, 1
8, 6
14, 12
11, 9
7, 4
15, 13
12, 29
11, 13
10, 24
8, 8
11, 8
9, 7
8, 7
27, 9
18, 18
27, 10
9, 13
43, 42
63, 54
21, 19
45, 34
533, 476
2342, 1894
1726, 1160
242, 122
77, 21
79, 25
162, 122
365, 324
234, 191
40, 21
11, 10
25, 8
15, 11
10, 9
8, 3
3, 5
4, 4
2, 8
4, 2
14, 5
12, 5
7, 4
7, 3
4, 5
3, 6
4, 3
5, 4
6, 8
4, 2
4, 3
3, 3
5, 4
12, 2
12, 5
10, 2
3, 1
4, 3
4, 2
7, 1
1, 0
2, 4
3, 2
3, 1
2, 4
4, 3
1, 5
1, 2
0, 3
1, 0
2, 2
1, 0
2, 1
2, 3
3, 2
4, 2
5, 1
2, 2
2, 2
2, 1
5, 0
7, 1
2, 1
4, 0
1, 1
4, 1
3, 5
2, 0
0, 1
3, 3
1, 0
1, 1
0, 1
1, 3
3, 0
2, 3
1, 0
1, 1
1, 0
0, 1
1, 0
2, 1
0, 1
0, 0
0, 1
1, 0
2, 0
1, 1
0, 1
0, 0
0, 2
0, 0
0, 0
1, 0
2, 0
1, 0
1, 1
0, 0
0, 0
0, 0
2, 0
0, 2
3, 1
0, 0
0, 0
0, 1
0, 0
0, 0
0, 0
0, 0
0, 0
0, 0
0, 1
1, 0
0, 0
1, 0
0, 0
0, 0
0, 0
0, 0
0, 0
0, 0
0, 0
0, 0
0, 0
0, 0
0, 3
0, 0
0, 0
1, 0
0, 1
0, 0
0, 0
0, 0
0, 0
0, 0
0, 0
0, 0
0, 0
0, 0
0, 0
0, 0
0, 0
0, 0
0, 0
0, 0
0, 0
0, 0
0, 0
0, 0
0, 0
0, 0
0, 0
0, 1
0, 0
0, 0
0, 0
0, 0
0, 0
0, 1
0, 0
0, 0
0, 0
0, 0
0, 0
0, 0
0, 0
0, 0
0, 0
0, 0
0, 0
0, 0
0, 0
0, 0
0, 0
0, 0
0, 0
0, 0
0, 0
0, 0
0, 0
0, 0
0, 0
0, 0
0, 0
0, 0
0, 0
0, 0
0, 0
0, 0
0, 0
0, 0
0, 0
0, 0
0, 0
0, 0
0, 0
0, 0
0, 0
0, 0
0, 0
0, 0
0, 0
0, 0
0, 0
0, 0
0, 0
0, 0
0, 0
0, 0
0, 0
0, 0
0, 0
0, 0
0, 0
0, 0
0, 0
0, 0
0, 0
0, 0
0, 0
0, 0
0, 0
0, 0
0, 0
0, 0
0, 0
0, 0
0, 0
0, 0
0, 0
0, 0
0, 0
0, 0
0, 0
0, 0
0, 0
0, 0
#ENDOFDATA     end of spectrum data