File: host_upload/06-09-2024/ps_0852/dump3/ps__0852shot_2544.msa
#FORMAT      : EMSA/MAS spectral data file
#VERSION     : TC202v2.0 PIXL
#TITLE       : N/A
#DATE        :       Date in the format DD-MMM-YYYY, for example 07-JUL-2010
#TIME        :             The time of day at which the spectrum was recorded, in 24-hour format
#OWNER       : PIXL Flight Model       (PIXL will use this to indicate which instrument took the data.)
#NPOINTS     : 4096     Number of data points in the spectrum (This can be zero for configuration only files)
#NCOLUMNS    : 2     Number of data columns in the spectrum (This can be zero for configuration only files)
#XUNITS      : eV
#YUNITS      : COUNTS
#DATATYPE    : YY
#XPERCHAN    : 7.862, 7.881   eV per channel (separate by commas if more than one detector)
#OFFSET      : 18.5, -22.4         eV of first channel  (separate by commas if more than one detector
#SIGNALTYPE  : XRF
#YP_TEMP     : 2.203
#LIVETIME    : 8.55364, 8.55519   seconds (separate by commas if more than one detector)
#REALTIME    : 10, 10.0   seconds (separate by commas if more than one detector)
#SPECTRUM    : start of spectrum data
0, 0
0, 0
0, 0
0, 0
0, 0
0, 0
0, 0
0, 0
1, 2
1, 3
3, 4
41, 35
55, 51
7, 5
5, 2
105, 86
478, 385
121, 75
8, 8
2, 4
2, 3
2, 7
6, 0
10, 5
49, 30
81, 65
38, 24
11, 11
6, 4
1, 2
1, 2
5, 1
8, 4
74, 58
124, 70
21, 8
24, 10
43, 9
56, 6
12, 4
13, 3
14, 16
15, 27
9, 56
13, 40
10, 16
6, 5
6, 7
5, 16
25, 19
35, 15
29, 13
21, 11
43, 44
59, 45
22, 25
22, 50
472, 504
2029, 2006
1383, 1151
182, 129
24, 9
53, 19
122, 109
320, 282
228, 139
27, 20
9, 8
14, 16
6, 4
3, 5
7, 7
9, 8
6, 10
10, 8
50, 7
35, 12
18, 8
3, 7
5, 4
5, 4
1, 6
2, 0
2, 3
3, 5
3, 2
4, 7
3, 6
3, 6
8, 6
6, 3
2, 2
4, 4
5, 5
5, 5
4, 4
5, 3
1, 6
2, 2
2, 2
9, 1
3, 3
0, 3
2, 5
3, 0
5, 0
1, 3
1, 4
4, 0
0, 3
4, 1
1, 2
2, 2
3, 1
2, 3
4, 3
7, 1
5, 0
3, 0
0, 1
1, 1
0, 1
1, 1
2, 0
0, 3
3, 0
0, 1
1, 0
3, 2
1, 0
0, 2
0, 0
0, 1
1, 0
0, 0
1, 1
1, 0
0, 2
0, 0
0, 0
0, 0
2, 1
0, 1
0, 1
1, 0
0, 0
2, 0
1, 0
0, 1
1, 0
0, 0
0, 0
0, 0
2, 0
0, 0
1, 0
0, 1
0, 0
2, 0
0, 3
1, 0
1, 0
1, 0
0, 0
1, 0
1, 0
1, 0
0, 0
0, 0
0, 0
0, 1
1, 0
0, 1
1, 0
0, 1
1, 0
0, 0
0, 0
0, 0
0, 0
0, 0
0, 0
0, 0
0, 0
0, 0
1, 0
0, 0
0, 0
0, 0
0, 0
0, 0
0, 0
0, 0
0, 0
0, 0
0, 0
0, 0
0, 0
0, 0
0, 0
0, 0
0, 0
0, 0
0, 0
0, 0
0, 0
0, 0
0, 0
0, 0
0, 0
0, 0
0, 0
0, 0
0, 0
0, 0
0, 0
0, 0
0, 0
0, 0
0, 0
0, 0
0, 0
0, 0
0, 0
0, 0
0, 0
0, 0
0, 0
0, 0
0, 0
0, 0
0, 0
0, 0
0, 0
0, 0
0, 0
0, 0
0, 0
0, 0
0, 0
0, 0
0, 0
0, 0
0, 0
0, 0
0, 0
0, 0
0, 0
0, 0
0, 0
0, 0
0, 0
0, 0
0, 0
0, 0
0, 0
0, 0
0, 0
0, 0
0, 0
0, 0
0, 0
0, 0
0, 0
0, 0
0, 0
0, 0
0, 0
0, 0
0, 0
0, 0
0, 0
0, 0
0, 0
0, 0
0, 0
0, 0
0, 0
0, 0
0, 0
0, 0
0, 0
0, 0
0, 0
0, 0
0, 0
0, 0
0, 0
0, 0
0, 0
0, 0
0, 0
0, 0
0, 0
#ENDOFDATA     end of spectrum data