File: host_upload/06-09-2024/ps_0852/dump3/ps__0852shot_2341.msa
#FORMAT      : EMSA/MAS spectral data file
#VERSION     : TC202v2.0 PIXL
#TITLE       : N/A
#DATE        :       Date in the format DD-MMM-YYYY, for example 07-JUL-2010
#TIME        :             The time of day at which the spectrum was recorded, in 24-hour format
#OWNER       : PIXL Flight Model       (PIXL will use this to indicate which instrument took the data.)
#NPOINTS     : 4096     Number of data points in the spectrum (This can be zero for configuration only files)
#NCOLUMNS    : 2     Number of data columns in the spectrum (This can be zero for configuration only files)
#XUNITS      : eV
#YUNITS      : COUNTS
#DATATYPE    : YY
#XPERCHAN    : 7.862, 7.881   eV per channel (separate by commas if more than one detector)
#OFFSET      : 18.5, -22.4         eV of first channel  (separate by commas if more than one detector
#SIGNALTYPE  : XRF
#YP_TEMP     : 2.203
#LIVETIME    : 8.59626, 8.56147   seconds (separate by commas if more than one detector)
#REALTIME    : 10, 10.0   seconds (separate by commas if more than one detector)
#SPECTRUM    : start of spectrum data
0, 0
0, 0
0, 0
0, 0
0, 0
0, 0
0, 0
0, 0
2, 0
4, 0
3, 2
34, 29
53, 38
8, 3
0, 2
52, 51
261, 230
66, 57
6, 10
3, 7
134, 163
785, 804
280, 298
65, 61
142, 114
78, 63
32, 39
16, 19
6, 8
4, 5
20, 25
11, 10
5, 7
19, 31
23, 27
8, 8
5, 7
10, 8
19, 10
19, 6
3, 8
2, 11
9, 14
13, 17
6, 10
6, 20
5, 18
7, 7
11, 5
16, 26
48, 30
33, 23
13, 25
46, 51
77, 37
18, 20
28, 40
409, 564
1914, 2175
1498, 1288
191, 133
14, 20
24, 14
100, 117
307, 327
225, 203
28, 25
5, 11
18, 12
37, 15
35, 3
10, 3
6, 8
10, 6
3, 4
13, 6
7, 8
4, 2
4, 8
5, 5
9, 3
4, 3
8, 4
4, 3
4, 3
5, 7
1, 3
2, 0
4, 5
6, 10
5, 15
5, 11
2, 2
1, 2
4, 2
4, 7
2, 4
3, 4
3, 2
2, 5
7, 0
6, 3
5, 1
2, 4
0, 5
3, 2
2, 0
1, 3
3, 3
1, 1
3, 3
2, 0
1, 3
4, 1
3, 0
5, 1
4, 6
4, 3
6, 2
0, 1
2, 2
3, 1
4, 2
1, 0
1, 2
1, 3
2, 0
0, 4
1, 4
0, 3
1, 0
1, 1
0, 1
1, 1
3, 0
0, 0
0, 0
1, 0
1, 0
1, 1
0, 0
0, 1
1, 0
1, 1
0, 0
0, 0
2, 0
0, 0
0, 1
2, 0
1, 0
1, 0
0, 0
3, 1
1, 1
0, 1
0, 1
0, 0
0, 1
0, 0
0, 1
2, 0
0, 0
1, 0
0, 0
0, 0
0, 0
0, 0
0, 2
0, 0
0, 0
0, 0
0, 0
0, 0
0, 0
0, 0
0, 0
0, 0
0, 0
0, 0
1, 1
1, 0
0, 0
0, 0
0, 0
1, 0
0, 0
0, 0
0, 0
0, 0
1, 0
0, 0
0, 0
0, 1
0, 0
0, 0
0, 0
0, 0
0, 0
0, 0
0, 0
0, 0
0, 0
0, 0
1, 0
0, 0
0, 0
0, 0
0, 0
0, 0
0, 0
0, 0
0, 0
0, 0
0, 0
0, 0
0, 0
0, 0
0, 0
0, 0
0, 0
0, 0
0, 0
0, 0
0, 0
0, 0
0, 0
0, 0
0, 0
0, 0
0, 0
0, 0
0, 0
0, 0
0, 0
0, 0
0, 0
0, 0
0, 0
0, 0
0, 0
0, 0
0, 0
0, 0
0, 0
0, 0
0, 0
0, 0
0, 0
0, 0
0, 0
0, 0
0, 0
0, 0
0, 0
0, 0
0, 0
0, 0
0, 0
0, 0
0, 0
0, 0
0, 0
0, 0
0, 0
0, 0
0, 0
0, 0
0, 0
0, 0
0, 0
0, 0
0, 0
0, 0
0, 0
0, 0
0, 0
0, 0
0, 0
0, 0
0, 0
0, 0
0, 0
0, 0
0, 0
0, 0
0, 0
0, 0
0, 0
0, 0
0, 0
0, 0
0, 0
0, 0
#ENDOFDATA     end of spectrum data