File: host_upload/06-09-2024/ps_0852/dump3/ps__0852shot_2131.msa
#FORMAT      : EMSA/MAS spectral data file
#VERSION     : TC202v2.0 PIXL
#TITLE       : N/A
#DATE        :       Date in the format DD-MMM-YYYY, for example 07-JUL-2010
#TIME        :             The time of day at which the spectrum was recorded, in 24-hour format
#OWNER       : PIXL Flight Model       (PIXL will use this to indicate which instrument took the data.)
#NPOINTS     : 4096     Number of data points in the spectrum (This can be zero for configuration only files)
#NCOLUMNS    : 2     Number of data columns in the spectrum (This can be zero for configuration only files)
#XUNITS      : eV
#YUNITS      : COUNTS
#DATATYPE    : YY
#XPERCHAN    : 7.862, 7.881   eV per channel (separate by commas if more than one detector)
#OFFSET      : 18.5, -22.4         eV of first channel  (separate by commas if more than one detector
#SIGNALTYPE  : XRF
#YP_TEMP     : 2.492
#LIVETIME    : 8.58747, 8.56171   seconds (separate by commas if more than one detector)
#REALTIME    : 10, 10.0   seconds (separate by commas if more than one detector)
#SPECTRUM    : start of spectrum data
0, 0
0, 0
0, 0
0, 0
0, 0
0, 0
0, 0
0, 0
0, 2
1, 1
3, 3
44, 38
45, 44
4, 5
4, 4
101, 97
437, 374
121, 87
12, 8
2, 2
7, 9
33, 35
19, 21
10, 9
50, 49
60, 51
27, 21
14, 12
4, 5
5, 1
4, 1
11, 2
24, 6
76, 66
116, 113
20, 15
10, 13
16, 12
9, 11
6, 17
7, 8
10, 10
11, 11
20, 10
28, 4
9, 12
4, 15
8, 13
8, 15
27, 20
12, 12
4, 9
8, 10
28, 60
58, 77
21, 107
27, 85
470, 570
2051, 2083
1506, 1254
221, 126
18, 26
64, 37
229, 99
440, 306
244, 186
36, 20
5, 11
9, 16
7, 16
7, 1
5, 3
7, 2
8, 5
6, 4
7, 3
6, 7
2, 3
6, 6
7, 3
6, 1
6, 7
2, 3
2, 0
2, 4
11, 3
7, 2
8, 10
6, 1
3, 5
2, 11
4, 8
2, 3
3, 7
9, 4
7, 4
6, 0
1, 1
1, 3
1, 1
3, 1
0, 3
0, 4
5, 2
6, 6
7, 1
2, 3
4, 2
2, 3
3, 1
4, 1
1, 3
3, 3
4, 3
6, 3
6, 3
4, 6
4, 5
1, 5
2, 1
1, 2
0, 4
2, 1
3, 1
2, 1
1, 0
0, 2
1, 0
1, 2
1, 0
0, 0
0, 0
1, 1
0, 0
0, 1
0, 2
1, 0
2, 1
0, 3
0, 1
1, 0
0, 0
0, 0
1, 0
0, 0
1, 1
2, 1
0, 0
0, 0
0, 0
0, 0
0, 0
0, 0
0, 0
0, 0
0, 0
0, 0
0, 0
1, 0
0, 0
0, 1
0, 0
1, 0
0, 0
1, 1
0, 0
0, 0
1, 0
0, 0
2, 0
1, 0
0, 0
0, 0
0, 0
0, 2
0, 0
1, 0
0, 0
0, 1
1, 1
0, 0
1, 1
0, 0
0, 0
0, 1
0, 0
0, 0
0, 0
0, 0
0, 0
0, 0
0, 0
0, 0
0, 0
1, 0
0, 0
0, 0
0, 0
0, 0
0, 0
0, 0
0, 0
0, 0
0, 0
0, 0
0, 0
0, 0
1, 0
0, 0
0, 0
0, 0
0, 0
0, 0
0, 0
0, 0
0, 0
0, 0
0, 0
0, 0
0, 0
0, 0
0, 0
0, 0
0, 0
0, 0
0, 0
0, 0
0, 0
0, 0
0, 0
0, 0
0, 0
0, 0
0, 0
0, 0
0, 0
0, 0
0, 0
0, 0
0, 0
0, 0
0, 0
0, 0
0, 0
0, 0
0, 0
0, 0
0, 0
0, 0
0, 0
0, 0
0, 0
0, 0
0, 0
0, 0
0, 0
0, 0
0, 0
0, 0
0, 0
0, 0
0, 0
0, 0
0, 0
0, 0
0, 0
0, 0
0, 0
0, 0
0, 0
0, 0
0, 0
0, 0
0, 0
0, 0
0, 0
0, 0
0, 0
0, 0
0, 0
0, 0
0, 0
0, 0
0, 0
0, 0
0, 0
0, 0
0, 0
0, 0
0, 0
0, 0
0, 0
0, 0
0, 0
#ENDOFDATA     end of spectrum data