File: host_upload/06-09-2024/ps_0852/dump3/ps__0852shot_2125.msa
#FORMAT      : EMSA/MAS spectral data file
#VERSION     : TC202v2.0 PIXL
#TITLE       : N/A
#DATE        :       Date in the format DD-MMM-YYYY, for example 07-JUL-2010
#TIME        :             The time of day at which the spectrum was recorded, in 24-hour format
#OWNER       : PIXL Flight Model       (PIXL will use this to indicate which instrument took the data.)
#NPOINTS     : 4096     Number of data points in the spectrum (This can be zero for configuration only files)
#NCOLUMNS    : 2     Number of data columns in the spectrum (This can be zero for configuration only files)
#XUNITS      : eV
#YUNITS      : COUNTS
#DATATYPE    : YY
#XPERCHAN    : 7.862, 7.881   eV per channel (separate by commas if more than one detector)
#OFFSET      : 18.5, -22.4         eV of first channel  (separate by commas if more than one detector
#SIGNALTYPE  : XRF
#YP_TEMP     : 2.46
#LIVETIME    : 8.54374, 8.5552   seconds (separate by commas if more than one detector)
#REALTIME    : 10, 10.0   seconds (separate by commas if more than one detector)
#SPECTRUM    : start of spectrum data
0, 0
0, 0
0, 0
0, 0
0, 0
0, 0
0, 0
1, 0
1, 0
5, 1
3, 0
56, 42
70, 67
6, 3
4, 5
89, 94
378, 351
112, 89
6, 4
1, 1
3, 2
8, 1
2, 1
8, 3
43, 25
62, 32
37, 14
9, 6
4, 3
1, 3
3, 3
4, 6
6, 5
25, 8
22, 18
2, 3
4, 4
4, 2
5, 9
9, 3
5, 5
10, 12
14, 14
9, 10
7, 3
8, 3
6, 5
9, 6
10, 3
14, 15
15, 15
18, 13
20, 26
53, 45
79, 67
29, 20
26, 38
488, 618
2214, 2258
1624, 1315
200, 162
20, 22
22, 22
96, 123
297, 348
207, 224
32, 16
12, 7
16, 10
11, 14
2, 8
5, 3
2, 3
8, 7
5, 6
3, 5
6, 6
8, 5
3, 5
7, 5
5, 3
1, 2
4, 11
3, 18
5, 16
2, 3
8, 3
4, 6
5, 9
2, 10
3, 4
2, 2
1, 1
2, 1
1, 2
1, 1
2, 0
0, 1
3, 3
4, 3
0, 2
1, 4
1, 2
0, 1
0, 3
2, 0
2, 4
6, 4
3, 7
2, 3
0, 1
2, 0
1, 2
5, 2
0, 4
2, 6
6, 3
4, 5
3, 1
0, 1
2, 0
2, 0
3, 4
0, 4
1, 2
1, 1
1, 1
0, 1
2, 1
0, 2
0, 0
0, 0
1, 1
0, 1
0, 1
2, 1
1, 0
0, 0
0, 1
1, 0
2, 1
0, 0
0, 0
0, 0
2, 0
0, 1
0, 2
0, 0
1, 0
1, 0
0, 0
0, 0
0, 0
0, 0
0, 1
0, 1
0, 0
1, 0
0, 1
1, 0
2, 3
0, 1
0, 0
0, 0
0, 1
0, 0
0, 1
0, 0
1, 1
1, 0
0, 0
1, 0
1, 1
0, 0
0, 0
1, 0
0, 0
1, 0
0, 2
0, 0
0, 0
0, 0
0, 0
0, 3
0, 1
0, 0
0, 0
0, 1
0, 0
0, 0
0, 0
0, 0
0, 0
0, 0
0, 0
0, 0
0, 0
0, 0
0, 0
0, 0
0, 0
0, 0
0, 0
0, 0
0, 0
0, 0
0, 0
0, 0
0, 0
0, 0
0, 0
0, 0
0, 0
0, 0
0, 0
0, 0
0, 0
0, 0
0, 0
0, 0
0, 0
0, 0
0, 0
0, 0
0, 0
0, 0
0, 0
0, 0
0, 0
0, 0
0, 0
0, 0
0, 0
0, 0
0, 0
0, 0
0, 0
0, 0
0, 0
0, 0
0, 0
0, 0
0, 0
0, 0
0, 0
0, 0
0, 0
0, 0
0, 0
0, 0
0, 0
0, 0
0, 0
0, 0
0, 0
0, 0
0, 0
0, 0
0, 0
0, 0
0, 0
0, 0
0, 0
0, 0
0, 0
0, 0
0, 0
0, 0
0, 0
0, 0
0, 0
0, 0
0, 0
0, 0
0, 0
0, 0
0, 0
0, 0
0, 0
0, 0
0, 0
0, 0
0, 0
0, 0
0, 0
0, 0
0, 0
0, 0
0, 0
0, 0
0, 0
0, 0
0, 0
0, 0
#ENDOFDATA     end of spectrum data