File: host_upload/06-09-2024/ps_0852/dump3/ps__0852shot_2009.msa
#FORMAT      : EMSA/MAS spectral data file
#VERSION     : TC202v2.0 PIXL
#TITLE       : N/A
#DATE        :       Date in the format DD-MMM-YYYY, for example 07-JUL-2010
#TIME        :             The time of day at which the spectrum was recorded, in 24-hour format
#OWNER       : PIXL Flight Model       (PIXL will use this to indicate which instrument took the data.)
#NPOINTS     : 4096     Number of data points in the spectrum (This can be zero for configuration only files)
#NCOLUMNS    : 2     Number of data columns in the spectrum (This can be zero for configuration only files)
#XUNITS      : eV
#YUNITS      : COUNTS
#DATATYPE    : YY
#XPERCHAN    : 7.862, 7.881   eV per channel (separate by commas if more than one detector)
#OFFSET      : 18.5, -22.4         eV of first channel  (separate by commas if more than one detector
#SIGNALTYPE  : XRF
#YP_TEMP     : 2.492
#LIVETIME    : 8.55941, 8.54072   seconds (separate by commas if more than one detector)
#REALTIME    : 10, 10.0   seconds (separate by commas if more than one detector)
#SPECTRUM    : start of spectrum data
0, 0
0, 0
0, 0
0, 0
0, 0
0, 0
0, 0
0, 0
0, 3
1, 3
2, 4
37, 33
63, 50
7, 6
8, 4
91, 91
387, 380
100, 90
7, 7
4, 1
12, 15
63, 66
17, 31
9, 6
38, 40
46, 34
87, 28
96, 11
13, 6
1, 5
4, 1
4, 2
3, 5
12, 15
16, 10
7, 2
6, 4
8, 6
22, 4
13, 0
7, 1
7, 8
12, 12
12, 21
6, 15
8, 10
4, 4
3, 8
7, 10
13, 18
25, 14
34, 5
61, 8
67, 41
73, 59
32, 23
40, 28
464, 603
2056, 2267
1583, 1415
227, 146
11, 22
16, 23
95, 123
316, 358
229, 184
35, 27
11, 9
17, 11
9, 7
3, 2
3, 3
1, 1
2, 3
9, 7
11, 3
14, 7
12, 11
6, 17
14, 14
3, 5
3, 3
2, 5
4, 2
1, 4
3, 7
2, 5
4, 6
4, 5
2, 3
3, 3
3, 2
3, 5
10, 4
6, 6
3, 3
1, 2
2, 4
6, 5
0, 5
5, 3
1, 2
2, 1
3, 3
2, 3
1, 2
5, 3
2, 1
0, 4
3, 4
2, 4
1, 1
3, 1
2, 1
2, 2
8, 2
5, 2
7, 2
1, 0
2, 1
2, 3
1, 1
2, 0
1, 4
3, 1
0, 0
2, 1
0, 1
1, 1
0, 3
1, 0
1, 1
0, 1
2, 1
2, 0
2, 1
1, 3
0, 1
1, 4
1, 0
2, 0
0, 1
0, 1
1, 3
0, 1
0, 0
0, 1
0, 2
0, 1
0, 0
0, 1
0, 0
0, 0
0, 0
0, 0
1, 1
1, 0
0, 1
0, 0
0, 0
0, 0
0, 0
1, 0
0, 0
1, 0
1, 0
0, 0
0, 1
0, 0
0, 0
1, 0
0, 0
0, 0
0, 0
0, 0
0, 0
0, 0
0, 0
0, 0
0, 0
0, 0
1, 0
0, 0
0, 1
1, 0
0, 0
0, 0
0, 1
0, 0
0, 0
0, 0
0, 0
0, 0
0, 1
1, 0
0, 0
0, 1
0, 0
0, 0
1, 0
0, 0
0, 0
0, 0
0, 0
0, 0
0, 0
0, 0
0, 0
0, 0
0, 0
0, 0
0, 0
0, 0
0, 0
0, 0
0, 0
0, 0
0, 0
0, 0
0, 0
0, 0
0, 0
0, 0
0, 0
0, 0
0, 0
0, 0
0, 0
0, 0
0, 0
0, 0
0, 0
0, 0
0, 0
0, 0
0, 0
0, 0
0, 0
0, 0
0, 0
0, 0
0, 0
0, 0
0, 0
0, 0
0, 0
0, 0
0, 0
0, 0
0, 0
0, 0
0, 0
0, 0
0, 0
0, 0
0, 0
0, 0
0, 0
0, 0
0, 0
0, 0
0, 0
0, 0
0, 0
0, 0
0, 0
0, 0
0, 0
0, 0
0, 0
0, 0
0, 0
0, 0
0, 0
0, 0
0, 0
0, 0
0, 0
0, 0
0, 0
0, 0
0, 0
0, 0
0, 0
0, 0
0, 0
0, 0
0, 0
0, 0
0, 0
0, 0
0, 0
0, 0
0, 0
#ENDOFDATA     end of spectrum data