File: host_upload/06-09-2024/ps_0852/dump3/ps__0852shot_2155.msa
#FORMAT      : EMSA/MAS spectral data file
#VERSION     : TC202v2.0 PIXL
#TITLE       : N/A
#DATE        :       Date in the format DD-MMM-YYYY, for example 07-JUL-2010
#TIME        :             The time of day at which the spectrum was recorded, in 24-hour format
#OWNER       : PIXL Flight Model       (PIXL will use this to indicate which instrument took the data.)
#NPOINTS     : 4096     Number of data points in the spectrum (This can be zero for configuration only files)
#NCOLUMNS    : 2     Number of data columns in the spectrum (This can be zero for configuration only files)
#XUNITS      : eV
#YUNITS      : COUNTS
#DATATYPE    : YY
#XPERCHAN    : 7.862, 7.881   eV per channel (separate by commas if more than one detector)
#OFFSET      : 18.5, -22.4         eV of first channel  (separate by commas if more than one detector
#SIGNALTYPE  : XRF
#YP_TEMP     : 2.46
#LIVETIME    : 8.5727, 8.5894   seconds (separate by commas if more than one detector)
#REALTIME    : 10, 10.0   seconds (separate by commas if more than one detector)
#SPECTRUM    : start of spectrum data
0, 0
0, 0
0, 0
0, 0
0, 0
0, 0
0, 0
0, 2
0, 2
0, 2
5, 4
42, 36
65, 66
3, 5
4, 2
96, 101
415, 411
100, 86
4, 3
1, 2
11, 9
59, 58
22, 33
14, 6
33, 28
33, 35
17, 13
16, 15
5, 8
4, 2
7, 3
6, 1
34, 2
67, 6
17, 16
5, 5
3, 6
3, 11
5, 6
3, 4
5, 3
19, 11
10, 21
15, 30
7, 21
13, 4
8, 4
8, 6
35, 9
58, 8
32, 15
15, 29
13, 33
42, 46
76, 60
49, 23
98, 28
497, 601
2152, 2266
1537, 1347
215, 151
15, 16
13, 17
104, 129
328, 374
229, 232
39, 29
7, 12
10, 12
3, 9
1, 7
7, 3
7, 4
6, 2
5, 8
4, 5
16, 1
22, 1
12, 5
6, 5
4, 3
6, 2
3, 3
0, 4
2, 10
4, 8
5, 4
4, 8
1, 5
5, 2
5, 4
6, 1
6, 6
3, 3
3, 2
8, 4
4, 4
3, 2
7, 3
3, 3
2, 3
0, 1
0, 3
3, 2
2, 2
1, 4
3, 2
3, 2
0, 5
2, 0
5, 0
2, 2
4, 2
0, 1
3, 1
2, 4
5, 6
4, 5
0, 3
3, 2
3, 2
3, 1
2, 0
4, 2
1, 1
1, 4
0, 3
1, 1
0, 2
0, 0
0, 1
2, 2
0, 0
1, 2
1, 0
1, 0
0, 1
0, 4
1, 0
0, 0
0, 0
0, 2
1, 2
1, 2
0, 1
0, 1
3, 0
2, 0
0, 1
1, 2
0, 0
2, 1
0, 0
1, 1
0, 0
0, 1
0, 1
0, 0
0, 0
0, 0
0, 0
0, 0
0, 0
0, 0
0, 0
0, 0
0, 0
0, 1
0, 0
0, 0
0, 0
0, 0
0, 1
2, 0
0, 0
0, 0
0, 0
0, 1
0, 0
0, 1
0, 0
0, 1
0, 0
0, 0
1, 0
0, 0
1, 0
0, 0
0, 0
0, 0
0, 0
0, 0
0, 0
0, 0
0, 0
0, 0
0, 0
0, 0
0, 0
0, 0
1, 0
0, 0
0, 0
0, 0
1, 0
0, 0
0, 0
0, 0
0, 0
0, 0
0, 0
0, 0
0, 0
0, 0
0, 0
0, 0
0, 0
0, 0
0, 0
0, 0
0, 0
0, 0
0, 0
0, 0
0, 0
0, 0
0, 0
0, 0
0, 0
0, 0
0, 0
0, 0
0, 0
0, 0
0, 0
0, 0
0, 0
0, 0
0, 0
0, 0
0, 0
0, 0
0, 0
0, 0
0, 0
0, 0
0, 0
0, 0
0, 0
0, 0
0, 0
0, 0
0, 0
0, 0
0, 0
0, 0
0, 0
0, 0
0, 0
0, 0
0, 0
0, 0
0, 0
0, 0
0, 0
0, 0
0, 0
0, 0
0, 0
0, 0
0, 0
0, 0
0, 0
0, 0
0, 0
0, 0
0, 0
0, 0
0, 0
0, 0
0, 0
0, 0
0, 0
0, 0
0, 0
0, 0
0, 0
0, 0
0, 0
0, 0
0, 0
0, 0
0, 0
0, 0
#ENDOFDATA     end of spectrum data