File: host_upload/06-09-2024/ps_0852/dump3/ps__0852shot_2005.msa
#FORMAT      : EMSA/MAS spectral data file
#VERSION     : TC202v2.0 PIXL
#TITLE       : N/A
#DATE        :       Date in the format DD-MMM-YYYY, for example 07-JUL-2010
#TIME        :             The time of day at which the spectrum was recorded, in 24-hour format
#OWNER       : PIXL Flight Model       (PIXL will use this to indicate which instrument took the data.)
#NPOINTS     : 4096     Number of data points in the spectrum (This can be zero for configuration only files)
#NCOLUMNS    : 2     Number of data columns in the spectrum (This can be zero for configuration only files)
#XUNITS      : eV
#YUNITS      : COUNTS
#DATATYPE    : YY
#XPERCHAN    : 7.862, 7.881   eV per channel (separate by commas if more than one detector)
#OFFSET      : 18.5, -22.4         eV of first channel  (separate by commas if more than one detector
#SIGNALTYPE  : XRF
#YP_TEMP     : 2.492
#LIVETIME    : 8.53377, 8.52464   seconds (separate by commas if more than one detector)
#REALTIME    : 10, 10.0   seconds (separate by commas if more than one detector)
#SPECTRUM    : start of spectrum data
0, 0
0, 0
0, 0
0, 0
0, 0
0, 0
0, 0
0, 0
0, 2
3, 1
3, 7
43, 39
52, 61
4, 8
1, 4
111, 104
430, 378
132, 101
6, 7
0, 0
2, 2
11, 11
5, 2
13, 10
59, 50
61, 59
27, 32
15, 23
4, 6
1, 3
2, 4
2, 7
9, 6
9, 14
14, 17
4, 6
9, 7
6, 6
6, 4
4, 8
11, 3
14, 2
21, 16
14, 10
8, 8
10, 6
17, 6
10, 7
7, 8
15, 11
15, 31
7, 43
10, 15
39, 48
52, 58
23, 19
33, 37
485, 612
2291, 2226
1635, 1322
238, 139
27, 17
27, 26
105, 113
327, 337
273, 172
46, 25
16, 12
19, 8
16, 8
6, 6
7, 5
9, 6
8, 4
4, 7
7, 8
6, 4
11, 5
13, 3
6, 3
5, 4
3, 3
4, 3
10, 7
7, 5
5, 4
7, 3
2, 6
3, 7
3, 3
2, 4
3, 3
3, 4
1, 3
7, 3
5, 3
3, 1
1, 2
2, 3
2, 4
4, 1
2, 5
2, 1
1, 6
1, 1
3, 2
4, 3
1, 2
0, 2
2, 3
3, 1
3, 2
3, 2
6, 4
3, 3
3, 5
7, 8
3, 1
3, 2
2, 2
1, 6
6, 0
1, 2
0, 3
4, 1
0, 1
1, 0
1, 0
1, 1
2, 1
2, 2
2, 1
2, 0
0, 2
0, 1
0, 2
1, 0
0, 2
1, 1
0, 0
0, 0
3, 0
1, 1
2, 0
0, 0
0, 0
0, 0
0, 0
1, 0
0, 0
0, 1
0, 1
0, 0
2, 0
1, 2
1, 1
2, 1
0, 1
0, 0
1, 0
1, 0
1, 0
0, 0
0, 0
0, 0
0, 0
0, 0
0, 0
0, 0
0, 0
0, 0
0, 0
1, 0
1, 0
1, 0
0, 0
0, 0
0, 0
1, 0
1, 0
0, 0
1, 1
0, 0
0, 0
0, 0
0, 0
1, 0
0, 0
0, 0
0, 0
0, 0
0, 0
0, 0
0, 0
0, 0
0, 0
0, 0
0, 0
0, 0
0, 0
0, 0
0, 0
0, 0
0, 0
0, 0
0, 0
0, 0
0, 0
0, 0
0, 0
0, 0
0, 0
0, 0
0, 0
0, 0
0, 0
0, 0
0, 0
0, 0
0, 0
0, 0
0, 0
0, 0
0, 0
0, 0
0, 0
0, 0
0, 0
0, 0
0, 0
0, 0
0, 0
0, 0
0, 0
0, 0
0, 0
0, 0
0, 0
0, 0
0, 0
0, 0
0, 0
0, 0
0, 0
0, 0
0, 0
0, 0
0, 0
0, 0
0, 0
0, 0
0, 0
0, 0
0, 0
0, 0
0, 0
0, 0
0, 0
0, 0
0, 0
0, 0
0, 0
0, 0
0, 0
0, 0
0, 0
0, 0
0, 0
0, 0
0, 0
0, 0
0, 0
0, 0
0, 0
0, 0
0, 0
0, 0
0, 0
0, 0
0, 0
0, 0
0, 0
0, 0
0, 0
0, 0
0, 0
0, 0
0, 0
0, 0
0, 0
0, 0
0, 0
0, 0
0, 0
#ENDOFDATA     end of spectrum data