File: host_upload/06-09-2024/ps_0852/dump3/ps__0852shot_2014.msa
#FORMAT      : EMSA/MAS spectral data file
#VERSION     : TC202v2.0 PIXL
#TITLE       : N/A
#DATE        :       Date in the format DD-MMM-YYYY, for example 07-JUL-2010
#TIME        :             The time of day at which the spectrum was recorded, in 24-hour format
#OWNER       : PIXL Flight Model       (PIXL will use this to indicate which instrument took the data.)
#NPOINTS     : 4096     Number of data points in the spectrum (This can be zero for configuration only files)
#NCOLUMNS    : 2     Number of data columns in the spectrum (This can be zero for configuration only files)
#XUNITS      : eV
#YUNITS      : COUNTS
#DATATYPE    : YY
#XPERCHAN    : 7.862, 7.881   eV per channel (separate by commas if more than one detector)
#OFFSET      : 18.5, -22.4         eV of first channel  (separate by commas if more than one detector
#SIGNALTYPE  : XRF
#YP_TEMP     : 2.492
#LIVETIME    : 8.55545, 8.55283   seconds (separate by commas if more than one detector)
#REALTIME    : 10, 10.0   seconds (separate by commas if more than one detector)
#SPECTRUM    : start of spectrum data
0, 0
0, 0
0, 0
0, 0
0, 0
0, 0
0, 0
0, 0
1, 1
2, 3
3, 2
51, 48
70, 64
6, 7
2, 2
86, 103
412, 404
100, 89
8, 7
0, 2
9, 23
77, 113
40, 33
22, 13
44, 33
36, 49
24, 23
9, 11
3, 3
1, 2
2, 1
4, 1
2, 2
20, 11
15, 9
4, 2
3, 2
5, 17
3, 26
2, 12
6, 3
12, 8
20, 29
16, 14
7, 3
5, 9
5, 5
8, 5
8, 10
4, 11
9, 16
10, 7
15, 8
38, 39
56, 63
24, 18
32, 60
450, 567
2128, 2319
1564, 1363
229, 145
95, 39
88, 22
107, 132
325, 397
226, 270
25, 52
6, 13
11, 18
11, 11
4, 4
5, 3
1, 6
2, 4
9, 8
5, 6
12, 8
5, 5
7, 6
5, 1
4, 0
6, 4
2, 4
1, 7
5, 12
1, 6
4, 9
7, 5
5, 7
24, 3
28, 3
12, 5
3, 2
5, 0
3, 3
2, 1
2, 3
0, 4
3, 1
3, 7
5, 5
3, 3
1, 2
2, 6
2, 1
1, 2
1, 3
2, 2
4, 2
2, 2
4, 3
2, 1
2, 1
1, 0
1, 2
1, 3
7, 3
2, 5
1, 0
3, 2
0, 1
1, 1
6, 1
3, 2
2, 0
0, 2
1, 0
1, 0
0, 1
1, 1
2, 0
2, 1
0, 0
2, 0
0, 0
3, 1
0, 0
0, 1
1, 0
1, 0
0, 2
2, 0
0, 0
0, 0
1, 0
0, 1
0, 1
0, 0
0, 0
0, 0
1, 0
0, 0
0, 1
0, 1
1, 0
0, 1
0, 0
1, 0
1, 1
0, 0
0, 0
0, 0
0, 0
0, 0
0, 1
1, 0
1, 1
0, 0
0, 0
0, 1
0, 0
0, 1
1, 1
0, 1
0, 0
0, 0
0, 1
0, 0
0, 0
0, 0
0, 0
0, 0
0, 0
0, 0
0, 0
1, 0
0, 0
0, 0
0, 0
0, 0
0, 0
0, 0
0, 0
0, 0
0, 0
0, 0
0, 0
0, 0
0, 0
1, 0
0, 0
0, 0
0, 0
0, 0
0, 0
0, 0
0, 0
0, 0
0, 0
0, 0
0, 0
0, 0
0, 0
0, 0
0, 0
0, 0
0, 0
0, 0
0, 0
0, 0
0, 0
0, 0
0, 0
0, 0
0, 0
0, 0
0, 0
0, 0
0, 0
0, 0
0, 0
0, 0
0, 0
0, 0
0, 0
0, 0
0, 0
0, 0
0, 0
0, 0
0, 0
0, 0
0, 0
0, 0
0, 0
0, 0
0, 0
0, 0
0, 0
0, 0
0, 0
0, 0
0, 0
0, 0
0, 0
0, 0
0, 0
0, 0
0, 0
0, 0
0, 0
0, 0
0, 0
0, 0
0, 0
0, 0
0, 0
0, 0
0, 0
0, 0
0, 0
0, 0
0, 0
0, 0
0, 0
0, 0
0, 0
0, 0
0, 0
0, 0
0, 0
0, 0
0, 0
0, 0
0, 0
0, 0
0, 0
0, 0
0, 0
0, 0
0, 0
0, 0
0, 0
0, 0
#ENDOFDATA     end of spectrum data