File: host_upload/06-09-2024/ps_0852/dump3/ps__0852shot_2301.msa
#FORMAT      : EMSA/MAS spectral data file
#VERSION     : TC202v2.0 PIXL
#TITLE       : N/A
#DATE        :       Date in the format DD-MMM-YYYY, for example 07-JUL-2010
#TIME        :             The time of day at which the spectrum was recorded, in 24-hour format
#OWNER       : PIXL Flight Model       (PIXL will use this to indicate which instrument took the data.)
#NPOINTS     : 4096     Number of data points in the spectrum (This can be zero for configuration only files)
#NCOLUMNS    : 2     Number of data columns in the spectrum (This can be zero for configuration only files)
#XUNITS      : eV
#YUNITS      : COUNTS
#DATATYPE    : YY
#XPERCHAN    : 7.862, 7.881   eV per channel (separate by commas if more than one detector)
#OFFSET      : 18.5, -22.4         eV of first channel  (separate by commas if more than one detector
#SIGNALTYPE  : XRF
#YP_TEMP     : 2.524
#LIVETIME    : 8.55765, 8.57729   seconds (separate by commas if more than one detector)
#REALTIME    : 10, 10.0   seconds (separate by commas if more than one detector)
#SPECTRUM    : start of spectrum data
0, 0
0, 0
0, 0
0, 0
0, 0
0, 0
0, 0
0, 0
0, 0
2, 0
2, 6
41, 45
77, 62
8, 6
1, 4
81, 101
432, 416
136, 98
6, 4
2, 0
1, 2
2, 1
5, 2
6, 4
16, 24
28, 23
20, 19
13, 12
3, 6
3, 1
1, 3
5, 3
4, 2
28, 21
22, 21
8, 6
3, 5
6, 3
3, 6
4, 3
4, 4
8, 10
18, 23
18, 15
8, 13
9, 4
6, 4
4, 11
11, 10
20, 11
39, 11
26, 10
14, 18
34, 39
64, 51
25, 29
25, 28
494, 557
2252, 2275
1611, 1322
185, 145
17, 14
22, 21
108, 113
332, 354
235, 194
45, 25
18, 8
16, 13
10, 9
3, 5
4, 4
3, 5
6, 11
7, 12
10, 6
6, 5
2, 6
3, 10
7, 8
6, 2
4, 5
3, 4
4, 21
2, 13
3, 3
7, 4
6, 2
2, 5
2, 6
2, 7
4, 1
5, 2
3, 4
4, 3
5, 1
6, 2
0, 4
2, 2
5, 4
5, 0
2, 2
5, 3
2, 3
1, 2
1, 7
1, 5
2, 2
4, 1
3, 1
2, 0
5, 2
3, 2
5, 0
1, 3
3, 5
7, 5
3, 5
3, 0
2, 1
2, 1
2, 2
2, 1
3, 1
1, 2
1, 2
0, 3
0, 2
1, 2
1, 0
0, 3
0, 1
2, 1
1, 1
2, 0
0, 1
1, 1
0, 2
1, 0
0, 1
1, 2
0, 1
0, 1
0, 1
0, 0
1, 1
2, 0
1, 1
1, 0
0, 0
0, 1
0, 0
0, 0
0, 0
0, 0
0, 0
0, 0
0, 0
1, 0
1, 0
0, 0
0, 2
0, 0
0, 1
0, 0
0, 0
1, 1
0, 0
0, 1
0, 0
1, 0
1, 1
1, 0
0, 0
0, 0
0, 0
0, 0
1, 0
0, 0
0, 0
0, 0
0, 0
0, 0
1, 0
0, 0
0, 0
0, 1
0, 0
0, 0
0, 0
0, 0
1, 0
0, 0
0, 0
0, 0
0, 0
1, 0
0, 1
0, 0
0, 0
0, 0
0, 0
0, 0
0, 0
0, 0
0, 0
0, 1
0, 0
0, 0
0, 0
0, 0
0, 0
0, 0
0, 0
0, 0
0, 0
0, 0
0, 0
0, 0
0, 0
0, 0
0, 0
0, 0
0, 0
1, 0
0, 0
0, 0
0, 0
0, 0
0, 0
0, 0
0, 0
0, 0
0, 0
0, 0
0, 0
0, 0
0, 0
0, 0
0, 0
0, 0
0, 0
0, 0
0, 0
0, 0
0, 0
0, 0
0, 0
0, 0
0, 0
0, 0
0, 0
0, 0
0, 0
0, 0
0, 0
0, 0
0, 0
0, 0
0, 0
0, 0
0, 0
0, 0
0, 0
0, 0
0, 0
0, 0
0, 0
0, 0
0, 0
0, 0
0, 0
0, 0
0, 0
0, 0
0, 0
0, 0
0, 0
0, 0
0, 0
0, 0
0, 0
0, 0
0, 0
0, 0
0, 0
0, 0
0, 0
0, 0
0, 0
0, 0
0, 0
0, 0
0, 0
#ENDOFDATA     end of spectrum data