File: host_upload/06-09-2024/ps_0852/dump3/ps__0852shot_2442.msa
#FORMAT      : EMSA/MAS spectral data file
#VERSION     : TC202v2.0 PIXL
#TITLE       : N/A
#DATE        :       Date in the format DD-MMM-YYYY, for example 07-JUL-2010
#TIME        :             The time of day at which the spectrum was recorded, in 24-hour format
#OWNER       : PIXL Flight Model       (PIXL will use this to indicate which instrument took the data.)
#NPOINTS     : 4096     Number of data points in the spectrum (This can be zero for configuration only files)
#NCOLUMNS    : 2     Number of data columns in the spectrum (This can be zero for configuration only files)
#XUNITS      : eV
#YUNITS      : COUNTS
#DATATYPE    : YY
#XPERCHAN    : 7.862, 7.881   eV per channel (separate by commas if more than one detector)
#OFFSET      : 18.5, -22.4         eV of first channel  (separate by commas if more than one detector
#SIGNALTYPE  : XRF
#YP_TEMP     : 2.524
#LIVETIME    : 8.54114, 8.55087   seconds (separate by commas if more than one detector)
#REALTIME    : 10, 10.0   seconds (separate by commas if more than one detector)
#SPECTRUM    : start of spectrum data
0, 0
0, 0
0, 0
0, 0
0, 0
0, 0
0, 0
0, 0
2, 8
1, 28
0, 12
51, 44
68, 78
6, 5
3, 6
90, 106
414, 426
95, 111
2, 6
0, 6
1, 5
1, 3
2, 4
12, 63
34, 1027
46, 1576
19, 174
15, 9
4, 3
4, 3
1, 0
0, 1
5, 2
7, 7
15, 16
3, 8
4, 18
7, 17
5, 2
1, 5
2, 5
8, 8
9, 9
10, 17
5, 9
3, 4
7, 6
4, 8
8, 10
9, 9
9, 9
8, 5
5, 14
39, 51
53, 59
13, 22
22, 30
447, 580
2141, 2394
1528, 1454
195, 148
10, 33
27, 23
91, 105
353, 350
231, 199
28, 17
8, 9
17, 14
8, 7
5, 3
3, 4
4, 6
12, 2
16, 4
11, 6
7, 5
3, 3
5, 3
2, 1
5, 4
1, 6
3, 9
4, 6
4, 1
4, 6
6, 5
1, 8
1, 2
1, 3
1, 2
1, 4
3, 2
3, 2
3, 2
3, 6
6, 2
2, 7
4, 3
1, 9
2, 2
1, 3
3, 2
5, 3
3, 0
2, 3
0, 2
2, 1
3, 3
0, 3
3, 2
1, 1
2, 2
0, 1
2, 3
1, 3
2, 5
4, 3
3, 3
1, 1
2, 0
1, 4
4, 4
1, 3
0, 2
3, 1
0, 0
1, 2
4, 0
1, 1
0, 2
0, 1
1, 1
2, 1
0, 1
1, 0
1, 0
0, 1
0, 1
0, 0
1, 0
0, 0
1, 0
0, 1
0, 0
1, 0
0, 1
0, 0
0, 0
0, 0
0, 0
0, 0
2, 0
2, 0
0, 0
0, 0
1, 0
0, 1
1, 0
0, 0
0, 1
0, 0
0, 0
0, 0
0, 0
0, 0
1, 0
0, 1
0, 1
1, 0
0, 0
1, 0
1, 1
0, 0
0, 1
0, 0
0, 0
0, 0
0, 0
0, 0
0, 0
0, 0
0, 0
0, 0
0, 0
0, 0
0, 0
1, 0
0, 0
0, 0
0, 0
0, 0
0, 0
0, 0
0, 0
0, 0
0, 0
0, 0
0, 0
0, 0
0, 0
0, 0
0, 0
0, 0
0, 0
0, 0
0, 0
0, 0
0, 0
0, 0
0, 0
0, 0
0, 0
0, 0
0, 0
0, 0
0, 0
0, 0
1, 0
0, 0
0, 0
0, 0
0, 0
0, 0
0, 0
0, 0
0, 0
0, 0
0, 0
0, 0
0, 0
0, 0
0, 0
0, 0
0, 0
0, 0
0, 0
0, 0
0, 0
0, 0
0, 0
0, 0
0, 0
0, 0
0, 0
0, 0
0, 0
0, 0
0, 0
0, 0
0, 0
0, 0
0, 0
0, 0
0, 0
0, 0
0, 0
0, 0
0, 0
0, 0
0, 0
0, 0
0, 0
0, 0
0, 0
0, 0
0, 0
0, 0
0, 0
0, 0
0, 0
0, 0
0, 0
0, 0
0, 0
0, 0
0, 0
0, 0
0, 0
0, 0
0, 0
0, 0
0, 0
0, 0
0, 0
0, 0
0, 0
0, 0
0, 0
0, 0
0, 0
0, 0
0, 0
0, 0
#ENDOFDATA     end of spectrum data