File: host_upload/06-09-2024/ps_0852/dump3/ps__0852shot_2545.msa
#FORMAT      : EMSA/MAS spectral data file
#VERSION     : TC202v2.0 PIXL
#TITLE       : N/A
#DATE        :       Date in the format DD-MMM-YYYY, for example 07-JUL-2010
#TIME        :             The time of day at which the spectrum was recorded, in 24-hour format
#OWNER       : PIXL Flight Model       (PIXL will use this to indicate which instrument took the data.)
#NPOINTS     : 4096     Number of data points in the spectrum (This can be zero for configuration only files)
#NCOLUMNS    : 2     Number of data columns in the spectrum (This can be zero for configuration only files)
#XUNITS      : eV
#YUNITS      : COUNTS
#DATATYPE    : YY
#XPERCHAN    : 7.862, 7.881   eV per channel (separate by commas if more than one detector)
#OFFSET      : 18.5, -22.4         eV of first channel  (separate by commas if more than one detector
#SIGNALTYPE  : XRF
#YP_TEMP     : 2.139
#LIVETIME    : 8.5526, 8.55228   seconds (separate by commas if more than one detector)
#REALTIME    : 10, 10.0   seconds (separate by commas if more than one detector)
#SPECTRUM    : start of spectrum data
0, 0
0, 0
0, 0
0, 0
0, 0
0, 0
0, 0
0, 0
1, 0
2, 2
1, 1
58, 42
80, 66
12, 7
2, 4
107, 106
460, 387
101, 91
0, 3
1, 0
0, 1
6, 6
6, 1
8, 6
41, 51
45, 77
33, 39
14, 11
4, 3
1, 1
3, 2
3, 2
2, 0
21, 18
29, 21
5, 5
11, 6
20, 4
45, 7
17, 3
7, 3
14, 16
16, 12
12, 60
9, 65
7, 15
5, 7
9, 4
6, 10
22, 16
39, 12
41, 8
19, 15
46, 33
60, 58
36, 30
40, 51
452, 557
2245, 2291
1565, 1315
163, 143
28, 24
52, 37
141, 122
364, 370
241, 197
44, 29
9, 10
17, 11
6, 5
3, 3
8, 6
4, 5
9, 7
14, 8
50, 7
44, 13
8, 12
4, 11
8, 3
5, 3
1, 1
2, 4
3, 2
4, 4
4, 5
2, 4
3, 7
6, 5
2, 2
0, 3
5, 6
3, 3
6, 7
1, 4
6, 4
6, 1
2, 2
1, 2
3, 3
3, 3
2, 2
4, 4
3, 9
2, 1
1, 5
0, 1
2, 2
2, 3
1, 1
3, 1
1, 1
1, 1
1, 1
2, 2
5, 2
1, 3
3, 5
1, 3
3, 2
1, 1
2, 0
1, 0
0, 2
3, 2
1, 2
0, 3
1, 2
0, 1
1, 0
0, 3
1, 0
2, 1
0, 0
1, 0
1, 0
1, 1
0, 1
0, 1
0, 3
0, 0
1, 1
1, 0
0, 0
0, 0
0, 1
0, 0
1, 0
1, 0
0, 3
0, 0
1, 1
0, 0
0, 0
1, 0
0, 0
0, 0
0, 0
1, 0
0, 1
0, 0
0, 0
0, 1
0, 1
0, 0
0, 0
1, 0
0, 0
0, 0
0, 2
0, 0
0, 1
0, 0
1, 0
0, 0
1, 0
0, 1
0, 1
0, 0
0, 0
1, 0
0, 0
0, 1
0, 0
1, 0
0, 0
0, 0
0, 0
0, 0
0, 0
0, 0
0, 0
1, 1
0, 0
0, 0
1, 0
0, 0
0, 0
0, 0
0, 0
0, 0
0, 0
0, 0
0, 0
0, 0
1, 0
0, 0
0, 0
0, 0
0, 0
0, 0
0, 0
0, 0
0, 0
0, 0
0, 0
0, 0
0, 0
0, 0
0, 0
0, 0
0, 0
0, 0
0, 0
0, 0
0, 0
0, 0
0, 0
0, 0
0, 0
0, 0
0, 0
0, 0
0, 0
0, 0
0, 0
0, 0
0, 0
0, 0
0, 0
0, 0
0, 0
0, 0
0, 0
0, 0
0, 0
0, 0
0, 0
0, 0
0, 0
0, 0
0, 0
0, 0
0, 0
0, 0
0, 0
0, 0
0, 0
0, 0
0, 0
0, 0
0, 0
0, 0
0, 0
0, 0
0, 0
0, 0
0, 0
0, 0
0, 0
0, 0
0, 0
0, 0
0, 0
0, 0
0, 0
0, 0
0, 0
0, 0
0, 0
0, 0
0, 0
0, 0
0, 0
0, 0
0, 0
0, 0
0, 0
0, 0
0, 0
0, 0
0, 0
0, 0
0, 0
#ENDOFDATA     end of spectrum data