File: host_upload/06-09-2024/ps_0852/dump3/ps__0852shot_2313.msa
#FORMAT      : EMSA/MAS spectral data file
#VERSION     : TC202v2.0 PIXL
#TITLE       : N/A
#DATE        :       Date in the format DD-MMM-YYYY, for example 07-JUL-2010
#TIME        :             The time of day at which the spectrum was recorded, in 24-hour format
#OWNER       : PIXL Flight Model       (PIXL will use this to indicate which instrument took the data.)
#NPOINTS     : 4096     Number of data points in the spectrum (This can be zero for configuration only files)
#NCOLUMNS    : 2     Number of data columns in the spectrum (This can be zero for configuration only files)
#XUNITS      : eV
#YUNITS      : COUNTS
#DATATYPE    : YY
#XPERCHAN    : 7.862, 7.881   eV per channel (separate by commas if more than one detector)
#OFFSET      : 18.5, -22.4         eV of first channel  (separate by commas if more than one detector
#SIGNALTYPE  : XRF
#YP_TEMP     : 2.139
#LIVETIME    : 8.54109, 8.35914   seconds (separate by commas if more than one detector)
#REALTIME    : 10, 10.0   seconds (separate by commas if more than one detector)
#SPECTRUM    : start of spectrum data
0, 0
0, 0
0, 0
0, 0
0, 0
0, 0
0, 0
0, 0
1, 1
2, 0
6, 1
44, 57
72, 55
10, 8
2, 0
95, 96
416, 402
104, 103
6, 5
3, 1
3, 2
7, 4
4, 1
13, 2
60, 24
94, 50
83, 20
109, 12
16, 5
3, 2
1, 3
3, 3
3, 12
12, 23
18, 20
6, 8
4, 4
10, 5
9, 11
11, 6
8, 4
21, 10
50, 11
35, 21
9, 5
7, 13
10, 5
10, 10
12, 10
8, 17
11, 9
7, 8
32, 16
90, 56
91, 89
28, 65
29, 61
511, 578
2204, 2312
1628, 1312
183, 160
22, 18
26, 39
103, 130
330, 346
215, 193
43, 26
11, 8
15, 9
13, 6
5, 6
0, 3
3, 4
6, 4
7, 6
7, 6
4, 7
4, 4
6, 6
8, 1
3, 3
2, 2
6, 6
6, 1
14, 5
12, 8
4, 6
4, 7
6, 5
4, 3
5, 4
1, 4
4, 7
4, 2
6, 2
5, 2
3, 4
4, 1
6, 3
3, 4
4, 1
2, 5
2, 1
3, 3
4, 3
0, 1
5, 2
4, 1
3, 4
1, 2
1, 3
2, 2
0, 3
1, 4
2, 6
4, 3
3, 7
2, 3
3, 1
0, 2
3, 1
5, 0
5, 0
3, 0
2, 0
2, 0
1, 2
1, 1
1, 2
1, 1
4, 2
0, 0
0, 0
1, 0
1, 1
1, 0
1, 1
2, 0
0, 1
1, 0
0, 1
0, 0
0, 1
0, 0
1, 1
0, 0
0, 0
0, 0
1, 1
2, 0
1, 0
0, 1
1, 0
0, 0
0, 0
0, 0
0, 0
0, 0
0, 1
0, 0
0, 0
0, 0
0, 0
0, 0
0, 0
2, 0
0, 0
0, 0
0, 1
0, 0
0, 0
0, 0
0, 0
0, 1
0, 0
0, 1
1, 0
0, 0
1, 0
0, 0
0, 0
0, 0
0, 0
1, 0
0, 0
1, 0
0, 0
0, 0
0, 0
0, 0
0, 0
0, 0
0, 0
0, 0
1, 0
0, 0
0, 0
0, 0
0, 0
0, 0
0, 0
1, 0
0, 0
0, 0
0, 0
0, 0
0, 0
0, 0
0, 0
0, 0
0, 0
0, 0
0, 0
0, 0
0, 0
0, 0
0, 0
0, 0
0, 0
0, 0
0, 0
0, 0
0, 0
0, 0
0, 0
0, 0
0, 0
0, 0
0, 0
0, 0
0, 0
0, 0
0, 0
0, 0
0, 0
0, 0
0, 0
0, 0
0, 0
0, 0
0, 0
0, 0
0, 0
0, 0
0, 0
0, 0
0, 0
0, 0
0, 0
0, 0
0, 0
0, 0
0, 0
0, 0
0, 0
0, 0
0, 0
0, 0
0, 0
0, 0
0, 0
0, 0
0, 0
0, 0
0, 0
0, 0
0, 0
0, 0
0, 0
0, 0
0, 0
0, 0
0, 0
0, 0
0, 0
0, 0
0, 0
0, 0
0, 0
0, 0
0, 0
0, 0
0, 0
0, 0
0, 0
0, 0
0, 0
0, 0
0, 0
0, 0
0, 0
0, 0
0, 0
0, 0
#ENDOFDATA     end of spectrum data