File: host_upload/06-09-2024/ps_0852/dump3/ps__0852shot_2492.msa
#FORMAT      : EMSA/MAS spectral data file
#VERSION     : TC202v2.0 PIXL
#TITLE       : N/A
#DATE        :       Date in the format DD-MMM-YYYY, for example 07-JUL-2010
#TIME        :             The time of day at which the spectrum was recorded, in 24-hour format
#OWNER       : PIXL Flight Model       (PIXL will use this to indicate which instrument took the data.)
#NPOINTS     : 4096     Number of data points in the spectrum (This can be zero for configuration only files)
#NCOLUMNS    : 2     Number of data columns in the spectrum (This can be zero for configuration only files)
#XUNITS      : eV
#YUNITS      : COUNTS
#DATATYPE    : YY
#XPERCHAN    : 7.862, 7.881   eV per channel (separate by commas if more than one detector)
#OFFSET      : 18.5, -22.4         eV of first channel  (separate by commas if more than one detector
#SIGNALTYPE  : XRF
#YP_TEMP     : 2.62
#LIVETIME    : 8.54104, 8.55678   seconds (separate by commas if more than one detector)
#REALTIME    : 10, 10.0   seconds (separate by commas if more than one detector)
#SPECTRUM    : start of spectrum data
0, 0
0, 0
0, 0
0, 0
0, 0
0, 0
0, 0
0, 0
0, 0
0, 2
5, 1
39, 58
68, 48
6, 3
2, 5
89, 85
378, 405
70, 92
4, 4
2, 1
0, 3
4, 3
4, 1
11, 7
35, 39
68, 62
217, 29
278, 23
21, 5
2, 1
1, 1
2, 4
2, 13
6, 22
17, 13
3, 6
3, 5
3, 4
8, 7
10, 17
7, 9
20, 13
30, 15
25, 13
8, 2
12, 7
8, 9
5, 5
13, 9
21, 24
18, 15
14, 5
32, 11
121, 63
104, 85
29, 68
31, 39
460, 599
2103, 2402
1515, 1411
179, 139
18, 14
19, 25
100, 125
378, 399
223, 193
43, 19
9, 7
11, 12
10, 6
3, 5
0, 3
4, 7
4, 5
1, 2
10, 8
4, 3
7, 4
9, 5
6, 7
10, 9
5, 4
1, 1
5, 9
9, 5
5, 6
3, 4
1, 4
6, 3
3, 1
3, 4
5, 3
4, 1
2, 1
1, 8
2, 1
5, 0
2, 2
1, 4
4, 0
4, 0
4, 5
1, 2
2, 1
3, 1
5, 5
6, 4
3, 4
3, 5
2, 2
1, 3
4, 2
2, 8
1, 1
0, 5
4, 1
3, 8
0, 2
1, 4
3, 2
4, 2
3, 0
1, 3
0, 1
1, 1
2, 2
1, 2
0, 1
0, 2
2, 0
2, 0
2, 0
0, 1
0, 1
1, 1
0, 0
0, 0
0, 1
1, 0
0, 0
0, 0
1, 0
0, 0
1, 0
1, 1
0, 1
2, 0
0, 0
2, 0
1, 2
1, 0
0, 0
0, 0
0, 0
0, 0
0, 0
0, 0
0, 1
0, 0
0, 0
1, 0
0, 0
1, 0
0, 1
0, 0
1, 0
0, 0
0, 0
0, 0
0, 0
0, 1
0, 0
0, 0
0, 0
1, 0
0, 0
0, 0
0, 0
0, 0
0, 0
0, 1
0, 0
0, 1
0, 2
0, 0
0, 1
0, 0
0, 0
0, 0
1, 0
0, 0
0, 0
0, 0
0, 0
0, 0
0, 1
0, 0
0, 0
0, 0
0, 0
0, 0
0, 0
0, 0
0, 0
0, 1
0, 0
0, 0
0, 0
0, 0
0, 0
0, 0
0, 0
0, 0
0, 0
0, 0
0, 0
0, 0
0, 0
0, 0
0, 0
0, 0
0, 0
0, 0
0, 0
0, 0
0, 0
0, 0
0, 0
0, 0
0, 0
0, 0
0, 0
0, 0
0, 0
0, 0
0, 0
0, 0
0, 0
0, 0
0, 0
0, 0
0, 0
0, 0
0, 0
0, 0
0, 0
0, 0
0, 0
0, 0
0, 0
0, 0
0, 0
0, 0
0, 0
0, 0
0, 0
0, 0
0, 0
0, 0
0, 0
0, 0
0, 0
0, 0
0, 0
0, 0
0, 0
0, 0
0, 0
0, 0
0, 0
0, 0
0, 0
0, 0
0, 0
0, 0
0, 0
0, 0
0, 0
0, 0
0, 0
0, 0
0, 0
0, 0
0, 0
0, 0
0, 0
0, 0
0, 0
0, 0
0, 0
0, 0
0, 0
0, 0
0, 0
#ENDOFDATA     end of spectrum data