File: host_upload/06-09-2024/ps_0852/dump3/ps__0852shot_2118.msa
#FORMAT      : EMSA/MAS spectral data file
#VERSION     : TC202v2.0 PIXL
#TITLE       : N/A
#DATE        :       Date in the format DD-MMM-YYYY, for example 07-JUL-2010
#TIME        :             The time of day at which the spectrum was recorded, in 24-hour format
#OWNER       : PIXL Flight Model       (PIXL will use this to indicate which instrument took the data.)
#NPOINTS     : 4096     Number of data points in the spectrum (This can be zero for configuration only files)
#NCOLUMNS    : 2     Number of data columns in the spectrum (This can be zero for configuration only files)
#XUNITS      : eV
#YUNITS      : COUNTS
#DATATYPE    : YY
#XPERCHAN    : 7.862, 7.881   eV per channel (separate by commas if more than one detector)
#OFFSET      : 18.5, -22.4         eV of first channel  (separate by commas if more than one detector
#SIGNALTYPE  : XRF
#YP_TEMP     : 2.267
#LIVETIME    : 8.55328, 8.5981   seconds (separate by commas if more than one detector)
#REALTIME    : 10, 10.0   seconds (separate by commas if more than one detector)
#SPECTRUM    : start of spectrum data
0, 0
0, 0
0, 0
0, 0
0, 0
0, 0
0, 0
0, 1
1, 0
2, 2
2, 1
40, 57
62, 45
4, 2
3, 5
91, 92
371, 422
113, 99
5, 2
2, 2
4, 3
16, 13
9, 9
12, 16
25, 21
35, 30
28, 25
11, 14
1, 3
6, 1
1, 2
1, 4
7, 4
14, 11
21, 22
4, 9
8, 5
4, 9
6, 11
4, 11
0, 9
19, 18
14, 27
14, 20
8, 9
5, 10
13, 8
29, 8
38, 6
50, 19
50, 27
11, 15
16, 10
40, 43
65, 68
15, 16
21, 34
418, 619
2018, 2368
1445, 1429
194, 156
30, 23
34, 30
110, 130
305, 407
225, 185
30, 46
7, 11
15, 25
5, 7
3, 9
5, 5
4, 3
5, 8
3, 7
5, 9
9, 6
8, 6
6, 1
2, 4
4, 6
9, 3
4, 8
4, 5
1, 7
2, 5
5, 5
1, 7
3, 6
2, 4
4, 1
7, 3
3, 4
4, 0
6, 1
3, 1
9, 1
5, 2
3, 4
1, 4
4, 4
5, 5
0, 3
2, 3
1, 4
4, 6
2, 1
4, 2
4, 1
1, 3
0, 1
2, 5
2, 3
2, 5
1, 0
1, 5
3, 6
2, 4
3, 1
1, 2
1, 0
1, 1
1, 5
1, 2
0, 2
2, 0
0, 2
1, 3
3, 1
0, 1
3, 1
2, 1
1, 1
2, 0
0, 0
1, 3
0, 0
0, 1
3, 1
0, 0
0, 1
0, 1
0, 0
0, 0
1, 1
1, 1
1, 1
0, 0
0, 1
0, 0
1, 0
0, 0
0, 1
1, 0
0, 1
0, 0
1, 0
0, 1
1, 0
0, 1
2, 1
2, 0
0, 1
2, 0
0, 1
1, 0
0, 0
0, 1
1, 0
2, 0
0, 2
0, 1
1, 0
0, 1
1, 0
0, 0
0, 0
0, 0
0, 0
0, 0
0, 0
0, 0
0, 0
0, 0
0, 1
0, 0
0, 0
0, 1
0, 0
0, 0
0, 0
0, 1
0, 0
0, 0
1, 0
0, 0
0, 0
0, 0
0, 0
0, 0
0, 0
0, 0
0, 0
0, 0
0, 0
0, 0
0, 0
0, 0
0, 0
0, 0
0, 0
0, 0
0, 0
0, 0
0, 0
0, 0
0, 0
0, 0
0, 0
0, 0
0, 0
0, 0
0, 0
0, 0
0, 0
0, 0
0, 0
0, 0
0, 0
0, 0
0, 0
0, 0
0, 0
0, 0
0, 0
0, 0
0, 0
0, 0
0, 0
0, 0
0, 0
0, 0
0, 0
0, 0
0, 0
0, 0
0, 0
0, 0
0, 0
0, 0
0, 0
0, 0
0, 0
0, 0
0, 0
0, 0
0, 0
0, 0
0, 0
0, 0
0, 0
0, 0
0, 0
0, 0
0, 0
0, 0
0, 0
0, 0
0, 0
0, 0
0, 0
0, 0
0, 0
0, 0
0, 0
0, 0
0, 0
0, 0
0, 0
0, 0
0, 0
0, 0
0, 0
0, 0
0, 0
0, 0
0, 0
0, 0
0, 0
0, 0
0, 0
0, 0
0, 0
0, 0
#ENDOFDATA     end of spectrum data