File: host_upload/06-09-2024/ps_0852/dump3/ps__0852shot_2061.msa
#FORMAT      : EMSA/MAS spectral data file
#VERSION     : TC202v2.0 PIXL
#TITLE       : N/A
#DATE        :       Date in the format DD-MMM-YYYY, for example 07-JUL-2010
#TIME        :             The time of day at which the spectrum was recorded, in 24-hour format
#OWNER       : PIXL Flight Model       (PIXL will use this to indicate which instrument took the data.)
#NPOINTS     : 4096     Number of data points in the spectrum (This can be zero for configuration only files)
#NCOLUMNS    : 2     Number of data columns in the spectrum (This can be zero for configuration only files)
#XUNITS      : eV
#YUNITS      : COUNTS
#DATATYPE    : YY
#XPERCHAN    : 7.862, 7.881   eV per channel (separate by commas if more than one detector)
#OFFSET      : 18.5, -22.4         eV of first channel  (separate by commas if more than one detector
#SIGNALTYPE  : XRF
#YP_TEMP     : 2.524
#LIVETIME    : 8.5559, 8.52335   seconds (separate by commas if more than one detector)
#REALTIME    : 10, 10.0   seconds (separate by commas if more than one detector)
#SPECTRUM    : start of spectrum data
0, 0
0, 0
0, 0
0, 0
0, 0
0, 0
0, 0
1, 0
1, 1
2, 1
4, 3
38, 54
82, 61
9, 5
1, 3
105, 92
450, 437
114, 98
4, 4
1, 4
1, 1
4, 4
4, 0
6, 3
15, 28
29, 22
21, 11
15, 14
3, 3
2, 0
1, 0
0, 1
3, 8
13, 19
16, 15
6, 6
3, 1
7, 3
6, 5
21, 2
40, 2
20, 5
12, 17
15, 5
8, 6
9, 5
8, 14
6, 10
11, 11
15, 18
13, 18
12, 6
46, 12
97, 50
67, 54
20, 12
35, 33
505, 593
2174, 2245
1646, 1404
199, 155
19, 12
21, 25
99, 114
336, 323
236, 169
28, 26
7, 10
10, 22
10, 4
6, 7
1, 2
4, 2
3, 8
2, 1
5, 4
7, 4
6, 3
10, 9
14, 3
5, 5
6, 10
6, 8
5, 3
5, 3
5, 2
2, 5
3, 2
6, 5
2, 2
1, 3
7, 5
10, 6
11, 16
6, 12
2, 3
1, 3
0, 5
3, 1
4, 1
2, 4
4, 2
3, 2
1, 2
3, 3
4, 0
2, 0
4, 2
0, 2
1, 4
2, 1
2, 2
1, 3
0, 2
0, 3
2, 5
7, 6
3, 3
1, 4
2, 1
1, 3
2, 0
2, 1
1, 3
1, 2
3, 0
0, 1
0, 1
2, 0
2, 0
1, 1
4, 1
0, 1
1, 0
0, 0
3, 0
2, 2
0, 0
0, 3
1, 1
0, 0
0, 2
1, 0
0, 1
1, 0
0, 0
1, 0
0, 0
0, 0
0, 0
0, 1
1, 0
0, 1
0, 0
0, 0
0, 0
1, 1
0, 0
0, 0
0, 0
0, 0
0, 1
1, 1
0, 0
1, 0
0, 0
0, 1
0, 0
0, 0
0, 0
1, 0
0, 0
0, 0
0, 1
0, 1
0, 0
0, 0
0, 0
0, 0
1, 0
0, 0
0, 0
2, 0
0, 0
0, 0
0, 0
0, 0
0, 0
0, 1
0, 0
0, 0
0, 0
0, 0
0, 0
0, 0
0, 0
0, 0
0, 0
0, 0
0, 0
0, 0
0, 0
0, 0
0, 0
0, 0
0, 0
0, 0
0, 0
0, 0
0, 0
0, 0
0, 0
0, 0
0, 0
0, 0
0, 0
0, 0
0, 0
0, 0
0, 0
0, 0
0, 0
0, 0
0, 0
0, 0
0, 0
0, 0
0, 0
0, 0
0, 0
0, 0
0, 0
0, 0
0, 0
0, 0
0, 0
0, 0
0, 0
0, 0
0, 0
0, 0
0, 0
0, 0
0, 1
0, 0
0, 0
0, 0
0, 0
0, 0
0, 0
0, 0
0, 0
0, 0
0, 0
0, 0
0, 0
0, 0
0, 0
0, 0
0, 0
0, 0
0, 0
0, 0
0, 0
0, 0
0, 0
0, 0
0, 0
0, 0
0, 0
0, 0
0, 0
0, 0
0, 0
0, 0
0, 0
0, 0
0, 0
0, 0
0, 0
0, 0
0, 0
0, 0
0, 0
0, 0
0, 0
0, 0
0, 0
0, 0
0, 0
0, 0
0, 0
0, 0
0, 0
#ENDOFDATA     end of spectrum data