File: host_upload/06-09-2024/ps_0852/dump3/ps__0852shot_2392.msa
#FORMAT      : EMSA/MAS spectral data file
#VERSION     : TC202v2.0 PIXL
#TITLE       : N/A
#DATE        :       Date in the format DD-MMM-YYYY, for example 07-JUL-2010
#TIME        :             The time of day at which the spectrum was recorded, in 24-hour format
#OWNER       : PIXL Flight Model       (PIXL will use this to indicate which instrument took the data.)
#NPOINTS     : 4096     Number of data points in the spectrum (This can be zero for configuration only files)
#NCOLUMNS    : 2     Number of data columns in the spectrum (This can be zero for configuration only files)
#XUNITS      : eV
#YUNITS      : COUNTS
#DATATYPE    : YY
#XPERCHAN    : 7.862, 7.881   eV per channel (separate by commas if more than one detector)
#OFFSET      : 18.5, -22.4         eV of first channel  (separate by commas if more than one detector
#SIGNALTYPE  : XRF
#YP_TEMP     : 2.235
#LIVETIME    : 8.56479, 8.56108   seconds (separate by commas if more than one detector)
#REALTIME    : 10, 10.0   seconds (separate by commas if more than one detector)
#SPECTRUM    : start of spectrum data
0, 0
0, 0
0, 0
0, 0
0, 0
0, 0
0, 0
0, 0
0, 0
0, 1
5, 1
46, 44
75, 51
6, 5
6, 4
106, 84
494, 389
111, 92
9, 6
3, 1
1, 2
8, 7
5, 3
17, 4
49, 33
52, 33
30, 19
13, 12
6, 5
1, 7
4, 7
2, 2
2, 0
15, 15
22, 12
8, 1
5, 3
8, 7
9, 4
20, 5
30, 5
10, 7
11, 12
12, 6
8, 13
9, 21
4, 17
4, 9
7, 9
16, 8
24, 12
22, 6
33, 10
62, 40
85, 51
25, 21
36, 29
483, 560
2342, 2181
1752, 1271
206, 112
25, 12
28, 20
95, 120
363, 348
270, 187
46, 26
6, 11
15, 26
13, 12
8, 5
5, 5
8, 1
1, 4
7, 6
4, 7
4, 12
2, 14
5, 7
20, 9
18, 6
6, 8
8, 8
3, 1
2, 4
3, 4
7, 23
9, 29
6, 15
12, 6
5, 1
5, 3
2, 6
5, 3
2, 4
5, 4
2, 1
2, 3
2, 2
4, 1
5, 4
3, 2
6, 0
4, 2
5, 3
3, 1
6, 2
4, 5
1, 10
1, 8
4, 3
2, 0
2, 2
2, 2
2, 0
3, 4
6, 2
3, 2
3, 2
1, 0
1, 3
1, 1
4, 2
1, 2
2, 1
3, 3
1, 1
3, 2
1, 1
1, 0
1, 1
1, 0
0, 1
1, 1
0, 0
1, 0
1, 3
0, 3
1, 3
0, 1
0, 0
0, 0
0, 0
1, 1
1, 1
2, 0
0, 0
0, 0
2, 0
0, 0
1, 0
0, 1
0, 0
0, 0
1, 0
1, 0
1, 1
0, 0
0, 0
1, 1
0, 1
0, 0
1, 1
0, 1
0, 0
1, 0
2, 0
0, 0
0, 0
0, 1
0, 0
1, 1
0, 1
0, 0
0, 0
0, 0
0, 1
0, 1
1, 0
0, 0
0, 0
0, 0
0, 2
0, 0
0, 0
0, 0
0, 0
0, 0
0, 0
0, 0
0, 0
0, 0
1, 1
0, 0
0, 0
0, 0
0, 0
0, 0
0, 0
0, 0
0, 0
0, 0
0, 0
0, 0
0, 0
0, 0
0, 0
0, 0
0, 0
0, 0
0, 0
0, 0
0, 0
0, 0
0, 0
0, 0
0, 0
0, 0
0, 0
0, 0
0, 0
0, 0
0, 0
0, 0
0, 0
0, 0
0, 0
0, 0
0, 0
0, 0
0, 0
0, 0
0, 0
0, 0
0, 0
0, 0
0, 0
0, 0
0, 0
0, 0
0, 0
0, 0
0, 0
0, 0
0, 0
0, 0
0, 0
0, 0
0, 0
0, 0
0, 0
0, 0
0, 0
0, 0
0, 0
0, 0
0, 0
0, 0
0, 0
0, 0
0, 0
0, 0
0, 0
0, 0
0, 0
0, 0
0, 0
0, 0
0, 0
0, 0
0, 0
0, 0
0, 0
0, 0
0, 0
0, 0
0, 0
0, 0
0, 0
0, 0
0, 0
0, 0
0, 0
0, 0
0, 0
0, 0
0, 0
0, 0
0, 0
0, 0
0, 0
0, 0
0, 0
0, 0
#ENDOFDATA     end of spectrum data