File: host_upload/06-09-2024/ps_0852/dump3/ps__0852shot_2086.msa
#FORMAT      : EMSA/MAS spectral data file
#VERSION     : TC202v2.0 PIXL
#TITLE       : N/A
#DATE        :       Date in the format DD-MMM-YYYY, for example 07-JUL-2010
#TIME        :             The time of day at which the spectrum was recorded, in 24-hour format
#OWNER       : PIXL Flight Model       (PIXL will use this to indicate which instrument took the data.)
#NPOINTS     : 4096     Number of data points in the spectrum (This can be zero for configuration only files)
#NCOLUMNS    : 2     Number of data columns in the spectrum (This can be zero for configuration only files)
#XUNITS      : eV
#YUNITS      : COUNTS
#DATATYPE    : YY
#XPERCHAN    : 7.862, 7.881   eV per channel (separate by commas if more than one detector)
#OFFSET      : 18.5, -22.4         eV of first channel  (separate by commas if more than one detector
#SIGNALTYPE  : XRF
#YP_TEMP     : 2.556
#LIVETIME    : 8.55991, 8.55916   seconds (separate by commas if more than one detector)
#REALTIME    : 10, 10.0   seconds (separate by commas if more than one detector)
#SPECTRUM    : start of spectrum data
0, 0
0, 0
0, 0
0, 0
0, 0
0, 0
0, 0
0, 0
1, 0
2, 1
3, 4
48, 56
67, 80
3, 5
7, 5
95, 101
367, 471
105, 114
6, 2
2, 0
1, 2
2, 1
1, 2
8, 8
89, 52
140, 67
19, 22
13, 8
2, 2
5, 1
2, 1
2, 1
1, 4
11, 19
11, 22
6, 2
8, 10
23, 4
48, 4
15, 2
14, 3
11, 4
11, 20
13, 60
7, 67
3, 19
3, 6
5, 15
5, 24
16, 12
33, 7
65, 4
31, 9
56, 58
47, 41
26, 23
27, 48
454, 601
1977, 2304
1542, 1453
214, 205
22, 19
31, 32
98, 112
345, 377
198, 209
27, 23
4, 5
17, 10
6, 13
4, 4
1, 6
3, 4
3, 4
20, 3
33, 3
52, 4
16, 14
3, 7
6, 8
3, 7
5, 5
7, 3
3, 0
1, 5
2, 4
0, 3
0, 4
3, 5
1, 4
4, 7
2, 5
1, 2
4, 6
2, 14
2, 3
2, 1
2, 1
3, 3
5, 2
8, 3
6, 1
4, 3
4, 3
3, 3
2, 2
3, 2
4, 0
1, 0
2, 3
1, 0
0, 2
1, 3
2, 1
5, 0
6, 4
3, 3
1, 8
4, 1
1, 2
1, 2
1, 2
1, 1
1, 3
0, 0
0, 3
3, 2
1, 0
4, 0
1, 0
1, 0
2, 2
0, 1
1, 1
0, 1
2, 0
0, 0
0, 1
3, 4
0, 0
0, 1
1, 0
0, 1
1, 0
1, 1
0, 0
0, 0
1, 0
1, 1
0, 1
0, 0
0, 1
1, 0
0, 0
0, 0
1, 0
0, 0
0, 0
0, 0
0, 0
0, 0
0, 1
0, 0
1, 1
0, 1
0, 0
0, 0
0, 0
1, 1
0, 0
0, 1
0, 0
0, 1
1, 0
0, 0
0, 0
0, 0
0, 0
0, 0
0, 0
0, 0
0, 0
0, 0
0, 0
2, 0
0, 0
0, 0
0, 0
0, 0
0, 0
0, 0
0, 0
0, 0
0, 0
0, 1
0, 0
0, 1
0, 0
0, 0
0, 0
0, 0
0, 0
0, 0
0, 0
0, 0
0, 0
0, 0
0, 0
0, 0
0, 0
0, 0
0, 0
0, 0
0, 0
0, 0
0, 0
0, 0
0, 0
0, 0
0, 0
0, 0
0, 0
0, 0
0, 0
0, 0
0, 0
0, 0
0, 0
0, 0
0, 0
0, 0
0, 0
0, 0
0, 0
0, 0
0, 0
0, 0
0, 0
0, 0
0, 0
0, 0
0, 0
0, 0
0, 0
0, 0
0, 0
0, 0
0, 0
0, 0
0, 0
0, 0
0, 0
0, 0
0, 0
0, 0
0, 0
0, 0
0, 0
0, 0
0, 0
0, 0
0, 0
0, 0
0, 0
0, 0
0, 0
0, 0
0, 0
0, 0
0, 0
0, 0
0, 0
0, 0
0, 0
0, 0
0, 0
0, 0
0, 0
0, 0
0, 0
0, 0
0, 0
0, 0
0, 0
0, 0
0, 0
0, 0
0, 0
0, 0
0, 0
0, 0
0, 0
0, 0
0, 0
#ENDOFDATA     end of spectrum data