File: host_upload/06-09-2024/ps_0852/dump3/ps__0852shot_2242.msa
#FORMAT      : EMSA/MAS spectral data file
#VERSION     : TC202v2.0 PIXL
#TITLE       : N/A
#DATE        :       Date in the format DD-MMM-YYYY, for example 07-JUL-2010
#TIME        :             The time of day at which the spectrum was recorded, in 24-hour format
#OWNER       : PIXL Flight Model       (PIXL will use this to indicate which instrument took the data.)
#NPOINTS     : 4096     Number of data points in the spectrum (This can be zero for configuration only files)
#NCOLUMNS    : 2     Number of data columns in the spectrum (This can be zero for configuration only files)
#XUNITS      : eV
#YUNITS      : COUNTS
#DATATYPE    : YY
#XPERCHAN    : 7.862, 7.881   eV per channel (separate by commas if more than one detector)
#OFFSET      : 18.5, -22.4         eV of first channel  (separate by commas if more than one detector
#SIGNALTYPE  : XRF
#YP_TEMP     : 2.267
#LIVETIME    : 8.54195, 8.5283   seconds (separate by commas if more than one detector)
#REALTIME    : 10, 10.0   seconds (separate by commas if more than one detector)
#SPECTRUM    : start of spectrum data
0, 0
0, 0
0, 0
0, 0
0, 0
0, 0
0, 0
0, 0
3, 1
2, 4
3, 1
40, 39
52, 52
6, 11
11, 12
113, 102
424, 446
108, 110
20, 7
15, 9
12, 2
26, 5
5, 7
19, 19
64, 67
58, 37
38, 33
20, 16
5, 5
3, 3
19, 11
13, 9
7, 5
34, 27
45, 42
9, 5
3, 8
11, 9
9, 4
7, 1
11, 7
27, 23
14, 24
12, 12
9, 11
12, 6
11, 8
7, 8
8, 13
29, 26
48, 22
28, 6
11, 11
39, 34
66, 58
23, 17
33, 88
487, 649
2075, 2166
1520, 1225
201, 127
20, 10
21, 22
104, 103
314, 357
215, 166
36, 25
9, 4
26, 19
16, 12
16, 6
5, 1
5, 6
2, 8
12, 9
11, 6
4, 9
9, 1
3, 1
3, 8
5, 2
11, 24
17, 26
8, 8
3, 3
2, 2
8, 3
6, 2
0, 5
7, 4
3, 3
6, 5
4, 2
8, 1
2, 4
2, 1
1, 5
2, 3
3, 1
4, 0
9, 3
8, 1
3, 1
2, 1
3, 8
3, 4
4, 3
5, 2
2, 1
2, 1
0, 1
2, 2
1, 1
2, 2
2, 4
3, 5
2, 8
1, 4
0, 1
1, 1
0, 1
1, 3
3, 3
2, 1
2, 1
0, 3
1, 1
1, 0
0, 2
0, 1
1, 0
1, 1
2, 1
0, 0
0, 1
1, 2
0, 0
2, 2
2, 1
0, 1
1, 0
3, 0
0, 2
2, 0
1, 1
0, 1
2, 0
2, 1
1, 1
0, 0
0, 0
0, 0
1, 0
0, 0
1, 0
0, 0
0, 0
0, 0
0, 1
1, 0
1, 0
1, 0
1, 0
0, 0
1, 0
0, 0
1, 0
0, 0
0, 0
1, 0
0, 0
0, 0
0, 1
1, 0
0, 0
0, 1
0, 0
0, 1
0, 0
0, 0
0, 0
0, 0
0, 0
0, 0
0, 0
0, 0
0, 0
0, 0
0, 0
0, 0
0, 0
0, 0
0, 0
0, 0
0, 0
0, 0
0, 0
0, 1
0, 0
0, 0
0, 0
0, 0
0, 0
0, 0
0, 0
0, 0
0, 0
0, 0
0, 0
0, 0
0, 0
0, 0
0, 0
0, 0
0, 0
0, 0
0, 0
0, 0
0, 0
0, 0
0, 0
0, 0
0, 0
0, 0
0, 0
0, 0
0, 0
0, 0
0, 0
0, 0
0, 0
0, 0
0, 0
0, 0
0, 0
0, 0
0, 0
0, 0
0, 0
0, 0
0, 0
0, 0
0, 0
0, 0
0, 0
0, 0
0, 0
0, 0
0, 0
0, 0
0, 0
0, 0
0, 0
0, 0
0, 0
0, 0
0, 0
0, 0
0, 0
0, 0
0, 0
0, 0
0, 0
0, 0
0, 0
0, 0
0, 0
0, 0
0, 0
0, 0
0, 0
0, 0
0, 0
0, 0
0, 0
0, 0
0, 0
0, 0
0, 0
0, 0
0, 0
0, 0
0, 0
0, 0
0, 0
0, 0
0, 0
0, 0
0, 0
0, 0
0, 0
0, 0
0, 0
0, 0
#ENDOFDATA     end of spectrum data