File: host_upload/06-09-2024/ps_0852/dump3/ps__0852shot_2542.msa
#FORMAT      : EMSA/MAS spectral data file
#VERSION     : TC202v2.0 PIXL
#TITLE       : N/A
#DATE        :       Date in the format DD-MMM-YYYY, for example 07-JUL-2010
#TIME        :             The time of day at which the spectrum was recorded, in 24-hour format
#OWNER       : PIXL Flight Model       (PIXL will use this to indicate which instrument took the data.)
#NPOINTS     : 4096     Number of data points in the spectrum (This can be zero for configuration only files)
#NCOLUMNS    : 2     Number of data columns in the spectrum (This can be zero for configuration only files)
#XUNITS      : eV
#YUNITS      : COUNTS
#DATATYPE    : YY
#XPERCHAN    : 7.862, 7.881   eV per channel (separate by commas if more than one detector)
#OFFSET      : 18.5, -22.4         eV of first channel  (separate by commas if more than one detector
#SIGNALTYPE  : XRF
#YP_TEMP     : 2.171
#LIVETIME    : 8.56067, 8.55705   seconds (separate by commas if more than one detector)
#REALTIME    : 10, 10.0   seconds (separate by commas if more than one detector)
#SPECTRUM    : start of spectrum data
0, 0
0, 0
0, 0
0, 0
0, 0
0, 0
0, 0
0, 0
0, 2
3, 2
0, 1
44, 51
54, 54
6, 6
1, 9
91, 99
420, 479
89, 98
4, 4
0, 1
2, 1
2, 3
4, 0
12, 9
77, 99
90, 154
29, 31
14, 16
2, 6
1, 2
2, 5
3, 2
2, 2
13, 15
20, 16
7, 4
4, 4
9, 12
17, 9
7, 3
6, 3
14, 6
13, 17
10, 25
17, 17
24, 9
14, 17
14, 12
8, 7
16, 13
15, 14
14, 6
18, 18
42, 43
60, 53
23, 34
32, 45
487, 631
2244, 2348
1628, 1407
186, 116
17, 39
23, 44
99, 147
308, 384
224, 211
32, 20
19, 7
20, 15
18, 7
6, 2
3, 11
5, 20
8, 11
5, 4
11, 9
9, 10
6, 14
5, 5
10, 4
7, 5
9, 4
5, 5
2, 6
0, 4
3, 5
5, 5
7, 7
7, 2
6, 2
6, 8
4, 3
4, 7
4, 11
5, 4
2, 2
2, 3
3, 3
1, 3
4, 5
1, 1
2, 2
0, 4
3, 1
3, 4
3, 3
3, 2
3, 0
4, 5
1, 1
1, 4
2, 1
3, 4
4, 1
5, 1
3, 1
1, 4
1, 4
1, 1
1, 3
3, 1
0, 1
5, 0
1, 4
1, 0
0, 0
2, 1
2, 0
0, 1
0, 3
3, 0
2, 1
1, 1
1, 0
0, 0
1, 0
0, 1
3, 0
1, 0
1, 2
0, 0
0, 2
1, 0
2, 1
1, 0
0, 1
1, 0
0, 0
2, 0
0, 0
0, 0
0, 0
2, 0
1, 0
0, 0
1, 0
0, 0
0, 0
1, 0
0, 2
0, 0
0, 0
1, 1
0, 1
0, 0
0, 1
2, 0
0, 0
0, 0
1, 0
0, 0
0, 0
0, 0
0, 0
1, 0
0, 1
0, 0
0, 0
0, 0
0, 0
0, 0
0, 0
0, 0
0, 0
1, 1
0, 0
0, 1
0, 0
0, 0
0, 0
0, 1
0, 0
0, 0
0, 0
0, 0
0, 0
0, 0
1, 0
1, 0
0, 0
0, 0
0, 0
0, 0
0, 0
0, 0
0, 0
0, 0
0, 1
0, 0
0, 0
0, 0
0, 0
0, 0
0, 0
0, 0
0, 0
0, 0
0, 0
0, 0
0, 0
0, 0
0, 0
0, 0
0, 0
0, 0
0, 0
0, 0
0, 0
0, 0
0, 0
0, 0
0, 0
0, 0
0, 0
0, 0
0, 0
0, 0
0, 0
0, 0
0, 0
0, 0
0, 0
0, 0
0, 0
0, 0
0, 0
0, 0
0, 0
0, 0
0, 0
0, 0
0, 0
0, 0
0, 0
0, 0
0, 0
0, 0
0, 0
0, 0
0, 0
0, 0
0, 0
0, 0
0, 0
0, 0
0, 0
0, 0
0, 0
0, 0
0, 0
0, 0
0, 0
0, 0
0, 0
0, 0
0, 0
0, 0
0, 0
0, 0
0, 0
0, 0
0, 0
0, 0
0, 0
0, 0
0, 0
0, 0
0, 0
0, 0
0, 0
0, 0
0, 0
0, 0
0, 0
#ENDOFDATA     end of spectrum data