File: host_upload/06-09-2024/ps_0852/dump3/ps__0852shot_2324.msa
#FORMAT      : EMSA/MAS spectral data file
#VERSION     : TC202v2.0 PIXL
#TITLE       : N/A
#DATE        :       Date in the format DD-MMM-YYYY, for example 07-JUL-2010
#TIME        :             The time of day at which the spectrum was recorded, in 24-hour format
#OWNER       : PIXL Flight Model       (PIXL will use this to indicate which instrument took the data.)
#NPOINTS     : 4096     Number of data points in the spectrum (This can be zero for configuration only files)
#NCOLUMNS    : 2     Number of data columns in the spectrum (This can be zero for configuration only files)
#XUNITS      : eV
#YUNITS      : COUNTS
#DATATYPE    : YY
#XPERCHAN    : 7.862, 7.881   eV per channel (separate by commas if more than one detector)
#OFFSET      : 18.5, -22.4         eV of first channel  (separate by commas if more than one detector
#SIGNALTYPE  : XRF
#YP_TEMP     : 2.524
#LIVETIME    : 8.55703, 8.53199   seconds (separate by commas if more than one detector)
#REALTIME    : 10, 10.0   seconds (separate by commas if more than one detector)
#SPECTRUM    : start of spectrum data
0, 0
0, 0
0, 0
0, 0
0, 0
0, 0
0, 0
0, 0
0, 2
0, 2
1, 1
47, 50
61, 57
6, 3
4, 3
93, 93
413, 419
108, 85
7, 6
1, 2
1, 3
4, 3
1, 0
4, 3
33, 37
54, 23
25, 24
17, 18
5, 4
2, 3
2, 3
2, 4
5, 8
37, 36
49, 51
11, 10
16, 6
10, 4
4, 2
3, 10
3, 7
26, 19
21, 20
14, 14
8, 4
8, 9
6, 7
10, 6
35, 31
121, 111
105, 84
32, 26
9, 17
40, 64
93, 96
39, 74
29, 49
474, 543
1991, 2246
1391, 1300
181, 131
22, 24
18, 35
111, 112
309, 342
213, 211
28, 23
11, 7
11, 8
5, 6
3, 5
5, 4
3, 2
8, 5
17, 8
9, 5
3, 3
6, 4
3, 3
9, 6
4, 4
4, 4
1, 11
3, 6
2, 6
2, 4
3, 11
7, 8
5, 4
7, 11
4, 3
5, 4
4, 3
7, 5
1, 3
3, 5
3, 3
0, 2
2, 3
4, 2
6, 4
4, 4
4, 1
4, 2
3, 1
5, 2
5, 4
4, 0
3, 1
4, 2
1, 0
1, 1
2, 2
0, 2
0, 0
2, 4
2, 5
3, 3
0, 2
0, 2
0, 2
2, 3
2, 1
2, 4
1, 0
1, 1
0, 2
0, 2
0, 1
0, 0
2, 2
0, 2
0, 1
0, 0
1, 0
1, 0
0, 0
1, 1
2, 1
0, 2
0, 1
1, 0
0, 1
0, 1
0, 1
0, 0
0, 0
2, 0
0, 0
0, 0
0, 0
0, 1
0, 0
1, 0
0, 0
0, 0
0, 0
0, 1
0, 0
0, 0
0, 0
0, 0
2, 0
0, 1
0, 0
0, 1
0, 0
0, 0
0, 0
0, 0
0, 0
0, 0
0, 1
1, 0
1, 0
0, 0
1, 0
0, 0
0, 0
0, 0
0, 0
0, 0
0, 0
2, 0
0, 0
0, 0
0, 0
0, 0
0, 0
0, 0
0, 0
0, 0
0, 0
0, 0
0, 0
1, 0
0, 0
0, 0
0, 1
0, 0
0, 1
0, 0
0, 0
0, 0
0, 0
0, 0
0, 0
0, 0
0, 0
0, 0
0, 0
0, 0
0, 1
0, 0
0, 0
0, 0
0, 0
0, 0
0, 1
0, 0
0, 0
0, 0
0, 0
1, 0
0, 0
0, 0
0, 0
0, 0
0, 0
0, 0
0, 0
0, 0
0, 0
0, 0
0, 0
0, 0
0, 0
0, 0
0, 0
0, 0
0, 0
0, 0
0, 0
0, 0
0, 0
0, 0
0, 0
0, 0
0, 0
0, 0
0, 0
0, 0
0, 0
0, 0
0, 0
0, 0
0, 0
0, 0
0, 0
0, 0
0, 0
0, 0
0, 0
0, 0
0, 0
0, 0
0, 0
0, 0
0, 0
0, 0
0, 0
0, 0
0, 0
0, 0
0, 0
0, 0
0, 0
0, 0
0, 0
0, 0
0, 0
0, 0
0, 0
0, 0
0, 0
0, 0
0, 0
0, 0
0, 0
0, 0
0, 0
0, 0
0, 0
0, 0
#ENDOFDATA     end of spectrum data