File: host_upload/06-09-2024/ps_0852/dump3/ps__0852shot_2395.msa
#FORMAT      : EMSA/MAS spectral data file
#VERSION     : TC202v2.0 PIXL
#TITLE       : N/A
#DATE        :       Date in the format DD-MMM-YYYY, for example 07-JUL-2010
#TIME        :             The time of day at which the spectrum was recorded, in 24-hour format
#OWNER       : PIXL Flight Model       (PIXL will use this to indicate which instrument took the data.)
#NPOINTS     : 4096     Number of data points in the spectrum (This can be zero for configuration only files)
#NCOLUMNS    : 2     Number of data columns in the spectrum (This can be zero for configuration only files)
#XUNITS      : eV
#YUNITS      : COUNTS
#DATATYPE    : YY
#XPERCHAN    : 7.862, 7.881   eV per channel (separate by commas if more than one detector)
#OFFSET      : 18.5, -22.4         eV of first channel  (separate by commas if more than one detector
#SIGNALTYPE  : XRF
#YP_TEMP     : 2.396
#LIVETIME    : 8.56917, 8.55612   seconds (separate by commas if more than one detector)
#REALTIME    : 10, 10.0   seconds (separate by commas if more than one detector)
#SPECTRUM    : start of spectrum data
0, 0
0, 0
0, 0
0, 0
0, 0
0, 0
0, 0
0, 0
0, 1
0, 0
3, 1
47, 56
57, 52
2, 2
3, 9
85, 101
408, 441
110, 102
4, 3
2, 3
4, 2
4, 8
1, 3
6, 8
39, 58
39, 44
14, 21
17, 13
3, 4
4, 1
1, 2
1, 3
3, 6
12, 18
15, 30
6, 7
5, 6
4, 11
9, 9
5, 10
7, 7
15, 9
12, 12
16, 14
8, 6
9, 8
12, 10
10, 8
5, 24
12, 49
14, 33
13, 13
21, 12
34, 47
62, 44
20, 22
38, 33
477, 643
2086, 2450
1695, 1396
192, 163
15, 22
23, 19
104, 105
338, 377
233, 216
34, 30
13, 10
15, 18
4, 9
5, 7
6, 5
5, 4
6, 9
9, 11
7, 8
1, 12
5, 4
8, 4
8, 7
9, 3
5, 4
1, 4
10, 6
7, 11
9, 13
3, 4
3, 2
4, 3
4, 2
4, 5
4, 5
4, 5
2, 7
2, 8
2, 8
4, 5
2, 4
4, 4
1, 3
4, 3
2, 1
5, 0
3, 2
1, 2
1, 3
2, 4
3, 7
0, 3
4, 2
2, 5
3, 0
5, 2
1, 1
2, 2
3, 2
4, 4
3, 4
2, 2
2, 1
1, 1
1, 1
2, 4
1, 1
1, 0
0, 1
1, 4
2, 1
1, 0
1, 0
0, 0
0, 0
1, 0
0, 1
1, 0
1, 0
2, 0
0, 2
0, 1
1, 2
1, 0
2, 1
1, 0
0, 1
2, 1
0, 0
0, 1
1, 0
1, 1
1, 0
0, 0
1, 1
0, 0
0, 0
1, 0
0, 0
0, 2
1, 0
0, 0
0, 0
0, 2
0, 0
0, 0
0, 0
0, 0
1, 0
0, 0
0, 0
0, 1
0, 0
0, 0
0, 0
0, 0
0, 0
0, 0
0, 0
0, 0
0, 2
0, 0
0, 0
0, 2
0, 1
0, 0
0, 0
2, 0
0, 0
0, 0
0, 0
1, 0
0, 0
0, 0
0, 0
0, 0
0, 0
0, 0
0, 0
0, 0
0, 0
0, 0
0, 0
0, 0
0, 0
0, 0
0, 0
0, 0
0, 0
0, 0
0, 0
0, 0
0, 0
0, 0
0, 0
0, 1
0, 0
0, 0
0, 0
0, 0
0, 0
0, 0
0, 0
0, 0
0, 0
0, 0
0, 0
0, 0
0, 0
0, 0
0, 0
0, 0
0, 0
0, 0
0, 0
0, 0
0, 0
0, 0
0, 0
0, 0
0, 0
0, 0
0, 0
0, 0
0, 0
0, 0
0, 0
0, 0
0, 0
0, 0
0, 0
0, 0
0, 0
0, 0
0, 0
0, 0
0, 0
0, 0
0, 0
0, 0
0, 0
0, 0
0, 0
0, 0
0, 0
0, 0
0, 0
0, 0
0, 0
0, 0
0, 0
0, 0
0, 0
0, 0
0, 0
0, 0
0, 0
0, 0
0, 0
0, 0
0, 0
0, 0
0, 0
0, 0
0, 0
0, 0
0, 0
0, 0
0, 0
0, 0
0, 0
0, 0
0, 0
0, 0
0, 0
0, 0
0, 0
#ENDOFDATA     end of spectrum data