File: host_upload/06-09-2024/ps_0852/dump3/ps__0852shot_2020.msa
#FORMAT      : EMSA/MAS spectral data file
#VERSION     : TC202v2.0 PIXL
#TITLE       : N/A
#DATE        :       Date in the format DD-MMM-YYYY, for example 07-JUL-2010
#TIME        :             The time of day at which the spectrum was recorded, in 24-hour format
#OWNER       : PIXL Flight Model       (PIXL will use this to indicate which instrument took the data.)
#NPOINTS     : 4096     Number of data points in the spectrum (This can be zero for configuration only files)
#NCOLUMNS    : 2     Number of data columns in the spectrum (This can be zero for configuration only files)
#XUNITS      : eV
#YUNITS      : COUNTS
#DATATYPE    : YY
#XPERCHAN    : 7.862, 7.881   eV per channel (separate by commas if more than one detector)
#OFFSET      : 18.5, -22.4         eV of first channel  (separate by commas if more than one detector
#SIGNALTYPE  : XRF
#YP_TEMP     : 2.332
#LIVETIME    : 8.55544, 8.56183   seconds (separate by commas if more than one detector)
#REALTIME    : 10, 10.0   seconds (separate by commas if more than one detector)
#SPECTRUM    : start of spectrum data
0, 0
0, 0
0, 0
0, 0
0, 0
0, 0
0, 0
0, 0
4, 0
4, 1
3, 2
45, 41
55, 54
5, 3
5, 2
84, 80
423, 419
111, 104
5, 2
4, 1
13, 14
44, 46
20, 19
21, 18
203, 53
292, 45
70, 35
19, 21
8, 11
1, 5
1, 2
0, 3
4, 17
12, 46
21, 29
9, 15
7, 4
14, 5
25, 7
21, 5
15, 10
7, 9
14, 23
12, 11
6, 7
3, 15
2, 16
4, 6
6, 10
18, 18
21, 21
33, 6
32, 20
56, 51
75, 75
24, 23
30, 47
471, 590
2098, 2338
1576, 1398
179, 166
19, 32
39, 53
131, 158
320, 369
237, 211
22, 32
9, 6
11, 10
7, 6
6, 3
3, 6
1, 6
3, 10
6, 6
23, 12
29, 5
12, 13
6, 10
5, 11
6, 2
2, 3
5, 5
0, 7
10, 5
4, 8
5, 6
3, 4
5, 3
1, 6
5, 3
1, 3
6, 4
2, 2
1, 2
3, 2
2, 3
3, 6
4, 4
3, 1
3, 3
4, 2
3, 4
6, 4
5, 6
1, 6
1, 1
2, 1
0, 2
2, 4
2, 3
2, 6
3, 3
1, 0
1, 2
1, 0
2, 5
3, 2
3, 4
0, 1
0, 3
0, 0
1, 3
1, 2
1, 1
0, 1
2, 1
2, 2
1, 0
1, 2
0, 2
2, 0
0, 0
1, 0
0, 2
0, 1
0, 0
0, 0
2, 0
0, 1
1, 2
0, 0
0, 0
0, 0
0, 0
0, 1
0, 0
0, 0
0, 0
1, 1
1, 2
0, 0
0, 0
0, 0
0, 0
0, 1
0, 0
0, 0
0, 0
1, 0
0, 1
0, 0
0, 0
0, 0
0, 0
0, 0
0, 0
0, 0
0, 0
0, 1
0, 0
0, 0
0, 1
1, 0
0, 0
0, 0
0, 0
0, 0
0, 0
0, 1
0, 0
1, 1
0, 0
0, 1
0, 0
0, 1
0, 0
0, 0
0, 0
0, 0
1, 0
0, 0
0, 0
0, 0
0, 0
0, 0
0, 0
0, 0
0, 0
0, 1
0, 0
0, 0
0, 0
0, 0
0, 0
0, 0
0, 0
0, 0
0, 0
0, 0
0, 0
0, 0
0, 0
0, 0
0, 0
0, 0
0, 0
0, 0
0, 0
0, 0
0, 0
0, 0
0, 0
0, 0
0, 0
0, 0
0, 0
0, 0
0, 0
0, 0
0, 0
0, 0
0, 0
0, 0
0, 0
0, 0
0, 0
0, 0
0, 0
0, 0
0, 1
0, 0
0, 0
0, 0
0, 0
0, 0
0, 0
0, 0
0, 0
0, 0
0, 0
0, 0
0, 0
0, 0
0, 0
0, 0
0, 0
0, 0
0, 0
0, 0
0, 0
0, 0
0, 0
0, 0
0, 0
0, 0
0, 0
0, 0
0, 0
0, 0
0, 0
0, 0
0, 0
0, 0
0, 0
0, 0
0, 0
0, 0
0, 0
0, 0
0, 0
0, 0
0, 0
0, 0
0, 0
0, 0
0, 0
0, 0
0, 0
0, 0
0, 0
0, 0
0, 0
0, 0
#ENDOFDATA     end of spectrum data