File: host_upload/06-09-2024/ps_0852/dump3/ps__0852shot_2344.msa
#FORMAT      : EMSA/MAS spectral data file
#VERSION     : TC202v2.0 PIXL
#TITLE       : N/A
#DATE        :       Date in the format DD-MMM-YYYY, for example 07-JUL-2010
#TIME        :             The time of day at which the spectrum was recorded, in 24-hour format
#OWNER       : PIXL Flight Model       (PIXL will use this to indicate which instrument took the data.)
#NPOINTS     : 4096     Number of data points in the spectrum (This can be zero for configuration only files)
#NCOLUMNS    : 2     Number of data columns in the spectrum (This can be zero for configuration only files)
#XUNITS      : eV
#YUNITS      : COUNTS
#DATATYPE    : YY
#XPERCHAN    : 7.862, 7.881   eV per channel (separate by commas if more than one detector)
#OFFSET      : 18.5, -22.4         eV of first channel  (separate by commas if more than one detector
#SIGNALTYPE  : XRF
#YP_TEMP     : 2.3
#LIVETIME    : 8.55981, 8.56502   seconds (separate by commas if more than one detector)
#REALTIME    : 10, 10.0   seconds (separate by commas if more than one detector)
#SPECTRUM    : start of spectrum data
0, 0
0, 0
0, 0
0, 0
0, 0
0, 0
0, 0
0, 0
2, 0
4, 1
0, 4
49, 55
51, 58
12, 5
3, 6
94, 116
486, 465
104, 109
6, 8
1, 1
11, 22
92, 85
45, 36
18, 17
44, 64
42, 32
20, 14
15, 12
2, 0
1, 4
5, 4
5, 3
4, 8
76, 121
160, 161
29, 21
19, 25
27, 27
11, 4
5, 6
5, 5
5, 16
8, 14
8, 7
4, 8
9, 4
6, 4
5, 9
8, 20
25, 21
52, 15
25, 10
25, 13
48, 55
76, 67
26, 19
29, 27
413, 529
1887, 2115
1291, 1268
153, 145
12, 25
11, 22
87, 108
272, 324
216, 189
48, 27
14, 7
10, 10
8, 9
5, 4
4, 5
3, 7
7, 8
6, 9
6, 5
6, 4
10, 2
7, 7
1, 3
4, 0
9, 2
3, 6
1, 3
1, 1
2, 3
2, 4
1, 2
9, 6
16, 1
16, 2
6, 9
4, 3
5, 4
4, 2
2, 4
4, 1
1, 3
1, 3
2, 3
2, 2
5, 3
1, 2
3, 2
3, 3
2, 5
2, 10
3, 7
2, 4
1, 2
2, 1
7, 2
3, 4
4, 1
0, 3
0, 2
2, 3
2, 2
2, 3
3, 1
1, 1
0, 3
0, 1
0, 1
1, 6
0, 1
1, 1
1, 2
0, 0
1, 1
1, 1
2, 0
1, 0
2, 1
1, 1
0, 1
0, 2
3, 1
0, 1
0, 0
0, 1
0, 1
0, 1
1, 1
0, 0
0, 0
1, 0
0, 1
2, 0
1, 0
0, 0
0, 0
0, 0
1, 0
1, 1
0, 0
0, 0
0, 0
0, 1
0, 2
1, 0
0, 0
0, 1
0, 0
1, 0
0, 0
1, 0
0, 0
0, 0
0, 0
0, 0
0, 0
0, 0
0, 1
0, 0
0, 0
0, 0
0, 0
0, 0
0, 0
1, 0
1, 0
0, 2
0, 0
0, 0
1, 0
0, 0
0, 0
0, 0
0, 0
0, 0
0, 0
0, 1
0, 0
0, 0
0, 1
0, 0
0, 0
0, 0
0, 0
0, 0
0, 0
0, 0
0, 0
0, 0
0, 0
0, 0
0, 0
0, 0
0, 0
0, 0
0, 0
0, 0
0, 0
0, 0
0, 0
0, 0
0, 0
0, 0
0, 0
0, 0
0, 0
0, 0
0, 0
0, 0
0, 0
0, 0
0, 0
0, 0
0, 0
0, 0
0, 0
0, 0
0, 0
0, 0
0, 0
0, 0
0, 0
0, 0
0, 0
0, 0
0, 0
0, 0
0, 0
0, 0
0, 0
0, 0
0, 0
0, 0
0, 0
0, 0
0, 0
0, 0
0, 0
0, 0
0, 0
0, 0
0, 0
0, 0
0, 0
0, 0
0, 0
0, 0
0, 0
0, 0
0, 0
0, 0
0, 0
0, 0
0, 0
0, 0
0, 0
0, 0
0, 0
0, 0
0, 0
0, 0
0, 0
0, 0
0, 0
0, 0
0, 0
0, 0
0, 0
0, 0
0, 0
0, 0
0, 0
0, 0
0, 0
0, 0
0, 0
0, 0
0, 0
#ENDOFDATA     end of spectrum data