File: host_upload/06-09-2024/ps_0852/dump3/ps__0852shot_2196.msa
#FORMAT      : EMSA/MAS spectral data file
#VERSION     : TC202v2.0 PIXL
#TITLE       : N/A
#DATE        :       Date in the format DD-MMM-YYYY, for example 07-JUL-2010
#TIME        :             The time of day at which the spectrum was recorded, in 24-hour format
#OWNER       : PIXL Flight Model       (PIXL will use this to indicate which instrument took the data.)
#NPOINTS     : 4096     Number of data points in the spectrum (This can be zero for configuration only files)
#NCOLUMNS    : 2     Number of data columns in the spectrum (This can be zero for configuration only files)
#XUNITS      : eV
#YUNITS      : COUNTS
#DATATYPE    : YY
#XPERCHAN    : 7.862, 7.881   eV per channel (separate by commas if more than one detector)
#OFFSET      : 18.5, -22.4         eV of first channel  (separate by commas if more than one detector
#SIGNALTYPE  : XRF
#YP_TEMP     : 2.3
#LIVETIME    : 8.55545, 8.55283   seconds (separate by commas if more than one detector)
#REALTIME    : 10, 10.0   seconds (separate by commas if more than one detector)
#SPECTRUM    : start of spectrum data
0, 0
0, 0
0, 0
0, 0
0, 0
0, 0
0, 0
0, 0
1, 0
0, 2
3, 1
51, 32
74, 51
3, 5
2, 6
99, 80
454, 367
127, 86
9, 4
3, 1
1, 6
9, 15
4, 6
8, 7
32, 63
51, 79
23, 40
16, 14
8, 5
1, 4
2, 8
11, 3
15, 5
25, 16
34, 29
11, 20
3, 8
6, 7
6, 15
8, 3
8, 6
11, 9
15, 20
21, 18
22, 8
5, 7
4, 3
9, 6
6, 6
27, 21
13, 42
11, 23
10, 7
34, 38
65, 60
27, 28
40, 42
503, 545
2352, 2194
1690, 1301
209, 175
41, 29
91, 18
206, 109
419, 343
248, 183
32, 28
6, 11
16, 12
12, 8
5, 5
4, 6
3, 4
11, 7
6, 10
8, 4
4, 6
5, 3
7, 2
3, 4
6, 6
4, 4
3, 4
7, 4
2, 6
7, 7
3, 8
3, 1
5, 3
15, 2
6, 2
8, 0
5, 2
5, 1
8, 6
7, 4
5, 2
3, 1
5, 2
3, 0
3, 2
2, 4
1, 2
2, 3
3, 3
3, 0
3, 2
3, 1
1, 3
1, 2
0, 0
1, 2
3, 0
3, 0
1, 4
2, 2
5, 3
3, 2
2, 3
2, 1
1, 0
1, 0
0, 3
3, 1
1, 0
0, 1
1, 3
1, 6
0, 0
0, 1
4, 0
1, 0
0, 1
0, 0
1, 1
1, 0
1, 2
0, 3
1, 1
0, 0
0, 0
0, 0
1, 2
0, 0
1, 0
0, 1
0, 0
0, 0
0, 1
1, 1
0, 0
0, 0
0, 0
0, 0
0, 0
1, 1
0, 0
0, 0
0, 0
0, 0
0, 0
0, 0
0, 0
0, 0
0, 0
0, 0
0, 1
0, 0
0, 0
1, 0
0, 0
0, 0
0, 1
0, 0
0, 0
0, 0
0, 0
0, 0
0, 0
0, 0
0, 0
1, 0
0, 1
0, 0
0, 2
0, 0
0, 0
0, 0
0, 0
0, 0
0, 0
0, 0
0, 0
0, 1
0, 0
0, 0
0, 0
0, 0
0, 0
0, 0
0, 0
0, 0
0, 0
0, 0
0, 0
0, 0
0, 0
0, 0
0, 0
0, 0
0, 0
0, 0
0, 0
0, 0
0, 0
0, 0
0, 0
0, 0
0, 0
0, 0
0, 0
0, 0
0, 0
0, 0
0, 0
0, 0
0, 0
0, 0
0, 0
0, 0
0, 0
0, 0
0, 0
0, 0
0, 0
0, 0
0, 0
0, 0
0, 0
0, 0
0, 0
0, 0
0, 0
0, 0
0, 0
0, 0
0, 0
0, 0
0, 0
0, 0
0, 0
0, 0
0, 0
0, 0
0, 0
0, 0
0, 0
0, 0
0, 0
0, 0
0, 0
0, 0
0, 0
0, 0
0, 0
0, 0
0, 0
0, 0
0, 0
0, 0
0, 0
0, 0
0, 0
0, 0
0, 0
0, 0
0, 0
0, 0
0, 0
0, 0
0, 0
0, 0
0, 0
0, 0
0, 0
0, 0
0, 0
0, 0
0, 0
0, 0
0, 0
0, 0
0, 0
0, 0
#ENDOFDATA     end of spectrum data