File: host_upload/06-09-2024/ps_0852/dump3/ps__0852shot_2530.msa
#FORMAT      : EMSA/MAS spectral data file
#VERSION     : TC202v2.0 PIXL
#TITLE       : N/A
#DATE        :       Date in the format DD-MMM-YYYY, for example 07-JUL-2010
#TIME        :             The time of day at which the spectrum was recorded, in 24-hour format
#OWNER       : PIXL Flight Model       (PIXL will use this to indicate which instrument took the data.)
#NPOINTS     : 4096     Number of data points in the spectrum (This can be zero for configuration only files)
#NCOLUMNS    : 2     Number of data columns in the spectrum (This can be zero for configuration only files)
#XUNITS      : eV
#YUNITS      : COUNTS
#DATATYPE    : YY
#XPERCHAN    : 7.862, 7.881   eV per channel (separate by commas if more than one detector)
#OFFSET      : 18.5, -22.4         eV of first channel  (separate by commas if more than one detector
#SIGNALTYPE  : XRF
#YP_TEMP     : 2.524
#LIVETIME    : 8.548, 8.51804   seconds (separate by commas if more than one detector)
#REALTIME    : 10, 10.0   seconds (separate by commas if more than one detector)
#SPECTRUM    : start of spectrum data
0, 0
0, 0
0, 0
0, 0
0, 0
0, 0
0, 0
0, 0
0, 0
1, 3
3, 2
41, 39
73, 67
4, 9
8, 3
108, 85
478, 421
126, 97
8, 5
2, 1
5, 5
25, 15
7, 5
21, 13
105, 54
95, 40
30, 19
11, 9
2, 1
4, 4
2, 2
4, 3
3, 4
10, 6
18, 8
3, 21
6, 5
6, 8
10, 8
5, 3
6, 8
10, 7
16, 26
12, 17
8, 11
7, 16
2, 11
8, 5
10, 6
8, 12
20, 8
16, 4
19, 11
40, 46
66, 53
16, 22
27, 38
481, 502
2399, 2086
1762, 1242
200, 99
11, 13
25, 19
132, 121
365, 356
270, 164
40, 12
21, 6
37, 19
20, 7
3, 2
5, 3
14, 4
9, 2
5, 9
10, 4
5, 4
4, 1
4, 5
6, 7
2, 2
3, 1
3, 1
3, 8
2, 8
3, 5
3, 3
6, 1
8, 2
1, 2
5, 1
2, 1
7, 7
4, 4
3, 5
6, 3
0, 5
4, 4
5, 1
10, 2
4, 1
5, 1
3, 2
6, 6
7, 0
2, 4
1, 6
1, 1
2, 2
3, 2
5, 4
1, 3
1, 1
6, 0
3, 2
4, 2
2, 3
6, 5
3, 1
1, 2
1, 3
2, 0
4, 2
5, 1
1, 0
1, 2
0, 0
2, 0
3, 4
2, 1
2, 2
2, 0
0, 0
0, 1
0, 0
0, 1
1, 2
0, 1
0, 0
0, 0
3, 0
1, 0
0, 1
1, 0
0, 1
0, 0
0, 0
1, 1
0, 1
2, 0
0, 1
0, 0
1, 1
0, 0
0, 1
0, 0
0, 0
2, 1
0, 0
0, 0
0, 1
0, 0
1, 0
0, 0
0, 0
0, 0
0, 1
0, 0
0, 1
0, 0
0, 0
0, 0
1, 1
0, 0
0, 0
0, 0
0, 0
0, 0
0, 0
0, 0
0, 0
0, 0
0, 0
0, 0
0, 1
0, 0
2, 0
0, 0
0, 0
0, 0
0, 0
0, 0
0, 0
0, 0
1, 0
0, 0
0, 0
0, 0
0, 0
0, 0
0, 0
0, 0
0, 0
0, 0
0, 0
0, 0
0, 0
0, 0
0, 0
0, 0
0, 0
0, 0
0, 0
0, 0
0, 0
0, 0
0, 0
0, 0
0, 0
0, 0
0, 1
0, 0
0, 0
0, 0
0, 0
0, 0
0, 0
0, 0
0, 0
0, 0
0, 0
0, 0
0, 0
0, 0
0, 0
0, 0
0, 0
0, 0
0, 0
0, 0
0, 0
0, 0
0, 0
0, 0
0, 0
0, 0
0, 0
0, 0
0, 0
0, 0
0, 0
0, 0
0, 0
0, 0
0, 0
0, 0
0, 0
0, 0
0, 0
0, 0
0, 0
0, 0
0, 0
0, 0
0, 0
0, 0
0, 0
0, 0
0, 0
0, 0
0, 0
0, 0
0, 0
0, 0
0, 0
0, 0
0, 0
0, 0
0, 0
0, 0
0, 0
0, 0
0, 0
0, 0
0, 0
0, 0
0, 0
0, 0
0, 0
0, 0
0, 0
0, 0
0, 0
0, 0
#ENDOFDATA     end of spectrum data