File: host_upload/06-09-2024/ps_0852/dump3/ps__0852shot_2099.msa
#FORMAT      : EMSA/MAS spectral data file
#VERSION     : TC202v2.0 PIXL
#TITLE       : N/A
#DATE        :       Date in the format DD-MMM-YYYY, for example 07-JUL-2010
#TIME        :             The time of day at which the spectrum was recorded, in 24-hour format
#OWNER       : PIXL Flight Model       (PIXL will use this to indicate which instrument took the data.)
#NPOINTS     : 4096     Number of data points in the spectrum (This can be zero for configuration only files)
#NCOLUMNS    : 2     Number of data columns in the spectrum (This can be zero for configuration only files)
#XUNITS      : eV
#YUNITS      : COUNTS
#DATATYPE    : YY
#XPERCHAN    : 7.862, 7.881   eV per channel (separate by commas if more than one detector)
#OFFSET      : 18.5, -22.4         eV of first channel  (separate by commas if more than one detector
#SIGNALTYPE  : XRF
#YP_TEMP     : 2.62
#LIVETIME    : 8.58327, 8.5698   seconds (separate by commas if more than one detector)
#REALTIME    : 10, 10.0   seconds (separate by commas if more than one detector)
#SPECTRUM    : start of spectrum data
0, 0
0, 0
0, 0
0, 0
0, 0
0, 0
0, 0
0, 0
1, 1
2, 0
3, 2
31, 48
69, 49
2, 5
7, 3
81, 81
296, 342
77, 94
7, 6
3, 5
69, 76
390, 405
153, 184
42, 22
52, 53
46, 54
20, 25
16, 16
5, 8
4, 2
4, 1
3, 3
1, 4
34, 46
57, 65
4, 49
9, 42
6, 15
2, 7
8, 4
17, 5
67, 13
40, 14
39, 13
25, 8
6, 12
6, 12
5, 9
8, 11
10, 30
12, 18
6, 48
17, 60
31, 66
55, 84
21, 25
43, 28
408, 537
1801, 2152
1377, 1319
164, 123
14, 14
19, 25
93, 108
296, 301
211, 193
31, 27
8, 5
14, 8
11, 15
4, 16
4, 10
4, 6
8, 5
5, 5
3, 4
6, 4
4, 4
7, 8
7, 6
2, 4
6, 1
7, 5
9, 3
18, 2
11, 3
6, 13
5, 9
4, 2
3, 5
6, 6
1, 1
4, 1
1, 1
1, 1
2, 4
5, 4
2, 1
2, 3
4, 4
1, 2
1, 2
1, 2
2, 2
4, 2
1, 6
1, 6
1, 6
0, 3
4, 3
1, 2
2, 1
2, 2
1, 1
2, 2
4, 4
8, 5
3, 3
1, 2
0, 1
2, 2
0, 1
0, 3
2, 1
1, 1
0, 0
1, 4
1, 0
0, 3
1, 1
2, 1
1, 0
0, 0
0, 0
0, 0
0, 1
1, 1
1, 1
3, 0
1, 2
0, 1
1, 0
0, 0
0, 0
0, 2
0, 0
0, 2
0, 1
0, 0
0, 0
1, 0
0, 0
1, 0
0, 1
0, 1
0, 0
0, 0
0, 0
0, 0
0, 0
0, 0
1, 0
0, 0
0, 0
0, 0
0, 1
0, 1
0, 0
0, 0
0, 0
0, 0
0, 1
0, 0
0, 0
0, 0
0, 0
0, 0
0, 0
0, 0
1, 0
0, 0
0, 0
0, 0
0, 0
1, 0
0, 0
0, 0
0, 0
0, 0
0, 1
0, 0
0, 1
0, 0
0, 0
0, 0
0, 0
0, 0
0, 0
0, 0
0, 0
0, 0
1, 0
0, 0
0, 0
0, 0
0, 0
0, 0
0, 0
0, 0
0, 0
0, 0
0, 0
0, 0
0, 0
0, 0
0, 0
0, 0
0, 0
0, 0
0, 0
0, 0
0, 0
0, 0
0, 0
0, 0
0, 0
0, 0
0, 0
0, 0
0, 0
0, 0
0, 0
0, 0
0, 0
0, 0
0, 0
0, 0
0, 0
0, 0
0, 0
0, 0
0, 0
0, 0
0, 0
0, 0
0, 0
0, 0
0, 0
0, 0
0, 0
0, 0
0, 0
0, 0
0, 0
0, 0
0, 0
0, 0
0, 0
0, 0
0, 0
0, 0
0, 0
0, 0
0, 0
0, 0
0, 0
0, 0
0, 0
0, 0
0, 0
0, 0
0, 0
0, 0
0, 0
0, 0
0, 0
0, 0
0, 0
0, 0
0, 0
0, 0
0, 0
0, 0
0, 0
0, 0
0, 0
0, 0
0, 0
0, 0
0, 0
0, 0
0, 0
0, 0
0, 0
#ENDOFDATA     end of spectrum data