File: host_upload/06-09-2024/ps_0852/dump3/ps__0852shot_2548.msa
#FORMAT      : EMSA/MAS spectral data file
#VERSION     : TC202v2.0 PIXL
#TITLE       : N/A
#DATE        :       Date in the format DD-MMM-YYYY, for example 07-JUL-2010
#TIME        :             The time of day at which the spectrum was recorded, in 24-hour format
#OWNER       : PIXL Flight Model       (PIXL will use this to indicate which instrument took the data.)
#NPOINTS     : 4096     Number of data points in the spectrum (This can be zero for configuration only files)
#NCOLUMNS    : 2     Number of data columns in the spectrum (This can be zero for configuration only files)
#XUNITS      : eV
#YUNITS      : COUNTS
#DATATYPE    : YY
#XPERCHAN    : 7.862, 7.881   eV per channel (separate by commas if more than one detector)
#OFFSET      : 18.5, -22.4         eV of first channel  (separate by commas if more than one detector
#SIGNALTYPE  : XRF
#YP_TEMP     : 2.235
#LIVETIME    : 8.55871, 8.54694   seconds (separate by commas if more than one detector)
#REALTIME    : 10, 10.0   seconds (separate by commas if more than one detector)
#SPECTRUM    : start of spectrum data
0, 0
0, 0
0, 0
0, 0
0, 0
0, 0
0, 0
0, 1
0, 0
1, 1
3, 3
48, 49
77, 62
8, 7
6, 1
92, 81
485, 467
84, 100
10, 6
3, 0
3, 4
13, 17
9, 9
5, 10
23, 25
29, 26
14, 18
7, 17
2, 1
0, 1
2, 1
1, 4
2, 1
51, 51
61, 75
9, 7
6, 9
11, 15
9, 9
1, 3
5, 1
8, 14
21, 42
50, 36
58, 9
20, 7
11, 6
5, 2
15, 15
18, 20
13, 9
4, 7
15, 18
29, 65
61, 69
19, 16
22, 29
444, 569
2139, 2420
1538, 1387
218, 135
83, 9
109, 24
116, 124
349, 342
226, 206
29, 24
8, 5
16, 14
3, 9
2, 2
4, 6
4, 3
4, 2
4, 8
4, 3
8, 9
12, 2
8, 3
3, 3
6, 2
2, 3
7, 4
3, 9
1, 18
3, 26
4, 13
3, 3
7, 4
11, 6
9, 0
7, 4
4, 1
3, 6
4, 7
3, 9
3, 4
2, 8
2, 3
3, 2
1, 2
1, 4
3, 5
2, 4
5, 7
3, 5
2, 7
1, 3
3, 3
2, 2
3, 0
2, 3
0, 4
1, 3
1, 1
1, 2
6, 5
8, 3
0, 0
3, 3
4, 4
5, 3
2, 8
2, 4
4, 1
0, 1
1, 2
2, 1
3, 3
2, 1
2, 0
1, 2
2, 0
2, 1
2, 1
0, 1
1, 0
0, 2
1, 1
0, 1
0, 1
1, 0
0, 0
0, 0
1, 0
0, 1
0, 0
0, 0
0, 0
0, 0
1, 0
1, 0
1, 0
0, 0
0, 0
0, 0
0, 1
1, 0
0, 0
0, 0
0, 1
0, 0
0, 1
1, 0
1, 0
0, 1
0, 0
0, 1
0, 0
1, 2
1, 0
1, 0
0, 0
0, 3
0, 0
0, 0
1, 0
0, 0
0, 0
0, 1
0, 0
0, 1
0, 0
0, 0
0, 0
0, 1
0, 0
0, 0
0, 0
1, 0
0, 0
0, 0
0, 0
0, 0
0, 0
0, 0
0, 0
0, 0
0, 0
0, 0
0, 0
0, 0
0, 0
0, 0
0, 0
0, 0
0, 0
0, 0
0, 0
0, 0
0, 0
0, 0
0, 0
0, 0
0, 0
0, 0
0, 0
0, 0
0, 0
0, 0
0, 0
0, 0
0, 0
0, 0
0, 0
0, 0
0, 0
0, 0
0, 0
0, 0
0, 0
0, 0
0, 0
0, 0
0, 0
0, 0
0, 0
0, 0
0, 0
0, 0
0, 0
0, 0
0, 0
0, 0
0, 0
0, 0
0, 0
0, 0
0, 0
0, 0
0, 0
0, 0
0, 0
0, 0
0, 0
0, 0
0, 0
0, 0
0, 0
0, 0
0, 0
0, 0
0, 0
0, 0
0, 0
0, 0
0, 0
0, 0
0, 0
0, 0
0, 0
0, 0
0, 0
0, 0
0, 0
0, 0
0, 0
0, 0
0, 0
0, 0
0, 0
0, 0
0, 0
0, 0
0, 0
0, 0
0, 0
0, 0
0, 0
0, 0
0, 0
0, 0
0, 0
0, 0
#ENDOFDATA     end of spectrum data