File: host_upload/06-09-2024/ps_0852/dump3/ps__0852shot_2340.msa
#FORMAT      : EMSA/MAS spectral data file
#VERSION     : TC202v2.0 PIXL
#TITLE       : N/A
#DATE        :       Date in the format DD-MMM-YYYY, for example 07-JUL-2010
#TIME        :             The time of day at which the spectrum was recorded, in 24-hour format
#OWNER       : PIXL Flight Model       (PIXL will use this to indicate which instrument took the data.)
#NPOINTS     : 4096     Number of data points in the spectrum (This can be zero for configuration only files)
#NCOLUMNS    : 2     Number of data columns in the spectrum (This can be zero for configuration only files)
#XUNITS      : eV
#YUNITS      : COUNTS
#DATATYPE    : YY
#XPERCHAN    : 7.862, 7.881   eV per channel (separate by commas if more than one detector)
#OFFSET      : 18.5, -22.4         eV of first channel  (separate by commas if more than one detector
#SIGNALTYPE  : XRF
#YP_TEMP     : 2.171
#LIVETIME    : 8.60598, 8.53759   seconds (separate by commas if more than one detector)
#REALTIME    : 10, 10.0   seconds (separate by commas if more than one detector)
#SPECTRUM    : start of spectrum data
0, 0
0, 0
0, 0
0, 0
0, 0
0, 0
0, 0
0, 0
3, 1
3, 4
7, 3
40, 30
53, 33
3, 5
7, 5
38, 56
203, 229
55, 64
8, 3
8, 8
111, 127
749, 769
282, 298
74, 73
117, 147
79, 102
40, 36
24, 21
15, 10
8, 3
21, 31
11, 15
12, 5
29, 43
45, 50
13, 10
5, 18
14, 11
12, 6
6, 4
3, 13
8, 11
11, 18
11, 6
8, 10
14, 16
8, 9
11, 8
16, 4
31, 29
42, 43
20, 19
23, 14
48, 39
47, 54
23, 16
37, 37
421, 564
2006, 2260
1512, 1401
174, 117
24, 11
15, 29
95, 126
301, 321
229, 190
22, 20
10, 10
18, 13
40, 13
33, 11
10, 9
6, 6
7, 7
5, 4
5, 8
6, 7
7, 3
8, 5
4, 11
5, 2
12, 2
13, 1
5, 9
0, 6
2, 10
5, 5
2, 2
5, 6
5, 7
6, 11
8, 16
4, 4
6, 2
2, 3
6, 7
2, 1
2, 1
4, 2
6, 6
8, 2
9, 2
2, 2
5, 4
1, 3
1, 0
2, 4
2, 0
2, 2
3, 2
3, 2
5, 3
3, 2
3, 0
2, 2
6, 1
0, 8
7, 2
2, 3
1, 0
1, 2
1, 3
0, 1
2, 2
1, 1
4, 3
2, 2
3, 0
1, 1
1, 5
0, 3
3, 0
0, 1
0, 0
1, 0
1, 0
0, 0
0, 0
1, 0
0, 0
2, 1
3, 1
1, 1
2, 0
2, 0
2, 1
2, 1
1, 0
0, 0
1, 0
0, 3
0, 0
1, 1
1, 0
1, 0
0, 0
1, 0
0, 0
1, 0
0, 0
0, 1
0, 0
0, 2
1, 0
0, 0
1, 0
0, 0
1, 0
0, 0
0, 2
1, 1
0, 0
0, 0
0, 0
0, 0
0, 0
0, 1
0, 1
0, 1
0, 0
0, 0
0, 0
1, 1
0, 0
1, 0
0, 0
0, 1
0, 0
0, 0
0, 0
0, 0
1, 0
1, 0
0, 0
0, 0
0, 0
0, 0
0, 0
0, 0
0, 0
0, 0
1, 0
0, 0
0, 0
0, 0
0, 0
0, 0
0, 0
0, 0
0, 0
0, 0
0, 0
0, 0
0, 0
0, 0
0, 0
0, 0
0, 0
0, 0
0, 0
0, 0
0, 0
0, 0
0, 0
0, 0
0, 0
0, 0
0, 0
0, 0
0, 0
0, 0
0, 0
0, 0
0, 0
0, 0
0, 0
0, 0
0, 0
0, 0
0, 0
0, 0
0, 0
0, 0
0, 0
0, 0
0, 0
0, 0
0, 0
0, 0
0, 0
0, 0
0, 0
0, 0
0, 0
0, 0
0, 0
0, 0
0, 0
0, 0
0, 0
0, 0
0, 0
0, 0
0, 0
0, 0
0, 0
0, 0
0, 0
0, 0
0, 0
0, 0
0, 0
0, 0
0, 0
0, 0
0, 0
0, 0
0, 0
0, 0
0, 0
0, 0
0, 0
0, 0
0, 0
0, 0
0, 0
0, 0
0, 0
0, 0
0, 0
0, 0
0, 0
0, 0
0, 0
#ENDOFDATA     end of spectrum data