File: host_upload/06-09-2024/ps_0852/dump3/ps__0852shot_2345.msa
#FORMAT      : EMSA/MAS spectral data file
#VERSION     : TC202v2.0 PIXL
#TITLE       : N/A
#DATE        :       Date in the format DD-MMM-YYYY, for example 07-JUL-2010
#TIME        :             The time of day at which the spectrum was recorded, in 24-hour format
#OWNER       : PIXL Flight Model       (PIXL will use this to indicate which instrument took the data.)
#NPOINTS     : 4096     Number of data points in the spectrum (This can be zero for configuration only files)
#NCOLUMNS    : 2     Number of data columns in the spectrum (This can be zero for configuration only files)
#XUNITS      : eV
#YUNITS      : COUNTS
#DATATYPE    : YY
#XPERCHAN    : 7.862, 7.881   eV per channel (separate by commas if more than one detector)
#OFFSET      : 18.5, -22.4         eV of first channel  (separate by commas if more than one detector
#SIGNALTYPE  : XRF
#YP_TEMP     : 2.171
#LIVETIME    : 8.57628, 8.56562   seconds (separate by commas if more than one detector)
#REALTIME    : 10, 10.0   seconds (separate by commas if more than one detector)
#SPECTRUM    : start of spectrum data
0, 0
0, 0
0, 0
0, 0
0, 0
0, 0
0, 0
0, 0
0, 1
1, 1
3, 1
45, 40
58, 54
3, 7
2, 4
106, 107
478, 412
106, 103
5, 4
2, 1
1, 1
11, 7
6, 4
5, 5
26, 28
26, 30
15, 16
9, 7
5, 6
4, 4
1, 2
2, 2
3, 1
27, 24
45, 30
15, 6
7, 7
4, 7
3, 1
1, 0
3, 3
10, 11
10, 11
10, 7
4, 4
4, 8
5, 6
5, 6
8, 10
53, 24
121, 11
47, 5
7, 13
52, 47
88, 53
51, 24
35, 30
496, 577
2106, 2207
1538, 1395
218, 107
23, 18
24, 14
107, 124
299, 331
212, 205
36, 15
6, 8
16, 16
7, 4
5, 2
3, 10
7, 10
10, 5
5, 5
3, 6
10, 4
7, 1
4, 3
4, 5
19, 3
36, 11
10, 9
9, 15
5, 3
4, 2
2, 2
2, 4
1, 3
7, 1
2, 2
2, 3
1, 1
3, 4
4, 1
2, 5
1, 2
2, 0
1, 2
7, 3
8, 5
2, 2
0, 0
1, 2
0, 1
2, 4
2, 0
2, 4
1, 2
1, 1
0, 1
2, 2
2, 6
2, 5
6, 4
6, 4
4, 5
1, 1
1, 1
0, 3
3, 1
0, 4
4, 1
3, 1
1, 0
1, 1
2, 3
3, 0
1, 2
0, 1
1, 1
1, 1
2, 0
3, 0
1, 0
0, 1
0, 0
0, 0
0, 0
0, 0
1, 1
1, 0
0, 0
0, 0
0, 0
0, 1
2, 1
1, 0
0, 0
0, 2
1, 0
0, 0
1, 0
0, 0
1, 0
0, 0
2, 1
0, 0
0, 0
0, 0
0, 0
0, 0
1, 1
0, 3
1, 1
1, 0
0, 1
0, 0
0, 0
0, 0
0, 1
0, 0
0, 0
0, 1
0, 0
0, 1
0, 0
1, 0
0, 0
0, 0
0, 1
0, 0
1, 1
0, 1
1, 0
0, 0
0, 0
1, 0
0, 0
0, 0
0, 0
0, 0
0, 0
0, 0
0, 0
0, 1
0, 0
0, 0
0, 0
0, 0
0, 0
0, 0
0, 0
0, 0
0, 0
0, 0
0, 0
0, 0
0, 0
0, 0
0, 0
0, 0
0, 0
0, 0
0, 0
0, 0
0, 0
0, 0
0, 0
0, 0
0, 0
0, 0
0, 0
0, 0
0, 0
0, 0
0, 0
0, 0
0, 0
0, 0
0, 0
0, 0
0, 0
0, 0
0, 0
0, 0
0, 0
0, 0
0, 0
0, 0
0, 0
0, 0
0, 0
0, 0
0, 0
0, 0
0, 0
0, 0
0, 0
0, 0
0, 0
0, 0
0, 0
0, 0
0, 0
0, 0
0, 0
0, 0
0, 0
0, 0
0, 0
0, 0
0, 0
0, 0
0, 0
0, 0
0, 0
0, 0
0, 0
0, 0
0, 0
0, 0
0, 0
0, 0
0, 0
0, 0
0, 0
0, 0
0, 0
0, 0
0, 0
0, 0
0, 0
0, 0
0, 0
0, 0
0, 0
0, 0
0, 0
0, 0
0, 0
0, 0
0, 0
0, 0
#ENDOFDATA     end of spectrum data