File: host_upload/06-09-2024/ps_0852/dump3/ps__0852shot_2452.msa
#FORMAT      : EMSA/MAS spectral data file
#VERSION     : TC202v2.0 PIXL
#TITLE       : N/A
#DATE        :       Date in the format DD-MMM-YYYY, for example 07-JUL-2010
#TIME        :             The time of day at which the spectrum was recorded, in 24-hour format
#OWNER       : PIXL Flight Model       (PIXL will use this to indicate which instrument took the data.)
#NPOINTS     : 4096     Number of data points in the spectrum (This can be zero for configuration only files)
#NCOLUMNS    : 2     Number of data columns in the spectrum (This can be zero for configuration only files)
#XUNITS      : eV
#YUNITS      : COUNTS
#DATATYPE    : YY
#XPERCHAN    : 7.862, 7.881   eV per channel (separate by commas if more than one detector)
#OFFSET      : 18.5, -22.4         eV of first channel  (separate by commas if more than one detector
#SIGNALTYPE  : XRF
#YP_TEMP     : 2.267
#LIVETIME    : 8.56743, 8.56559   seconds (separate by commas if more than one detector)
#REALTIME    : 10, 10.0   seconds (separate by commas if more than one detector)
#SPECTRUM    : start of spectrum data
0, 0
0, 0
0, 0
0, 0
0, 0
0, 0
0, 0
0, 0
1, 1
0, 1
3, 5
42, 39
49, 62
7, 2
4, 4
72, 109
369, 461
91, 111
4, 5
1, 1
8, 7
29, 34
15, 16
9, 17
45, 32
54, 48
26, 17
22, 17
6, 4
3, 3
2, 2
2, 0
2, 1
10, 12
11, 4
3, 16
5, 13
8, 6
9, 11
7, 2
5, 5
14, 10
14, 30
10, 17
4, 7
10, 9
2, 12
4, 7
11, 8
12, 5
8, 6
6, 6
9, 9
44, 47
59, 62
25, 18
27, 42
464, 641
2045, 2513
1501, 1530
188, 173
19, 62
20, 51
89, 112
314, 368
227, 218
23, 19
30, 3
33, 13
16, 3
8, 5
4, 5
6, 3
3, 6
4, 7
5, 7
7, 1
6, 7
6, 6
5, 3
5, 2
2, 5
4, 4
4, 9
5, 14
8, 6
7, 6
6, 2
1, 3
1, 14
3, 10
0, 4
4, 2
5, 1
5, 3
4, 3
4, 7
7, 2
5, 1
3, 4
3, 2
1, 6
4, 2
2, 2
3, 4
2, 2
1, 3
4, 3
1, 2
1, 1
2, 4
1, 1
3, 1
2, 1
1, 1
0, 1
4, 2
2, 5
2, 1
0, 2
1, 4
3, 1
1, 2
0, 2
0, 1
0, 3
4, 2
2, 2
1, 2
0, 1
0, 0
2, 0
0, 2
1, 1
2, 1
0, 1
0, 0
0, 1
0, 0
1, 1
0, 1
0, 1
1, 0
2, 1
0, 2
0, 2
0, 0
1, 0
2, 1
0, 0
0, 0
1, 1
0, 0
1, 2
0, 0
0, 0
0, 0
0, 0
0, 0
1, 0
0, 0
0, 0
0, 0
0, 0
0, 0
0, 2
0, 0
1, 0
0, 1
1, 1
1, 0
0, 1
0, 0
0, 0
0, 0
0, 0
0, 0
0, 1
0, 0
0, 1
1, 0
0, 0
0, 0
2, 0
1, 1
0, 0
0, 0
0, 1
0, 0
0, 0
0, 0
0, 0
0, 0
0, 0
0, 0
0, 0
0, 1
0, 0
0, 0
0, 0
0, 0
0, 0
0, 0
0, 0
0, 0
0, 0
0, 0
0, 0
0, 0
0, 0
0, 0
0, 0
0, 0
0, 0
0, 0
0, 0
0, 0
0, 0
0, 0
0, 0
0, 1
0, 0
0, 0
0, 0
0, 0
0, 0
0, 0
0, 0
0, 0
0, 0
0, 0
0, 0
0, 0
0, 0
0, 0
0, 0
0, 0
0, 0
0, 0
0, 0
0, 0
0, 0
0, 0
0, 0
0, 0
0, 0
0, 0
0, 0
0, 0
0, 0
0, 0
0, 0
0, 0
0, 0
0, 0
0, 0
0, 0
0, 0
0, 0
0, 0
0, 0
0, 0
0, 0
0, 0
0, 0
0, 0
0, 0
0, 0
0, 0
0, 0
0, 0
0, 0
0, 0
0, 0
0, 0
0, 0
0, 0
0, 0
0, 0
0, 0
0, 0
0, 0
0, 0
0, 0
0, 0
0, 0
0, 0
0, 0
0, 0
0, 0
0, 0
0, 0
0, 0
0, 0
#ENDOFDATA     end of spectrum data