File: host_upload/06-09-2024/ps_0852/dump3/ps__0852shot_2310.msa
#FORMAT      : EMSA/MAS spectral data file
#VERSION     : TC202v2.0 PIXL
#TITLE       : N/A
#DATE        :       Date in the format DD-MMM-YYYY, for example 07-JUL-2010
#TIME        :             The time of day at which the spectrum was recorded, in 24-hour format
#OWNER       : PIXL Flight Model       (PIXL will use this to indicate which instrument took the data.)
#NPOINTS     : 4096     Number of data points in the spectrum (This can be zero for configuration only files)
#NCOLUMNS    : 2     Number of data columns in the spectrum (This can be zero for configuration only files)
#XUNITS      : eV
#YUNITS      : COUNTS
#DATATYPE    : YY
#XPERCHAN    : 7.862, 7.881   eV per channel (separate by commas if more than one detector)
#OFFSET      : 18.5, -22.4         eV of first channel  (separate by commas if more than one detector
#SIGNALTYPE  : XRF
#YP_TEMP     : 2.396
#LIVETIME    : 8.57178, 8.5521   seconds (separate by commas if more than one detector)
#REALTIME    : 10, 10.0   seconds (separate by commas if more than one detector)
#SPECTRUM    : start of spectrum data
0, 0
0, 0
0, 0
0, 0
0, 0
0, 0
0, 0
1, 0
4, 0
10, 2
10, 5
38, 33
49, 39
7, 10
11, 6
81, 92
380, 326
92, 78
15, 15
4, 5
22, 21
100, 96
41, 46
35, 15
408, 79
523, 78
91, 32
10, 20
10, 9
4, 6
3, 4
2, 1
5, 3
68, 60
98, 109
19, 16
18, 30
22, 22
6, 9
5, 8
8, 1
11, 11
20, 14
32, 12
41, 4
5, 6
8, 14
6, 8
5, 9
19, 17
12, 9
5, 10
12, 13
36, 51
67, 73
32, 19
30, 42
460, 578
2228, 2224
1599, 1410
181, 139
27, 36
17, 38
104, 118
349, 368
210, 167
34, 18
14, 5
13, 6
8, 6
4, 0
2, 1
2, 2
4, 4
3, 8
5, 6
1, 8
3, 9
8, 7
6, 4
5, 7
5, 1
5, 2
8, 3
2, 4
3, 2
5, 1
9, 1
9, 4
4, 11
7, 16
6, 9
1, 3
4, 5
1, 3
3, 3
1, 0
3, 1
3, 4
3, 3
2, 1
3, 1
1, 2
2, 0
3, 1
2, 1
1, 7
2, 4
2, 4
2, 0
2, 5
4, 0
0, 0
1, 1
3, 2
0, 3
4, 6
2, 2
0, 2
2, 1
2, 0
2, 3
1, 3
3, 1
1, 3
0, 0
1, 1
0, 1
0, 1
1, 3
0, 1
1, 0
1, 0
2, 1
0, 0
2, 0
1, 0
1, 1
0, 2
1, 0
1, 0
0, 1
0, 1
0, 0
1, 0
0, 0
0, 1
0, 0
0, 0
1, 0
0, 1
1, 0
0, 0
1, 0
0, 0
0, 0
0, 0
1, 1
0, 0
1, 0
0, 0
0, 1
0, 0
0, 0
0, 0
0, 1
0, 0
0, 1
1, 0
0, 2
0, 0
0, 0
1, 2
1, 0
2, 0
0, 1
0, 0
0, 0
0, 0
2, 0
0, 0
0, 0
1, 0
1, 1
0, 0
0, 1
0, 0
0, 0
0, 0
1, 0
0, 0
0, 0
0, 0
0, 0
0, 0
0, 0
0, 0
0, 0
0, 0
0, 0
0, 0
0, 1
0, 0
0, 0
0, 0
0, 0
0, 0
0, 0
0, 0
0, 0
0, 0
0, 0
0, 0
0, 0
0, 0
0, 0
0, 0
0, 0
0, 0
0, 0
0, 0
0, 0
0, 0
0, 0
0, 0
0, 0
0, 0
0, 0
0, 0
0, 0
0, 0
0, 0
0, 0
0, 0
0, 0
0, 0
0, 0
0, 0
0, 1
0, 0
0, 0
0, 0
0, 0
0, 0
0, 0
0, 0
0, 0
0, 0
0, 0
0, 0
0, 0
0, 0
0, 0
0, 0
0, 0
0, 0
0, 0
0, 0
0, 0
0, 0
0, 0
0, 0
0, 0
0, 0
0, 0
0, 0
0, 0
0, 0
0, 0
0, 0
0, 0
0, 0
0, 0
0, 0
0, 0
0, 0
0, 0
0, 0
0, 0
0, 0
0, 0
0, 0
0, 0
0, 0
0, 0
0, 0
0, 0
0, 0
0, 0
0, 0
0, 0
0, 0
0, 0
0, 0
#ENDOFDATA     end of spectrum data