File: host_upload/06-09-2024/ps_0852/dump3/ps__0852shot_2277.msa
#FORMAT      : EMSA/MAS spectral data file
#VERSION     : TC202v2.0 PIXL
#TITLE       : N/A
#DATE        :       Date in the format DD-MMM-YYYY, for example 07-JUL-2010
#TIME        :             The time of day at which the spectrum was recorded, in 24-hour format
#OWNER       : PIXL Flight Model       (PIXL will use this to indicate which instrument took the data.)
#NPOINTS     : 4096     Number of data points in the spectrum (This can be zero for configuration only files)
#NCOLUMNS    : 2     Number of data columns in the spectrum (This can be zero for configuration only files)
#XUNITS      : eV
#YUNITS      : COUNTS
#DATATYPE    : YY
#XPERCHAN    : 7.862, 7.881   eV per channel (separate by commas if more than one detector)
#OFFSET      : 18.5, -22.4         eV of first channel  (separate by commas if more than one detector
#SIGNALTYPE  : XRF
#YP_TEMP     : 2.332
#LIVETIME    : 8.56875, 8.56211   seconds (separate by commas if more than one detector)
#REALTIME    : 10, 10.0   seconds (separate by commas if more than one detector)
#SPECTRUM    : start of spectrum data
0, 0
0, 0
0, 0
0, 0
0, 0
0, 0
0, 0
0, 0
1, 0
1, 1
2, 4
36, 49
53, 58
6, 5
2, 3
74, 106
390, 477
82, 104
7, 5
3, 3
8, 18
62, 84
19, 40
9, 10
29, 37
29, 34
16, 16
10, 13
6, 6
2, 3
0, 2
3, 3
2, 5
11, 21
19, 25
7, 25
4, 17
0, 11
3, 0
3, 6
13, 4
50, 7
25, 15
17, 13
14, 8
6, 8
8, 8
7, 10
3, 28
11, 57
7, 49
2, 83
6, 60
34, 63
57, 77
24, 26
34, 46
371, 607
1724, 2496
1296, 1516
181, 166
15, 23
14, 28
79, 134
256, 396
182, 217
22, 22
12, 10
13, 19
9, 12
5, 11
3, 11
5, 7
0, 13
2, 6
4, 8
3, 5
5, 5
0, 4
2, 4
4, 5
1, 3
1, 6
6, 5
9, 4
5, 7
9, 8
3, 6
3, 5
0, 8
6, 6
1, 9
1, 3
7, 1
6, 2
8, 3
2, 3
4, 6
1, 2
3, 2
3, 1
4, 4
4, 5
2, 4
2, 2
2, 2
1, 4
4, 5
4, 3
3, 3
2, 4
2, 0
4, 4
3, 1
1, 0
1, 2
2, 2
1, 3
0, 1
2, 1
0, 1
1, 2
1, 4
3, 0
2, 5
2, 1
1, 3
1, 4
1, 2
0, 2
2, 3
0, 1
0, 1
1, 0
1, 0
1, 1
1, 1
0, 0
1, 4
3, 0
1, 1
0, 0
1, 0
0, 1
0, 0
0, 0
0, 3
0, 2
2, 0
2, 3
1, 0
1, 0
0, 0
0, 1
0, 0
0, 0
0, 1
0, 0
0, 1
0, 0
0, 1
0, 0
2, 0
0, 1
0, 0
0, 1
0, 1
0, 0
1, 0
1, 0
0, 0
1, 0
0, 0
0, 1
0, 0
0, 0
0, 0
0, 1
0, 0
0, 0
0, 1
0, 0
0, 0
0, 0
1, 0
0, 0
0, 0
0, 0
0, 0
0, 0
0, 0
0, 0
0, 0
0, 0
0, 0
0, 0
0, 1
0, 0
0, 0
0, 0
0, 0
0, 0
0, 0
0, 0
0, 0
0, 0
0, 0
0, 0
0, 0
0, 0
0, 0
0, 0
0, 0
0, 0
0, 0
0, 0
0, 0
0, 0
0, 0
0, 0
0, 0
0, 0
0, 0
0, 0
0, 0
0, 0
0, 0
0, 0
0, 0
0, 0
0, 0
0, 0
0, 0
0, 0
0, 0
0, 0
0, 0
0, 0
0, 0
0, 0
0, 0
0, 0
0, 0
0, 0
0, 0
0, 0
0, 0
0, 0
0, 0
0, 0
0, 0
0, 0
0, 0
0, 0
0, 0
0, 0
0, 0
0, 0
0, 0
0, 0
0, 0
0, 0
0, 0
0, 0
0, 0
0, 0
0, 0
0, 0
0, 0
0, 0
0, 0
0, 0
0, 0
0, 0
0, 0
0, 0
0, 0
0, 0
0, 0
0, 0
0, 0
0, 0
0, 0
0, 0
0, 0
0, 0
0, 0
0, 0
0, 0
0, 0
0, 0
0, 0
0, 0
0, 0
#ENDOFDATA     end of spectrum data