File: host_upload/06-09-2024/ps_0852/dump3/ps__0852shot_2226.msa
#FORMAT      : EMSA/MAS spectral data file
#VERSION     : TC202v2.0 PIXL
#TITLE       : N/A
#DATE        :       Date in the format DD-MMM-YYYY, for example 07-JUL-2010
#TIME        :             The time of day at which the spectrum was recorded, in 24-hour format
#OWNER       : PIXL Flight Model       (PIXL will use this to indicate which instrument took the data.)
#NPOINTS     : 4096     Number of data points in the spectrum (This can be zero for configuration only files)
#NCOLUMNS    : 2     Number of data columns in the spectrum (This can be zero for configuration only files)
#XUNITS      : eV
#YUNITS      : COUNTS
#DATATYPE    : YY
#XPERCHAN    : 7.862, 7.881   eV per channel (separate by commas if more than one detector)
#OFFSET      : 18.5, -22.4         eV of first channel  (separate by commas if more than one detector
#SIGNALTYPE  : XRF
#YP_TEMP     : 2.235
#LIVETIME    : 8.54626, 8.5617   seconds (separate by commas if more than one detector)
#REALTIME    : 10, 10.0   seconds (separate by commas if more than one detector)
#SPECTRUM    : start of spectrum data
0, 0
0, 0
0, 0
0, 0
0, 0
0, 0
0, 0
0, 0
0, 3
0, 6
2, 1
50, 40
66, 52
7, 7
3, 6
103, 107
453, 395
106, 114
4, 3
1, 1
1, 2
2, 1
1, 15
7, 15
17, 80
30, 126
11, 24
13, 7
4, 5
2, 1
0, 2
2, 2
4, 0
10, 8
19, 16
5, 5
8, 3
11, 4
41, 8
35, 4
5, 6
8, 15
15, 10
11, 12
2, 19
6, 8
7, 12
7, 8
4, 6
15, 17
10, 12
14, 10
22, 49
42, 94
60, 75
18, 27
26, 35
504, 633
2107, 2326
1644, 1388
200, 145
20, 24
17, 18
116, 121
320, 338
237, 194
32, 53
9, 30
11, 21
8, 6
1, 4
2, 5
2, 2
9, 7
2, 24
8, 43
9, 20
8, 9
8, 7
6, 3
1, 5
2, 1
0, 11
2, 16
2, 6
6, 3
14, 4
6, 0
6, 3
2, 3
2, 2
5, 3
3, 2
3, 3
3, 3
6, 1
4, 2
7, 1
1, 2
2, 2
2, 2
4, 1
1, 4
5, 3
5, 3
2, 7
1, 3
0, 3
1, 2
0, 1
3, 0
2, 1
0, 2
1, 2
1, 4
5, 0
8, 6
4, 3
1, 1
0, 1
2, 2
3, 5
3, 5
0, 1
2, 0
3, 1
0, 1
3, 0
0, 2
1, 1
0, 2
2, 1
2, 1
0, 0
1, 0
1, 1
2, 1
0, 1
0, 2
0, 0
0, 0
0, 1
0, 0
1, 0
1, 0
0, 0
1, 0
0, 1
0, 0
1, 2
0, 0
1, 2
0, 1
0, 0
0, 0
0, 1
0, 1
0, 0
0, 0
0, 0
0, 0
0, 1
0, 0
0, 1
0, 0
0, 0
0, 0
0, 0
0, 0
2, 0
0, 0
0, 1
0, 0
0, 0
0, 0
0, 0
1, 0
0, 0
0, 0
1, 0
0, 0
0, 0
0, 0
0, 0
0, 0
0, 0
0, 0
0, 0
0, 0
0, 1
0, 0
0, 0
0, 0
0, 0
0, 1
0, 0
0, 0
0, 0
0, 0
0, 0
0, 0
0, 0
0, 0
0, 0
0, 0
0, 0
0, 0
0, 0
0, 0
0, 0
0, 0
0, 0
0, 0
0, 0
0, 0
0, 0
0, 0
0, 0
0, 0
0, 0
1, 0
0, 0
0, 0
0, 0
0, 0
0, 0
0, 0
0, 0
0, 0
0, 0
0, 0
0, 0
0, 0
0, 0
0, 0
0, 0
0, 0
0, 0
0, 0
0, 0
0, 0
0, 0
0, 0
0, 0
0, 0
0, 0
0, 0
0, 0
0, 0
0, 0
0, 0
0, 0
0, 0
0, 0
0, 0
0, 0
0, 0
0, 0
0, 0
0, 0
0, 0
0, 0
0, 0
0, 0
0, 0
0, 0
0, 0
0, 0
0, 0
0, 0
0, 0
0, 0
0, 0
0, 0
0, 0
0, 0
0, 0
0, 0
0, 0
0, 0
0, 0
0, 0
0, 0
0, 0
0, 0
0, 0
0, 0
0, 0
0, 0
0, 0
0, 0
0, 0
0, 0
0, 0
#ENDOFDATA     end of spectrum data