File: host_upload/06-09-2024/ps_0852/dump3/ps__0852shot_2240.msa
#FORMAT      : EMSA/MAS spectral data file
#VERSION     : TC202v2.0 PIXL
#TITLE       : N/A
#DATE        :       Date in the format DD-MMM-YYYY, for example 07-JUL-2010
#TIME        :             The time of day at which the spectrum was recorded, in 24-hour format
#OWNER       : PIXL Flight Model       (PIXL will use this to indicate which instrument took the data.)
#NPOINTS     : 4096     Number of data points in the spectrum (This can be zero for configuration only files)
#NCOLUMNS    : 2     Number of data columns in the spectrum (This can be zero for configuration only files)
#XUNITS      : eV
#YUNITS      : COUNTS
#DATATYPE    : YY
#XPERCHAN    : 7.862, 7.881   eV per channel (separate by commas if more than one detector)
#OFFSET      : 18.5, -22.4         eV of first channel  (separate by commas if more than one detector
#SIGNALTYPE  : XRF
#YP_TEMP     : 2.332
#LIVETIME    : 8.55624, 8.52401   seconds (separate by commas if more than one detector)
#REALTIME    : 10, 10.0   seconds (separate by commas if more than one detector)
#SPECTRUM    : start of spectrum data
0, 0
0, 0
0, 0
0, 0
0, 0
0, 0
0, 0
0, 0
1, 2
0, 0
6, 1
49, 39
66, 60
7, 8
5, 4
103, 96
429, 434
105, 117
9, 4
1, 3
0, 1
4, 1
1, 2
2, 4
18, 11
22, 36
22, 12
13, 11
7, 3
0, 4
3, 1
2, 1
1, 6
8, 31
19, 23
8, 8
4, 0
4, 5
10, 5
33, 2
55, 2
25, 6
10, 10
13, 11
8, 5
8, 8
2, 8
8, 12
2, 9
15, 22
10, 21
17, 15
52, 14
147, 46
91, 54
35, 14
52, 35
515, 588
2236, 2195
1597, 1262
211, 120
15, 12
21, 30
109, 143
318, 351
231, 171
33, 27
10, 11
17, 12
10, 6
4, 4
4, 4
2, 2
5, 5
4, 7
2, 3
5, 4
5, 6
12, 5
17, 7
9, 4
1, 14
2, 12
3, 3
6, 4
4, 1
3, 4
2, 1
2, 2
4, 4
6, 4
11, 4
4, 12
8, 13
6, 8
3, 3
2, 3
4, 7
4, 2
2, 1
1, 0
4, 2
3, 1
5, 0
8, 1
2, 3
2, 0
0, 2
1, 1
1, 3
1, 3
4, 2
2, 2
1, 3
1, 1
3, 1
7, 4
0, 2
3, 1
1, 2
1, 4
0, 3
5, 0
2, 0
0, 1
0, 0
0, 0
2, 0
1, 0
0, 1
2, 2
1, 1
0, 0
0, 1
1, 0
0, 0
1, 2
1, 1
1, 0
1, 0
1, 2
1, 0
0, 1
0, 1
0, 0
0, 0
1, 0
0, 1
1, 0
0, 0
1, 0
1, 0
0, 0
0, 0
0, 0
0, 0
3, 0
0, 0
0, 0
0, 2
0, 1
1, 0
0, 0
0, 0
0, 0
1, 0
0, 0
0, 0
0, 0
0, 3
0, 0
0, 0
1, 1
0, 0
0, 1
0, 0
0, 0
0, 0
0, 0
0, 0
0, 1
0, 0
0, 0
0, 0
1, 0
0, 0
0, 0
0, 1
0, 0
0, 0
0, 0
0, 0
0, 0
0, 0
0, 0
0, 0
0, 0
0, 0
0, 0
0, 0
0, 0
0, 0
0, 0
0, 0
1, 0
0, 0
0, 0
0, 0
0, 0
0, 0
0, 0
0, 0
0, 0
0, 0
0, 0
0, 0
0, 0
0, 0
0, 0
0, 0
0, 0
0, 0
0, 0
0, 0
0, 0
0, 0
0, 0
0, 0
0, 0
0, 0
0, 0
0, 0
0, 0
0, 0
0, 0
0, 0
0, 0
0, 0
0, 0
0, 0
0, 0
0, 0
0, 0
0, 0
0, 0
0, 0
0, 0
0, 0
0, 0
0, 0
0, 0
0, 0
0, 0
0, 0
0, 0
0, 0
0, 0
0, 0
0, 0
0, 0
0, 0
0, 0
0, 0
0, 0
0, 0
0, 0
0, 0
0, 0
0, 0
0, 0
0, 0
0, 0
0, 0
0, 0
0, 0
0, 0
0, 0
0, 0
0, 0
0, 0
0, 0
0, 0
0, 0
0, 0
0, 0
0, 0
0, 0
0, 0
0, 0
0, 0
0, 0
0, 0
0, 0
0, 0
#ENDOFDATA     end of spectrum data