File: host_upload/06-09-2024/ps_0852/dump3/ps__0852shot_2282.msa
#FORMAT      : EMSA/MAS spectral data file
#VERSION     : TC202v2.0 PIXL
#TITLE       : N/A
#DATE        :       Date in the format DD-MMM-YYYY, for example 07-JUL-2010
#TIME        :             The time of day at which the spectrum was recorded, in 24-hour format
#OWNER       : PIXL Flight Model       (PIXL will use this to indicate which instrument took the data.)
#NPOINTS     : 4096     Number of data points in the spectrum (This can be zero for configuration only files)
#NCOLUMNS    : 2     Number of data columns in the spectrum (This can be zero for configuration only files)
#XUNITS      : eV
#YUNITS      : COUNTS
#DATATYPE    : YY
#XPERCHAN    : 7.862, 7.881   eV per channel (separate by commas if more than one detector)
#OFFSET      : 18.5, -22.4         eV of first channel  (separate by commas if more than one detector
#SIGNALTYPE  : XRF
#YP_TEMP     : 2.107
#LIVETIME    : 8.56432, 8.5279   seconds (separate by commas if more than one detector)
#REALTIME    : 10, 10.0   seconds (separate by commas if more than one detector)
#SPECTRUM    : start of spectrum data
0, 0
0, 0
0, 0
0, 0
0, 0
0, 0
0, 0
0, 0
1, 0
0, 0
2, 2
50, 47
65, 51
1, 2
6, 3
82, 98
446, 420
110, 112
3, 3
0, 4
1, 3
4, 5
3, 2
3, 4
23, 23
19, 16
13, 16
12, 5
4, 1
4, 3
1, 1
0, 1
3, 3
17, 23
26, 33
5, 4
1, 3
5, 2
2, 3
5, 5
4, 3
7, 11
10, 11
13, 9
4, 2
9, 5
7, 5
4, 3
11, 9
44, 7
96, 6
43, 8
13, 3
49, 32
112, 58
44, 21
30, 23
499, 568
2196, 2230
1597, 1354
196, 139
18, 17
20, 13
111, 128
339, 368
210, 219
34, 16
12, 15
15, 16
11, 8
7, 4
2, 9
9, 11
10, 8
9, 4
8, 4
4, 0
5, 3
2, 7
8, 6
13, 2
33, 10
17, 4
8, 6
3, 3
3, 3
2, 2
3, 3
3, 3
0, 5
4, 2
2, 1
1, 1
1, 3
4, 3
1, 2
0, 3
1, 1
2, 0
4, 4
6, 4
6, 1
0, 1
4, 0
2, 2
2, 3
4, 1
3, 3
0, 4
4, 1
4, 5
3, 0
5, 3
0, 2
0, 1
4, 3
3, 5
1, 1
1, 1
2, 0
1, 3
1, 2
2, 3
1, 4
0, 2
0, 0
1, 1
2, 0
0, 2
1, 1
2, 1
1, 2
0, 1
1, 2
0, 1
1, 0
0, 1
0, 1
1, 0
0, 1
3, 1
1, 3
0, 0
0, 2
0, 0
0, 1
1, 0
0, 0
1, 0
1, 0
0, 1
0, 0
0, 0
1, 1
1, 0
0, 0
0, 0
1, 1
0, 0
0, 1
0, 1
0, 0
0, 0
2, 0
0, 0
0, 0
0, 0
0, 0
0, 1
0, 0
0, 1
0, 1
0, 2
0, 0
0, 0
0, 1
0, 0
2, 0
0, 0
0, 0
0, 1
0, 1
0, 0
0, 0
1, 1
0, 0
0, 0
1, 0
0, 0
0, 0
0, 0
0, 0
0, 0
0, 0
0, 0
0, 0
0, 0
0, 0
0, 0
1, 0
0, 0
0, 1
0, 0
0, 0
0, 0
0, 0
0, 0
0, 0
0, 0
0, 0
0, 0
0, 0
0, 0
0, 0
0, 0
0, 0
0, 0
0, 0
0, 0
0, 0
0, 0
0, 0
0, 0
0, 0
0, 0
0, 0
0, 0
0, 0
0, 0
0, 0
0, 0
0, 0
0, 0
0, 0
0, 0
0, 0
0, 0
0, 0
0, 0
0, 0
0, 0
0, 0
0, 0
0, 0
0, 0
0, 0
0, 0
0, 0
0, 0
0, 0
0, 0
0, 0
0, 0
0, 0
0, 0
0, 0
0, 0
0, 0
0, 0
0, 0
0, 0
0, 0
0, 0
0, 0
0, 0
0, 0
0, 0
0, 0
0, 0
0, 0
0, 0
0, 0
0, 0
0, 0
0, 0
0, 0
0, 0
0, 0
0, 0
0, 0
0, 0
0, 0
0, 0
0, 0
0, 0
0, 0
0, 0
0, 0
0, 0
0, 0
0, 0
0, 0
0, 0
0, 0
#ENDOFDATA     end of spectrum data