File: host_upload/06-09-2024/ps_0852/dump3/ps__0852shot_2426.msa
#FORMAT      : EMSA/MAS spectral data file
#VERSION     : TC202v2.0 PIXL
#TITLE       : N/A
#DATE        :       Date in the format DD-MMM-YYYY, for example 07-JUL-2010
#TIME        :             The time of day at which the spectrum was recorded, in 24-hour format
#OWNER       : PIXL Flight Model       (PIXL will use this to indicate which instrument took the data.)
#NPOINTS     : 4096     Number of data points in the spectrum (This can be zero for configuration only files)
#NCOLUMNS    : 2     Number of data columns in the spectrum (This can be zero for configuration only files)
#XUNITS      : eV
#YUNITS      : COUNTS
#DATATYPE    : YY
#XPERCHAN    : 7.862, 7.881   eV per channel (separate by commas if more than one detector)
#OFFSET      : 18.5, -22.4         eV of first channel  (separate by commas if more than one detector
#SIGNALTYPE  : XRF
#YP_TEMP     : 2.332
#LIVETIME    : 8.55229, 8.56278   seconds (separate by commas if more than one detector)
#REALTIME    : 10, 10.0   seconds (separate by commas if more than one detector)
#SPECTRUM    : start of spectrum data
0, 0
0, 0
0, 0
0, 0
0, 0
0, 0
0, 0
0, 0
0, 1
0, 4
1, 1
48, 44
72, 55
7, 8
1, 3
96, 96
428, 409
103, 91
3, 3
2, 1
2, 1
3, 5
2, 0
27, 12
55, 91
73, 121
27, 37
13, 19
1, 5
2, 3
1, 3
0, 1
5, 5
15, 12
11, 15
3, 2
5, 7
9, 3
6, 3
3, 2
6, 11
14, 30
16, 15
14, 10
9, 2
8, 3
7, 3
7, 20
24, 43
21, 37
15, 21
25, 22
42, 37
54, 54
62, 64
27, 25
32, 37
511, 637
2201, 2352
1566, 1386
209, 147
16, 22
17, 20
107, 118
347, 335
213, 180
45, 36
13, 44
26, 24
10, 4
0, 2
5, 4
7, 5
8, 6
9, 2
8, 10
10, 5
6, 5
3, 5
3, 9
6, 6
3, 3
5, 7
7, 2
6, 6
9, 0
1, 5
4, 2
4, 3
1, 2
1, 4
12, 4
4, 12
11, 8
11, 2
5, 4
6, 2
2, 8
3, 2
2, 6
3, 1
1, 6
0, 4
0, 7
1, 2
2, 1
2, 0
2, 3
3, 8
4, 6
2, 6
0, 1
1, 0
1, 4
4, 2
1, 1
3, 3
3, 3
2, 2
1, 0
2, 5
3, 5
4, 0
3, 3
2, 2
2, 1
1, 2
0, 3
1, 2
1, 2
0, 0
0, 1
2, 0
1, 0
2, 1
0, 0
1, 1
1, 1
0, 0
0, 1
0, 1
1, 1
0, 0
0, 0
0, 1
1, 1
0, 0
0, 0
3, 0
0, 0
0, 0
1, 2
0, 0
2, 0
0, 0
0, 0
0, 0
0, 0
1, 1
0, 0
0, 0
0, 0
0, 2
0, 0
1, 0
0, 0
0, 1
0, 0
0, 1
0, 0
1, 0
0, 0
0, 0
1, 1
0, 0
1, 0
0, 0
0, 0
0, 0
0, 0
0, 0
0, 0
0, 0
0, 0
0, 0
0, 0
0, 0
0, 0
0, 0
0, 0
0, 1
0, 0
0, 0
0, 0
0, 1
0, 0
0, 0
0, 0
0, 0
0, 0
0, 0
0, 0
0, 0
0, 0
0, 0
0, 0
0, 0
0, 0
0, 0
0, 0
0, 0
0, 0
0, 0
0, 0
0, 0
0, 0
0, 0
0, 0
0, 0
0, 0
0, 0
0, 0
0, 0
0, 0
0, 0
0, 0
0, 0
0, 0
0, 0
0, 0
0, 0
0, 0
0, 0
0, 0
0, 0
0, 0
0, 0
0, 0
0, 0
0, 0
0, 0
0, 0
0, 0
0, 0
0, 0
0, 0
0, 0
0, 0
0, 0
0, 0
0, 0
0, 0
0, 0
0, 0
0, 0
0, 0
0, 0
0, 0
0, 0
0, 0
0, 0
0, 0
0, 0
0, 0
0, 0
0, 0
0, 0
0, 0
0, 0
0, 0
0, 0
0, 0
0, 0
0, 0
0, 0
0, 0
0, 0
0, 0
0, 0
0, 0
0, 0
0, 0
0, 0
0, 0
0, 0
0, 0
0, 0
0, 0
0, 0
0, 0
0, 0
0, 0
0, 0
0, 0
#ENDOFDATA     end of spectrum data