File: host_upload/06-09-2024/ps_0852/dump3/ps__0852shot_2178.msa
#FORMAT      : EMSA/MAS spectral data file
#VERSION     : TC202v2.0 PIXL
#TITLE       : N/A
#DATE        :       Date in the format DD-MMM-YYYY, for example 07-JUL-2010
#TIME        :             The time of day at which the spectrum was recorded, in 24-hour format
#OWNER       : PIXL Flight Model       (PIXL will use this to indicate which instrument took the data.)
#NPOINTS     : 4096     Number of data points in the spectrum (This can be zero for configuration only files)
#NCOLUMNS    : 2     Number of data columns in the spectrum (This can be zero for configuration only files)
#XUNITS      : eV
#YUNITS      : COUNTS
#DATATYPE    : YY
#XPERCHAN    : 7.862, 7.881   eV per channel (separate by commas if more than one detector)
#OFFSET      : 18.5, -22.4         eV of first channel  (separate by commas if more than one detector
#SIGNALTYPE  : XRF
#YP_TEMP     : 2.428
#LIVETIME    : 8.56457, 8.55304   seconds (separate by commas if more than one detector)
#REALTIME    : 10, 10.0   seconds (separate by commas if more than one detector)
#SPECTRUM    : start of spectrum data
0, 0
0, 0
0, 0
0, 0
0, 0
0, 0
0, 0
0, 0
1, 0
1, 0
2, 1
45, 27
72, 25
6, 1
8, 1
110, 61
448, 266
123, 65
2, 3
3, 0
1, 3
9, 1
4, 5
9, 5
31, 18
27, 36
29, 16
17, 8
5, 10
3, 1
3, 4
9, 1
5, 2
7, 11
24, 11
12, 5
9, 6
4, 5
5, 11
6, 14
3, 2
10, 10
13, 8
14, 26
11, 35
8, 17
13, 9
11, 3
14, 7
42, 15
34, 7
10, 7
17, 8
51, 40
67, 47
36, 18
52, 39
618, 467
2469, 1791
1778, 1041
223, 103
23, 13
24, 16
121, 108
387, 253
246, 132
42, 18
12, 11
19, 5
9, 9
10, 3
5, 2
3, 5
5, 11
4, 10
7, 6
6, 8
9, 2
10, 4
7, 2
3, 4
6, 5
3, 5
6, 3
5, 6
4, 4
1, 2
7, 2
6, 3
2, 3
4, 2
3, 2
6, 2
4, 5
4, 3
4, 4
4, 2
1, 2
4, 1
3, 5
4, 3
5, 2
1, 1
2, 2
3, 2
4, 5
0, 3
1, 1
2, 3
1, 1
2, 0
1, 1
0, 0
6, 2
1, 1
1, 2
2, 2
7, 1
2, 2
2, 1
2, 2
2, 0
0, 2
1, 1
1, 0
1, 0
0, 1
0, 3
3, 1
3, 1
1, 0
0, 1
1, 0
1, 0
2, 1
0, 0
0, 1
1, 0
1, 0
0, 0
0, 1
1, 1
0, 0
2, 0
0, 0
0, 1
1, 1
1, 0
2, 0
0, 0
1, 1
1, 1
0, 1
1, 0
1, 0
0, 0
0, 1
0, 0
0, 0
0, 1
1, 0
0, 0
0, 0
0, 0
1, 0
0, 0
0, 0
1, 0
0, 1
1, 0
1, 0
0, 0
0, 1
1, 0
0, 0
0, 1
0, 0
0, 0
1, 0
0, 0
0, 0
0, 0
0, 1
1, 1
0, 1
0, 1
0, 0
0, 0
0, 0
0, 0
0, 0
0, 0
0, 0
0, 0
0, 0
0, 0
0, 0
0, 0
0, 0
0, 0
0, 0
1, 0
0, 0
0, 0
0, 0
0, 0
0, 0
0, 0
0, 0
0, 0
0, 0
0, 0
0, 0
0, 0
0, 0
0, 0
0, 0
0, 0
0, 0
0, 0
0, 0
0, 0
0, 0
0, 0
0, 0
0, 0
0, 0
0, 0
0, 0
0, 0
0, 0
0, 0
0, 0
0, 0
0, 0
0, 0
0, 0
0, 0
0, 0
0, 0
0, 0
0, 0
0, 0
0, 0
0, 0
0, 0
0, 0
0, 0
0, 0
0, 0
0, 0
0, 0
0, 0
0, 0
0, 0
0, 0
0, 0
0, 0
0, 0
0, 0
0, 0
0, 0
0, 0
0, 0
0, 0
0, 0
0, 0
0, 0
0, 0
0, 0
0, 0
0, 0
0, 0
0, 0
0, 0
0, 0
0, 0
0, 0
0, 0
0, 0
0, 0
0, 0
0, 0
0, 0
0, 0
0, 0
0, 0
0, 0
0, 0
0, 0
0, 0
0, 0
0, 0
0, 0
#ENDOFDATA     end of spectrum data