File: host_upload/06-09-2024/ps_0852/dump3/ps__0852shot_2229.msa
#FORMAT      : EMSA/MAS spectral data file
#VERSION     : TC202v2.0 PIXL
#TITLE       : N/A
#DATE        :       Date in the format DD-MMM-YYYY, for example 07-JUL-2010
#TIME        :             The time of day at which the spectrum was recorded, in 24-hour format
#OWNER       : PIXL Flight Model       (PIXL will use this to indicate which instrument took the data.)
#NPOINTS     : 4096     Number of data points in the spectrum (This can be zero for configuration only files)
#NCOLUMNS    : 2     Number of data columns in the spectrum (This can be zero for configuration only files)
#XUNITS      : eV
#YUNITS      : COUNTS
#DATATYPE    : YY
#XPERCHAN    : 7.862, 7.881   eV per channel (separate by commas if more than one detector)
#OFFSET      : 18.5, -22.4         eV of first channel  (separate by commas if more than one detector
#SIGNALTYPE  : XRF
#YP_TEMP     : 2.3
#LIVETIME    : 8.55781, 8.37273   seconds (separate by commas if more than one detector)
#REALTIME    : 10, 10.0   seconds (separate by commas if more than one detector)
#SPECTRUM    : start of spectrum data
0, 0
0, 0
0, 0
0, 0
0, 0
0, 0
0, 0
0, 0
0, 20
2, 45
2, 5
48, 50
75, 52
7, 8
6, 4
127, 88
468, 381
116, 78
7, 6
0, 1
0, 2
3, 0
4, 5
9, 90
14, 1672
27, 2358
16, 241
14, 13
5, 2
3, 2
7, 1
3, 3
0, 0
12, 10
19, 17
6, 8
6, 5
9, 8
2, 15
6, 20
3, 10
8, 6
17, 7
42, 7
90, 2
43, 6
5, 13
7, 10
8, 42
14, 91
15, 32
10, 10
8, 13
35, 34
70, 43
21, 28
38, 40
487, 561
2302, 2137
1668, 1263
197, 117
18, 15
19, 39
101, 145
372, 345
254, 174
33, 20
12, 5
15, 13
7, 7
6, 3
3, 7
17, 32
12, 45
9, 30
7, 11
7, 4
3, 3
3, 3
3, 4
7, 0
7, 3
2, 8
2, 6
3, 2
3, 6
6, 6
6, 3
3, 5
4, 1
2, 0
2, 1
3, 5
5, 2
6, 2
21, 1
8, 4
3, 4
3, 6
1, 2
4, 2
3, 1
3, 0
5, 3
1, 1
0, 1
1, 1
2, 1
4, 5
8, 1
4, 2
4, 3
1, 2
2, 0
3, 0
0, 3
10, 4
6, 1
4, 1
2, 0
2, 1
1, 1
1, 2
4, 1
0, 1
0, 0
1, 1
0, 1
1, 2
0, 1
1, 1
3, 1
1, 1
1, 1
1, 0
0, 0
3, 1
0, 1
1, 3
0, 0
0, 0
0, 3
1, 0
0, 0
0, 0
1, 0
0, 1
0, 0
1, 0
0, 0
0, 0
0, 0
0, 1
0, 0
0, 0
1, 2
1, 0
0, 0
0, 0
0, 0
0, 0
0, 2
0, 0
1, 0
0, 0
0, 0
0, 1
0, 0
0, 0
0, 0
0, 0
0, 0
0, 0
0, 0
0, 0
0, 0
0, 0
0, 0
0, 0
0, 0
0, 1
0, 1
0, 0
0, 0
0, 0
0, 0
0, 0
0, 0
0, 0
0, 0
0, 0
0, 0
0, 1
0, 0
0, 0
0, 0
0, 0
0, 0
0, 0
0, 0
0, 0
0, 0
0, 0
0, 0
0, 0
0, 0
1, 1
0, 0
0, 0
0, 0
0, 0
0, 0
0, 0
0, 0
0, 0
0, 0
0, 0
0, 0
0, 0
0, 0
0, 0
0, 0
0, 0
0, 0
0, 0
0, 0
0, 0
0, 0
0, 0
0, 0
0, 0
0, 0
0, 0
0, 0
0, 0
0, 0
0, 0
0, 0
0, 0
0, 0
0, 0
0, 0
0, 0
0, 0
0, 0
0, 0
0, 0
0, 0
0, 0
0, 0
0, 0
0, 0
0, 0
0, 0
0, 0
0, 0
0, 0
0, 0
0, 0
0, 0
0, 0
0, 0
0, 0
0, 0
0, 0
0, 0
0, 0
0, 0
0, 0
0, 0
0, 0
0, 0
0, 0
0, 0
0, 0
0, 0
0, 0
0, 0
0, 0
0, 0
0, 0
0, 0
0, 0
0, 0
0, 0
0, 0
0, 0
0, 0
0, 0
0, 0
0, 0
0, 0
0, 0
0, 0
#ENDOFDATA     end of spectrum data