File: host_upload/06-09-2024/ps_0852/dump3/ps__0852shot_2063.msa
#FORMAT      : EMSA/MAS spectral data file
#VERSION     : TC202v2.0 PIXL
#TITLE       : N/A
#DATE        :       Date in the format DD-MMM-YYYY, for example 07-JUL-2010
#TIME        :             The time of day at which the spectrum was recorded, in 24-hour format
#OWNER       : PIXL Flight Model       (PIXL will use this to indicate which instrument took the data.)
#NPOINTS     : 4096     Number of data points in the spectrum (This can be zero for configuration only files)
#NCOLUMNS    : 2     Number of data columns in the spectrum (This can be zero for configuration only files)
#XUNITS      : eV
#YUNITS      : COUNTS
#DATATYPE    : YY
#XPERCHAN    : 7.862, 7.881   eV per channel (separate by commas if more than one detector)
#OFFSET      : 18.5, -22.4         eV of first channel  (separate by commas if more than one detector
#SIGNALTYPE  : XRF
#YP_TEMP     : 2.428
#LIVETIME    : 8.54833, 8.56402   seconds (separate by commas if more than one detector)
#REALTIME    : 10, 10.0   seconds (separate by commas if more than one detector)
#SPECTRUM    : start of spectrum data
0, 0
0, 0
0, 0
0, 0
0, 0
0, 0
0, 0
0, 0
0, 1
1, 0
2, 3
53, 44
69, 61
4, 8
4, 9
85, 96
444, 411
108, 105
4, 4
1, 5
3, 2
3, 2
4, 2
10, 6
18, 19
17, 20
16, 24
12, 12
4, 0
3, 2
1, 1
4, 2
3, 0
18, 8
14, 15
0, 2
4, 3
8, 1
7, 5
4, 6
6, 3
7, 6
9, 13
8, 12
14, 4
54, 6
44, 5
10, 7
11, 31
7, 75
9, 43
6, 11
11, 13
37, 41
62, 64
21, 25
32, 43
479, 583
2066, 2334
1579, 1514
245, 199
17, 12
29, 19
112, 128
299, 314
210, 176
32, 26
26, 9
65, 16
57, 13
11, 5
3, 1
2, 0
4, 3
9, 2
3, 3
4, 3
4, 3
5, 1
5, 2
6, 9
6, 4
5, 4
7, 3
8, 4
2, 2
4, 5
4, 1
2, 8
2, 8
5, 1
4, 3
6, 2
5, 3
4, 4
2, 4
1, 3
2, 4
1, 4
2, 6
2, 4
1, 5
1, 2
2, 2
0, 1
1, 0
2, 2
3, 3
3, 4
1, 0
2, 0
3, 2
1, 0
0, 0
5, 2
2, 1
5, 3
4, 7
2, 3
0, 4
5, 0
2, 0
4, 2
1, 0
2, 0
1, 0
1, 1
0, 2
0, 1
0, 1
1, 2
2, 0
0, 1
1, 0
1, 0
0, 1
0, 2
0, 2
0, 2
1, 2
0, 1
1, 0
2, 0
0, 0
0, 1
0, 0
0, 0
1, 1
2, 0
0, 0
1, 0
0, 1
0, 1
0, 0
0, 1
1, 0
0, 0
1, 0
0, 0
1, 0
0, 1
0, 0
1, 0
1, 0
1, 0
0, 0
0, 1
0, 0
0, 1
0, 0
1, 0
0, 0
0, 0
0, 0
0, 0
0, 0
0, 1
0, 1
0, 1
0, 0
0, 0
0, 0
0, 0
0, 0
1, 0
0, 0
0, 0
0, 0
0, 0
0, 0
0, 0
0, 0
0, 0
0, 1
0, 1
0, 0
0, 0
0, 0
0, 0
0, 0
1, 0
0, 0
0, 0
0, 0
0, 0
0, 0
1, 0
0, 0
0, 0
0, 0
0, 0
0, 0
0, 0
0, 0
0, 0
0, 0
0, 0
0, 0
0, 0
0, 0
0, 0
0, 0
0, 0
0, 0
0, 0
0, 0
0, 0
0, 0
0, 0
0, 0
0, 0
0, 0
0, 0
0, 0
0, 0
0, 0
0, 0
0, 0
0, 0
0, 0
0, 0
0, 0
0, 0
0, 0
0, 0
0, 0
0, 0
0, 0
0, 0
0, 0
0, 0
0, 0
0, 0
0, 0
0, 0
0, 0
0, 0
0, 0
0, 0
0, 0
0, 0
0, 0
0, 0
0, 0
0, 0
0, 0
0, 0
0, 0
0, 0
0, 0
0, 0
0, 0
0, 0
0, 0
0, 0
0, 0
0, 0
0, 0
0, 0
0, 0
0, 0
0, 0
0, 0
0, 0
0, 0
0, 0
0, 0
0, 0
0, 0
0, 0
0, 0
0, 0
0, 0
0, 0
#ENDOFDATA     end of spectrum data