File: host_upload/06-09-2024/ps_0852/dump3/ps__0852shot_2288.msa
#FORMAT      : EMSA/MAS spectral data file
#VERSION     : TC202v2.0 PIXL
#TITLE       : N/A
#DATE        :       Date in the format DD-MMM-YYYY, for example 07-JUL-2010
#TIME        :             The time of day at which the spectrum was recorded, in 24-hour format
#OWNER       : PIXL Flight Model       (PIXL will use this to indicate which instrument took the data.)
#NPOINTS     : 4096     Number of data points in the spectrum (This can be zero for configuration only files)
#NCOLUMNS    : 2     Number of data columns in the spectrum (This can be zero for configuration only files)
#XUNITS      : eV
#YUNITS      : COUNTS
#DATATYPE    : YY
#XPERCHAN    : 7.862, 7.881   eV per channel (separate by commas if more than one detector)
#OFFSET      : 18.5, -22.4         eV of first channel  (separate by commas if more than one detector
#SIGNALTYPE  : XRF
#YP_TEMP     : 2.46
#LIVETIME    : 8.57486, 8.56363   seconds (separate by commas if more than one detector)
#REALTIME    : 10, 10.0   seconds (separate by commas if more than one detector)
#SPECTRUM    : start of spectrum data
0, 0
0, 0
0, 0
0, 0
0, 0
0, 0
0, 0
0, 0
4, 2
2, 5
0, 1
27, 25
31, 34
5, 9
4, 4
58, 45
241, 246
55, 52
7, 9
3, 4
83, 98
471, 543
189, 207
39, 59
89, 121
80, 97
35, 41
30, 27
5, 13
7, 8
8, 12
4, 5
6, 4
22, 20
29, 31
5, 12
10, 5
10, 7
7, 6
1, 4
3, 12
11, 8
20, 15
23, 16
13, 10
6, 21
6, 18
11, 9
10, 9
21, 22
47, 39
35, 24
13, 12
32, 48
44, 55
24, 20
25, 36
460, 609
2123, 2453
1451, 1439
200, 160
20, 19
17, 16
89, 107
312, 361
221, 192
26, 27
12, 11
23, 16
42, 10
39, 0
12, 8
3, 3
8, 4
4, 2
8, 4
7, 2
3, 5
5, 4
5, 9
5, 3
7, 1
3, 4
4, 3
6, 10
5, 3
5, 8
3, 7
8, 3
2, 10
1, 17
5, 11
10, 8
2, 2
0, 4
5, 4
3, 0
3, 3
2, 5
3, 4
6, 3
6, 5
1, 2
2, 0
2, 1
2, 4
1, 2
0, 0
3, 1
1, 0
1, 4
2, 0
6, 1
3, 2
1, 1
5, 2
1, 6
6, 3
6, 1
2, 1
1, 4
3, 2
4, 2
0, 0
0, 2
1, 1
2, 4
2, 3
0, 0
0, 1
0, 0
1, 2
2, 0
0, 2
2, 0
0, 0
0, 0
1, 2
0, 0
3, 1
0, 1
0, 1
0, 0
1, 1
0, 0
1, 0
2, 1
1, 0
0, 1
1, 0
0, 0
0, 0
0, 0
0, 1
0, 0
1, 2
1, 0
0, 1
0, 0
0, 0
1, 1
1, 0
1, 0
1, 0
0, 0
0, 1
0, 1
0, 0
0, 1
0, 0
1, 0
0, 0
1, 1
1, 0
0, 0
0, 0
0, 1
0, 0
0, 0
1, 0
0, 0
0, 0
0, 0
0, 0
0, 0
0, 0
0, 0
0, 0
0, 1
0, 0
0, 0
0, 0
0, 0
0, 0
0, 0
0, 0
0, 0
0, 0
0, 0
0, 0
0, 0
0, 1
0, 0
0, 0
0, 0
0, 0
0, 0
0, 0
0, 0
0, 0
0, 0
0, 0
0, 0
0, 0
0, 0
0, 0
0, 0
0, 0
0, 0
0, 0
0, 0
0, 0
0, 0
0, 0
0, 0
0, 0
0, 0
0, 0
0, 0
0, 0
0, 0
0, 0
0, 0
0, 0
0, 0
0, 0
0, 0
0, 0
0, 0
0, 0
0, 0
0, 0
0, 0
0, 0
0, 0
0, 0
0, 0
0, 0
0, 0
0, 0
0, 0
0, 0
0, 0
0, 0
0, 0
0, 0
0, 0
0, 0
0, 0
0, 0
0, 0
0, 0
0, 0
0, 0
0, 0
0, 0
0, 0
0, 0
0, 0
0, 0
0, 0
0, 0
0, 0
0, 0
0, 0
0, 0
0, 0
0, 0
0, 0
0, 0
0, 0
0, 0
0, 0
0, 0
0, 0
0, 0
0, 0
0, 0
0, 0
0, 0
0, 0
0, 0
0, 0
0, 0
#ENDOFDATA     end of spectrum data