File: host_upload/06-09-2024/ps_0852/dump3/ps__0852shot_2007.msa
#FORMAT      : EMSA/MAS spectral data file
#VERSION     : TC202v2.0 PIXL
#TITLE       : N/A
#DATE        :       Date in the format DD-MMM-YYYY, for example 07-JUL-2010
#TIME        :             The time of day at which the spectrum was recorded, in 24-hour format
#OWNER       : PIXL Flight Model       (PIXL will use this to indicate which instrument took the data.)
#NPOINTS     : 4096     Number of data points in the spectrum (This can be zero for configuration only files)
#NCOLUMNS    : 2     Number of data columns in the spectrum (This can be zero for configuration only files)
#XUNITS      : eV
#YUNITS      : COUNTS
#DATATYPE    : YY
#XPERCHAN    : 7.862, 7.881   eV per channel (separate by commas if more than one detector)
#OFFSET      : 18.5, -22.4         eV of first channel  (separate by commas if more than one detector
#SIGNALTYPE  : XRF
#YP_TEMP     : 2.364
#LIVETIME    : 8.56995, 8.55802   seconds (separate by commas if more than one detector)
#REALTIME    : 10, 10.0   seconds (separate by commas if more than one detector)
#SPECTRUM    : start of spectrum data
0, 0
0, 0
0, 0
0, 0
0, 0
0, 0
0, 0
0, 0
1, 3
2, 1
2, 0
35, 37
56, 61
6, 7
7, 12
83, 122
363, 459
91, 88
9, 10
8, 4
2, 2
5, 9
6, 2
10, 10
47, 58
45, 53
19, 26
13, 19
7, 4
5, 2
3, 5
4, 2
1, 2
19, 19
7, 19
4, 5
3, 6
10, 3
9, 8
16, 3
8, 5
15, 10
18, 18
14, 28
10, 27
15, 10
5, 16
11, 10
13, 6
18, 22
21, 20
48, 15
33, 6
52, 41
55, 55
19, 21
40, 37
412, 645
1904, 2363
1435, 1601
185, 180
16, 17
19, 32
88, 135
328, 360
198, 188
35, 25
9, 13
12, 15
15, 10
7, 4
6, 0
5, 6
2, 3
7, 5
9, 6
17, 5
10, 9
7, 13
6, 6
4, 8
3, 6
4, 4
3, 5
6, 6
2, 1
0, 3
1, 6
3, 4
2, 3
4, 1
4, 8
3, 6
4, 4
7, 8
4, 3
1, 1
1, 5
2, 5
4, 3
3, 0
2, 5
4, 0
2, 1
0, 4
2, 2
4, 5
2, 1
3, 2
0, 1
1, 0
1, 2
0, 2
2, 1
4, 3
1, 3
4, 5
3, 4
2, 7
4, 4
0, 1
3, 3
1, 2
1, 1
1, 0
1, 0
0, 2
1, 2
1, 1
0, 0
1, 5
3, 1
0, 2
2, 3
2, 2
0, 0
0, 0
0, 2
0, 0
0, 0
1, 0
0, 0
0, 0
0, 0
3, 0
2, 0
1, 0
2, 0
1, 0
0, 0
0, 0
1, 2
0, 0
0, 0
0, 0
0, 0
0, 0
0, 0
0, 1
0, 0
0, 0
1, 0
0, 0
0, 0
1, 0
0, 0
0, 0
1, 0
2, 0
0, 2
0, 0
0, 0
0, 0
0, 1
0, 0
0, 0
0, 0
0, 0
0, 0
0, 0
0, 0
1, 1
0, 0
0, 0
0, 0
0, 0
0, 0
0, 0
0, 0
0, 0
0, 0
0, 0
1, 0
0, 0
0, 0
0, 0
0, 1
0, 0
0, 0
0, 0
0, 0
0, 0
1, 0
0, 0
0, 0
0, 0
0, 0
0, 0
0, 0
0, 0
0, 0
0, 0
0, 0
0, 0
0, 0
0, 0
0, 0
0, 0
0, 0
0, 0
0, 0
0, 0
0, 0
0, 1
0, 0
0, 0
0, 0
0, 0
0, 0
0, 0
1, 0
0, 0
0, 0
0, 0
0, 0
0, 0
0, 0
0, 0
0, 0
0, 0
0, 0
0, 0
0, 0
0, 0
0, 0
0, 0
0, 0
0, 0
0, 0
0, 0
0, 0
0, 0
0, 0
0, 0
0, 0
0, 0
0, 0
0, 0
0, 0
0, 0
0, 0
0, 0
0, 0
0, 0
0, 0
0, 0
0, 0
0, 0
0, 0
0, 0
0, 0
0, 0
0, 0
0, 0
0, 0
0, 0
0, 0
0, 0
0, 0
0, 0
0, 0
0, 0
0, 0
0, 0
0, 0
0, 0
0, 0
0, 0
0, 0
0, 0
0, 0
0, 0
0, 0
0, 0
#ENDOFDATA     end of spectrum data