File: host_upload/06-09-2024/ps_0852/dump3/ps__0852shot_2123.msa
#FORMAT      : EMSA/MAS spectral data file
#VERSION     : TC202v2.0 PIXL
#TITLE       : N/A
#DATE        :       Date in the format DD-MMM-YYYY, for example 07-JUL-2010
#TIME        :             The time of day at which the spectrum was recorded, in 24-hour format
#OWNER       : PIXL Flight Model       (PIXL will use this to indicate which instrument took the data.)
#NPOINTS     : 4096     Number of data points in the spectrum (This can be zero for configuration only files)
#NCOLUMNS    : 2     Number of data columns in the spectrum (This can be zero for configuration only files)
#XUNITS      : eV
#YUNITS      : COUNTS
#DATATYPE    : YY
#XPERCHAN    : 7.862, 7.881   eV per channel (separate by commas if more than one detector)
#OFFSET      : 18.5, -22.4         eV of first channel  (separate by commas if more than one detector
#SIGNALTYPE  : XRF
#YP_TEMP     : 2.716
#LIVETIME    : 8.54778, 8.36899   seconds (separate by commas if more than one detector)
#REALTIME    : 10, 10.0   seconds (separate by commas if more than one detector)
#SPECTRUM    : start of spectrum data
0, 0
0, 0
0, 0
0, 0
0, 0
0, 0
0, 0
0, 0
1, 1
2, 1
1, 4
36, 40
51, 67
5, 5
3, 3
85, 97
458, 468
113, 92
5, 6
1, 1
4, 2
1, 8
4, 3
8, 7
38, 45
37, 41
24, 31
15, 13
6, 5
5, 1
1, 3
2, 2
4, 5
56, 57
75, 94
13, 24
14, 16
13, 20
3, 12
2, 12
13, 6
15, 14
20, 23
18, 15
8, 30
9, 18
6, 5
7, 7
9, 9
28, 24
18, 26
11, 9
11, 12
40, 51
67, 59
21, 19
38, 40
451, 587
1812, 2287
1401, 1325
205, 170
16, 22
19, 21
77, 109
284, 369
180, 222
35, 24
5, 12
17, 13
12, 14
5, 4
1, 6
1, 5
6, 14
5, 6
15, 7
6, 6
4, 3
4, 7
3, 7
2, 4
6, 5
6, 8
1, 6
3, 8
5, 5
2, 6
4, 2
8, 10
6, 3
5, 4
3, 1
3, 3
1, 3
4, 1
1, 4
2, 0
3, 3
0, 4
2, 6
3, 2
3, 1
2, 0
2, 5
2, 7
2, 1
3, 0
2, 2
2, 3
1, 5
3, 1
3, 6
1, 3
2, 2
5, 2
1, 5
1, 4
3, 3
0, 3
2, 2
4, 2
1, 3
2, 2
2, 2
0, 1
0, 1
1, 3
1, 0
3, 0
3, 1
3, 1
1, 0
1, 0
1, 1
0, 0
0, 1
0, 2
0, 0
0, 0
1, 0
1, 0
0, 0
0, 0
0, 0
0, 0
1, 0
1, 0
0, 0
0, 1
0, 2
0, 0
0, 0
0, 0
1, 0
1, 0
2, 0
0, 1
0, 0
0, 1
0, 0
0, 0
0, 0
0, 3
0, 0
0, 0
0, 0
2, 0
0, 0
1, 0
1, 0
0, 1
0, 0
0, 0
1, 0
1, 1
0, 0
0, 0
0, 0
0, 0
0, 0
0, 0
0, 0
0, 0
0, 0
0, 0
0, 0
0, 0
0, 0
0, 0
0, 0
0, 0
0, 0
0, 0
0, 0
0, 1
0, 0
0, 0
0, 0
0, 0
0, 0
0, 0
0, 0
0, 0
0, 0
0, 0
0, 0
0, 0
0, 0
0, 0
0, 0
0, 0
0, 0
0, 0
0, 0
0, 0
0, 0
0, 0
0, 0
0, 0
0, 0
0, 0
0, 0
0, 0
0, 0
0, 0
0, 0
0, 0
0, 0
0, 0
0, 0
0, 0
0, 0
0, 0
0, 0
0, 0
0, 0
0, 0
0, 0
0, 0
0, 0
0, 0
0, 0
0, 0
0, 0
0, 0
0, 0
0, 0
0, 0
0, 0
0, 0
0, 0
0, 0
0, 0
0, 0
0, 0
0, 0
0, 0
0, 0
0, 0
0, 0
0, 0
0, 0
0, 0
0, 0
0, 0
0, 0
0, 0
0, 0
0, 0
0, 0
0, 0
0, 0
0, 0
0, 0
0, 0
0, 0
0, 0
0, 0
0, 0
0, 0
0, 0
0, 0
0, 0
0, 0
0, 0
0, 0
0, 0
0, 0
0, 0
0, 0
0, 0
0, 0
0, 0
0, 0
#ENDOFDATA     end of spectrum data