File: host_upload/06-09-2024/ps_0852/dump3/ps__0852shot_2573.msa
#FORMAT      : EMSA/MAS spectral data file
#VERSION     : TC202v2.0 PIXL
#TITLE       : N/A
#DATE        :       Date in the format DD-MMM-YYYY, for example 07-JUL-2010
#TIME        :             The time of day at which the spectrum was recorded, in 24-hour format
#OWNER       : PIXL Flight Model       (PIXL will use this to indicate which instrument took the data.)
#NPOINTS     : 4096     Number of data points in the spectrum (This can be zero for configuration only files)
#NCOLUMNS    : 2     Number of data columns in the spectrum (This can be zero for configuration only files)
#XUNITS      : eV
#YUNITS      : COUNTS
#DATATYPE    : YY
#XPERCHAN    : 7.862, 7.881   eV per channel (separate by commas if more than one detector)
#OFFSET      : 18.5, -22.4         eV of first channel  (separate by commas if more than one detector
#SIGNALTYPE  : XRF
#YP_TEMP     : 2.332
#LIVETIME    : 8.55066, 8.55898   seconds (separate by commas if more than one detector)
#REALTIME    : 10, 10.0   seconds (separate by commas if more than one detector)
#SPECTRUM    : start of spectrum data
0, 0
0, 0
0, 0
0, 0
0, 0
0, 0
0, 0
0, 0
1, 1
1, 0
0, 2
42, 41
45, 64
7, 3
4, 4
96, 108
461, 474
87, 93
7, 0
0, 2
5, 1
5, 3
5, 6
14, 13
53, 75
42, 57
24, 37
10, 8
6, 4
0, 1
0, 3
6, 1
4, 0
7, 11
14, 18
5, 5
2, 3
7, 4
8, 6
19, 5
9, 6
8, 14
9, 15
12, 8
7, 4
3, 3
6, 8
9, 40
6, 67
14, 31
17, 14
10, 9
4, 7
54, 39
59, 56
17, 16
43, 37
461, 634
2265, 2448
1643, 1547
174, 135
15, 26
24, 23
109, 117
330, 377
225, 172
26, 29
10, 7
15, 14
12, 8
3, 2
5, 5
3, 19
1, 12
4, 9
3, 6
5, 3
1, 6
6, 5
7, 3
2, 4
4, 2
2, 4
6, 16
1, 21
3, 19
5, 7
3, 7
4, 4
5, 2
13, 6
25, 3
5, 1
4, 3
4, 2
3, 2
3, 10
0, 2
1, 3
1, 0
1, 1
1, 1
2, 2
2, 2
3, 2
4, 0
1, 2
2, 4
2, 7
0, 1
0, 4
6, 1
2, 2
5, 0
2, 1
4, 4
4, 5
5, 3
2, 2
2, 1
0, 1
0, 5
2, 2
1, 2
1, 2
0, 1
0, 2
3, 1
0, 0
1, 1
1, 2
1, 2
0, 2
0, 1
3, 2
2, 2
0, 0
0, 0
0, 0
0, 0
1, 0
0, 0
0, 2
0, 0
1, 3
0, 1
1, 0
1, 0
1, 0
1, 1
0, 1
1, 0
0, 2
1, 0
1, 0
1, 0
0, 1
0, 1
0, 1
0, 0
0, 0
0, 0
0, 0
0, 0
0, 0
0, 0
1, 0
0, 0
0, 0
1, 1
0, 1
0, 2
0, 1
0, 0
0, 0
0, 0
1, 0
0, 0
0, 1
0, 0
0, 0
0, 0
0, 0
0, 0
0, 0
0, 0
0, 0
0, 0
0, 0
0, 0
0, 0
0, 0
0, 0
0, 0
0, 0
0, 0
0, 0
0, 1
0, 0
0, 0
0, 0
0, 0
0, 0
0, 0
0, 0
0, 0
0, 0
0, 0
0, 0
0, 0
0, 0
0, 0
0, 0
0, 0
0, 0
0, 0
0, 0
0, 0
0, 0
0, 0
0, 0
0, 0
0, 0
0, 0
0, 0
0, 0
0, 0
0, 0
0, 0
0, 0
0, 0
0, 0
0, 0
0, 0
0, 0
0, 0
0, 0
0, 0
0, 0
0, 0
0, 0
0, 0
0, 0
0, 0
0, 0
0, 0
0, 0
0, 0
0, 0
0, 0
0, 0
0, 0
0, 0
0, 0
0, 0
0, 0
0, 0
0, 0
0, 0
0, 0
0, 0
0, 0
0, 0
0, 0
0, 0
0, 0
0, 0
0, 0
0, 0
0, 0
0, 0
0, 0
0, 0
0, 0
0, 0
0, 0
0, 0
0, 0
0, 0
0, 0
0, 0
0, 0
0, 0
0, 0
0, 0
0, 0
0, 0
0, 0
0, 0
0, 0
0, 0
0, 0
0, 0
0, 0
#ENDOFDATA     end of spectrum data