File: host_upload/06-09-2024/ps_0852/dump3/ps__0852shot_2473.msa
#FORMAT      : EMSA/MAS spectral data file
#VERSION     : TC202v2.0 PIXL
#TITLE       : N/A
#DATE        :       Date in the format DD-MMM-YYYY, for example 07-JUL-2010
#TIME        :             The time of day at which the spectrum was recorded, in 24-hour format
#OWNER       : PIXL Flight Model       (PIXL will use this to indicate which instrument took the data.)
#NPOINTS     : 4096     Number of data points in the spectrum (This can be zero for configuration only files)
#NCOLUMNS    : 2     Number of data columns in the spectrum (This can be zero for configuration only files)
#XUNITS      : eV
#YUNITS      : COUNTS
#DATATYPE    : YY
#XPERCHAN    : 7.862, 7.881   eV per channel (separate by commas if more than one detector)
#OFFSET      : 18.5, -22.4         eV of first channel  (separate by commas if more than one detector
#SIGNALTYPE  : XRF
#YP_TEMP     : 2.267
#LIVETIME    : 8.54138, 8.35384   seconds (separate by commas if more than one detector)
#REALTIME    : 10, 10.0   seconds (separate by commas if more than one detector)
#SPECTRUM    : start of spectrum data
0, 0
0, 0
0, 0
0, 0
0, 0
0, 0
0, 0
0, 0
1, 0
1, 0
3, 2
48, 42
83, 47
5, 5
7, 5
89, 83
454, 378
108, 87
7, 4
3, 1
29, 16
114, 121
49, 35
19, 13
36, 28
57, 27
24, 14
12, 10
3, 5
9, 6
4, 3
2, 2
4, 1
7, 9
16, 9
8, 7
10, 8
7, 5
8, 20
3, 12
2, 5
12, 6
15, 11
10, 32
11, 18
10, 4
4, 11
5, 6
7, 12
18, 14
12, 13
11, 19
12, 44
45, 57
54, 66
37, 21
94, 39
508, 550
2245, 2126
1602, 1234
209, 133
27, 17
26, 24
103, 106
337, 310
227, 190
28, 28
8, 10
14, 11
8, 7
4, 2
4, 2
4, 5
10, 7
10, 6
8, 7
24, 4
40, 3
19, 5
12, 2
5, 4
3, 3
2, 3
7, 3
4, 2
0, 3
5, 11
2, 4
3, 2
5, 5
7, 3
5, 4
1, 1
8, 1
5, 1
5, 2
3, 5
4, 3
2, 0
4, 0
2, 3
3, 2
1, 2
1, 5
4, 1
3, 1
3, 5
3, 1
3, 2
1, 2
7, 0
4, 5
2, 4
2, 2
2, 2
2, 1
3, 2
6, 5
0, 2
7, 3
0, 3
2, 1
5, 3
1, 7
5, 0
0, 1
0, 0
2, 2
0, 0
1, 1
1, 2
1, 0
1, 0
1, 0
1, 0
3, 0
2, 2
0, 0
0, 1
1, 0
0, 2
1, 0
0, 1
1, 0
1, 0
0, 1
1, 0
0, 1
0, 0
1, 0
2, 0
0, 0
0, 0
1, 0
1, 0
0, 1
1, 1
0, 0
0, 0
2, 1
0, 0
0, 0
0, 0
1, 1
0, 0
1, 0
0, 1
0, 0
0, 0
0, 1
0, 0
1, 2
0, 1
2, 0
0, 0
0, 0
0, 0
0, 0
1, 0
0, 0
0, 0
0, 0
0, 0
0, 0
0, 0
0, 0
0, 0
0, 0
0, 0
0, 0
0, 1
0, 1
0, 0
0, 0
0, 0
0, 0
0, 0
0, 0
0, 0
0, 0
0, 0
0, 0
0, 0
0, 0
0, 0
0, 0
0, 0
0, 0
0, 0
0, 0
0, 0
0, 0
0, 0
0, 0
0, 0
0, 0
0, 0
0, 0
0, 0
0, 0
0, 0
0, 0
0, 0
0, 0
0, 0
0, 0
0, 0
0, 0
0, 0
0, 0
0, 0
0, 0
0, 0
0, 0
0, 0
0, 0
0, 0
0, 0
0, 0
0, 0
0, 0
0, 0
0, 0
0, 0
0, 0
0, 0
0, 0
0, 0
0, 0
0, 0
0, 0
0, 0
0, 0
0, 0
0, 0
0, 0
0, 0
0, 0
0, 0
0, 0
0, 0
0, 0
0, 0
0, 0
0, 0
0, 0
0, 0
0, 0
0, 0
0, 0
0, 0
0, 0
0, 0
0, 0
0, 0
0, 0
0, 0
0, 0
0, 0
0, 0
0, 0
0, 0
0, 0
0, 0
0, 0
0, 0
0, 0
0, 0
0, 0
0, 0
0, 0
0, 0
0, 0
0, 0
#ENDOFDATA     end of spectrum data