File: host_upload/06-09-2024/ps_0852/dump3/ps__0852shot_2214.msa
#FORMAT      : EMSA/MAS spectral data file
#VERSION     : TC202v2.0 PIXL
#TITLE       : N/A
#DATE        :       Date in the format DD-MMM-YYYY, for example 07-JUL-2010
#TIME        :             The time of day at which the spectrum was recorded, in 24-hour format
#OWNER       : PIXL Flight Model       (PIXL will use this to indicate which instrument took the data.)
#NPOINTS     : 4096     Number of data points in the spectrum (This can be zero for configuration only files)
#NCOLUMNS    : 2     Number of data columns in the spectrum (This can be zero for configuration only files)
#XUNITS      : eV
#YUNITS      : COUNTS
#DATATYPE    : YY
#XPERCHAN    : 7.862, 7.881   eV per channel (separate by commas if more than one detector)
#OFFSET      : 18.5, -22.4         eV of first channel  (separate by commas if more than one detector
#SIGNALTYPE  : XRF
#YP_TEMP     : 2.203
#LIVETIME    : 8.55375, 8.56478   seconds (separate by commas if more than one detector)
#REALTIME    : 10, 10.0   seconds (separate by commas if more than one detector)
#SPECTRUM    : start of spectrum data
0, 0
0, 0
0, 0
0, 0
0, 0
0, 0
0, 0
0, 0
1, 0
1, 2
5, 3
37, 39
77, 63
11, 7
3, 3
107, 85
442, 371
108, 121
3, 8
1, 3
2, 0
3, 6
3, 3
5, 12
28, 42
35, 32
21, 10
16, 9
3, 4
5, 2
2, 5
1, 6
4, 4
16, 20
18, 11
2, 3
2, 3
7, 4
6, 4
14, 2
10, 4
20, 9
13, 17
12, 16
6, 16
5, 32
3, 42
5, 12
7, 6
23, 13
17, 18
21, 16
30, 9
52, 44
70, 60
21, 19
34, 31
469, 574
2278, 2393
1710, 1346
232, 147
19, 13
26, 21
84, 98
320, 347
253, 198
41, 28
14, 15
13, 42
9, 41
9, 10
8, 2
13, 3
4, 3
7, 5
6, 3
9, 7
3, 12
6, 6
7, 7
6, 3
3, 7
4, 10
8, 11
2, 6
2, 3
5, 2
2, 5
1, 3
3, 5
3, 6
7, 6
6, 7
4, 9
3, 6
0, 3
0, 3
2, 1
2, 4
6, 5
4, 0
2, 1
3, 0
3, 2
0, 5
2, 2
1, 3
1, 0
2, 1
2, 2
0, 1
0, 1
3, 1
3, 2
1, 2
2, 2
2, 6
4, 1
3, 2
1, 4
1, 2
4, 0
3, 2
3, 3
1, 0
2, 3
2, 0
0, 2
1, 1
0, 2
0, 0
0, 1
0, 0
0, 2
1, 2
2, 0
1, 1
0, 1
0, 0
1, 1
2, 1
0, 0
1, 0
0, 1
1, 0
1, 1
0, 0
1, 0
0, 1
0, 0
2, 0
3, 1
0, 0
1, 0
1, 0
0, 0
0, 0
0, 0
1, 0
0, 0
1, 0
0, 0
0, 0
1, 1
0, 0
0, 0
0, 0
1, 0
1, 0
1, 0
0, 0
0, 0
0, 1
0, 0
0, 0
0, 0
0, 1
0, 0
0, 0
0, 0
0, 1
0, 0
0, 0
0, 0
1, 0
0, 0
0, 0
0, 0
0, 0
0, 0
0, 0
0, 0
0, 0
0, 0
0, 0
0, 0
0, 0
0, 0
0, 0
0, 0
0, 0
0, 0
0, 0
0, 0
0, 0
0, 0
0, 0
0, 1
0, 0
0, 0
0, 0
0, 0
0, 0
0, 1
0, 0
0, 0
0, 0
0, 0
0, 0
0, 0
0, 0
0, 0
0, 0
0, 0
0, 0
0, 0
0, 0
0, 0
0, 0
0, 0
0, 0
0, 0
0, 0
0, 0
0, 0
0, 0
0, 0
0, 0
0, 0
0, 0
0, 0
0, 0
0, 0
0, 0
0, 0
0, 0
0, 0
0, 0
0, 0
0, 0
0, 0
0, 0
0, 0
0, 0
0, 0
0, 0
0, 0
0, 0
0, 0
0, 0
0, 0
0, 0
0, 0
0, 0
0, 0
0, 0
0, 0
0, 0
0, 0
0, 0
0, 0
0, 0
0, 0
0, 0
0, 0
0, 0
0, 0
0, 0
0, 0
0, 0
0, 0
0, 0
0, 0
0, 0
0, 0
0, 0
0, 0
0, 0
0, 0
0, 0
0, 0
0, 0
0, 0
0, 0
#ENDOFDATA     end of spectrum data