File: host_upload/06-09-2024/ps_0852/dump3/ps__0852shot_2278.msa
#FORMAT      : EMSA/MAS spectral data file
#VERSION     : TC202v2.0 PIXL
#TITLE       : N/A
#DATE        :       Date in the format DD-MMM-YYYY, for example 07-JUL-2010
#TIME        :             The time of day at which the spectrum was recorded, in 24-hour format
#OWNER       : PIXL Flight Model       (PIXL will use this to indicate which instrument took the data.)
#NPOINTS     : 4096     Number of data points in the spectrum (This can be zero for configuration only files)
#NCOLUMNS    : 2     Number of data columns in the spectrum (This can be zero for configuration only files)
#XUNITS      : eV
#YUNITS      : COUNTS
#DATATYPE    : YY
#XPERCHAN    : 7.862, 7.881   eV per channel (separate by commas if more than one detector)
#OFFSET      : 18.5, -22.4         eV of first channel  (separate by commas if more than one detector
#SIGNALTYPE  : XRF
#YP_TEMP     : 2.396
#LIVETIME    : 8.56577, 8.56529   seconds (separate by commas if more than one detector)
#REALTIME    : 10, 10.0   seconds (separate by commas if more than one detector)
#SPECTRUM    : start of spectrum data
0, 0
0, 0
0, 0
0, 0
0, 0
0, 0
0, 0
0, 0
2, 1
1, 1
5, 2
40, 62
49, 56
4, 6
2, 3
88, 117
404, 472
85, 121
5, 6
1, 3
6, 18
44, 102
20, 25
7, 19
46, 45
38, 48
18, 24
12, 9
3, 9
1, 4
3, 1
7, 3
11, 3
23, 36
29, 75
6, 52
3, 27
13, 9
2, 6
2, 0
17, 5
39, 16
24, 9
11, 13
11, 7
11, 15
3, 31
4, 16
5, 12
14, 56
17, 39
11, 61
8, 44
29, 59
63, 54
30, 23
28, 38
448, 592
1903, 2366
1401, 1463
188, 130
22, 16
34, 25
129, 105
295, 362
210, 212
37, 30
9, 14
18, 13
8, 11
3, 15
3, 4
6, 11
6, 10
4, 5
2, 10
0, 4
11, 8
5, 5
5, 7
4, 1
2, 3
6, 8
4, 10
6, 14
15, 8
9, 11
15, 0
8, 5
5, 5
2, 6
4, 12
2, 8
2, 4
3, 2
4, 4
1, 5
3, 3
3, 5
2, 4
5, 6
1, 1
4, 5
2, 0
3, 5
3, 1
0, 4
1, 5
2, 3
1, 3
2, 2
4, 1
2, 0
2, 2
1, 2
3, 4
2, 3
4, 1
1, 0
1, 0
3, 1
2, 3
2, 1
1, 3
0, 0
0, 2
5, 4
1, 1
1, 1
2, 1
0, 2
1, 0
1, 0
1, 0
0, 0
3, 0
1, 1
1, 0
1, 1
1, 1
0, 1
2, 1
0, 0
0, 3
0, 1
0, 0
0, 0
0, 0
0, 0
0, 0
0, 0
0, 0
0, 1
1, 1
0, 0
0, 0
0, 0
1, 1
0, 0
0, 1
0, 0
0, 0
0, 0
0, 1
1, 1
0, 0
0, 0
0, 0
1, 1
0, 0
0, 1
1, 0
0, 0
0, 0
0, 0
0, 0
0, 0
0, 0
0, 0
0, 0
0, 0
0, 0
0, 0
0, 0
0, 0
1, 0
0, 0
0, 0
0, 0
0, 0
0, 0
0, 0
0, 0
0, 0
1, 0
0, 1
0, 0
0, 0
0, 0
0, 0
0, 0
0, 0
0, 0
0, 0
0, 0
0, 0
0, 0
0, 0
0, 1
0, 0
0, 0
0, 0
0, 0
0, 0
0, 0
0, 0
0, 0
0, 0
0, 0
0, 0
0, 0
0, 0
0, 0
0, 0
0, 0
0, 0
0, 0
0, 0
0, 0
0, 0
0, 0
0, 0
0, 0
0, 0
0, 0
0, 0
0, 0
0, 0
0, 0
0, 0
0, 0
0, 0
0, 0
0, 0
0, 0
0, 0
0, 0
0, 0
0, 0
0, 0
0, 0
0, 0
0, 0
0, 0
0, 0
0, 0
0, 0
0, 0
0, 0
0, 0
0, 0
0, 0
0, 0
0, 0
0, 0
0, 0
0, 0
0, 0
0, 0
0, 0
0, 0
0, 0
0, 0
0, 0
0, 0
0, 0
0, 0
0, 0
0, 0
0, 0
0, 0
0, 0
0, 0
0, 0
0, 0
0, 0
0, 0
0, 0
0, 0
0, 0
0, 0
0, 0
0, 0
0, 0
#ENDOFDATA     end of spectrum data