File: host_upload/06-09-2024/ps_0852/dump3/ps__0852shot_2143.msa
#FORMAT      : EMSA/MAS spectral data file
#VERSION     : TC202v2.0 PIXL
#TITLE       : N/A
#DATE        :       Date in the format DD-MMM-YYYY, for example 07-JUL-2010
#TIME        :             The time of day at which the spectrum was recorded, in 24-hour format
#OWNER       : PIXL Flight Model       (PIXL will use this to indicate which instrument took the data.)
#NPOINTS     : 4096     Number of data points in the spectrum (This can be zero for configuration only files)
#NCOLUMNS    : 2     Number of data columns in the spectrum (This can be zero for configuration only files)
#XUNITS      : eV
#YUNITS      : COUNTS
#DATATYPE    : YY
#XPERCHAN    : 7.862, 7.881   eV per channel (separate by commas if more than one detector)
#OFFSET      : 18.5, -22.4         eV of first channel  (separate by commas if more than one detector
#SIGNALTYPE  : XRF
#YP_TEMP     : 2.46
#LIVETIME    : 8.56773, 8.54986   seconds (separate by commas if more than one detector)
#REALTIME    : 10, 10.0   seconds (separate by commas if more than one detector)
#SPECTRUM    : start of spectrum data
0, 0
0, 0
0, 0
0, 0
0, 0
0, 0
0, 0
0, 0
0, 0
1, 0
2, 2
38, 59
66, 55
7, 6
3, 4
106, 120
379, 487
91, 115
6, 5
1, 5
3, 2
3, 6
1, 6
13, 13
46, 44
40, 44
21, 15
12, 19
4, 3
2, 3
1, 6
3, 2
7, 4
24, 24
31, 40
10, 6
31, 5
19, 8
10, 7
6, 4
4, 6
4, 17
15, 11
9, 14
7, 13
8, 5
13, 27
5, 50
9, 16
14, 18
11, 16
2, 5
9, 9
38, 47
51, 74
21, 25
34, 33
405, 627
1801, 2324
1344, 1412
179, 144
19, 17
23, 28
111, 136
301, 380
216, 223
32, 39
3, 9
12, 12
9, 14
7, 10
21, 5
17, 7
8, 10
2, 8
11, 8
8, 6
9, 2
4, 9
1, 8
6, 2
2, 3
6, 7
2, 2
0, 4
2, 3
5, 4
4, 2
2, 3
2, 7
2, 4
0, 6
5, 2
3, 8
4, 7
6, 1
3, 4
0, 3
3, 3
0, 5
1, 4
1, 3
4, 3
1, 3
1, 1
3, 4
1, 3
0, 2
2, 2
0, 3
2, 2
0, 2
2, 1
1, 2
3, 1
2, 5
2, 3
3, 5
2, 0
0, 3
2, 2
0, 0
0, 0
1, 2
1, 0
1, 1
1, 0
0, 1
1, 1
0, 2
0, 2
1, 0
0, 2
1, 1
0, 0
0, 0
2, 2
0, 3
0, 1
0, 1
0, 3
0, 2
0, 2
1, 1
0, 1
0, 0
0, 0
0, 0
0, 2
0, 0
0, 2
0, 1
0, 1
0, 0
1, 1
0, 0
0, 1
0, 1
0, 1
1, 0
0, 0
0, 0
0, 1
1, 2
0, 1
2, 1
0, 0
1, 0
1, 0
1, 1
0, 0
0, 1
0, 0
0, 0
0, 0
0, 0
0, 0
1, 1
0, 0
0, 0
0, 0
0, 0
0, 0
0, 0
0, 0
0, 0
0, 0
1, 0
0, 1
0, 0
0, 0
0, 0
0, 0
0, 0
0, 0
0, 0
0, 0
0, 0
0, 0
0, 0
0, 0
0, 0
0, 0
0, 0
0, 0
0, 0
0, 0
0, 0
0, 0
0, 0
0, 0
0, 0
0, 0
0, 0
0, 0
0, 0
0, 0
0, 0
0, 0
0, 0
0, 0
0, 0
0, 0
0, 0
0, 0
0, 0
0, 0
0, 0
0, 0
0, 0
0, 0
0, 0
0, 0
0, 0
0, 0
0, 0
0, 0
0, 0
0, 0
0, 0
0, 0
0, 0
0, 0
0, 0
0, 0
0, 0
0, 0
0, 0
0, 0
0, 0
0, 0
0, 0
0, 0
0, 0
0, 0
0, 0
0, 0
0, 0
0, 0
0, 0
0, 0
0, 0
0, 0
0, 0
0, 0
0, 0
0, 0
0, 0
0, 0
0, 0
0, 0
0, 0
0, 0
0, 0
0, 0
0, 0
0, 0
0, 0
0, 0
0, 0
0, 0
0, 0
0, 0
0, 0
0, 0
0, 0
0, 0
0, 0
0, 0
0, 0
0, 0
0, 0
0, 0
0, 0
#ENDOFDATA     end of spectrum data