File: host_upload/06-09-2024/ps_0852/dump3/ps__0852shot_2571.msa
#FORMAT      : EMSA/MAS spectral data file
#VERSION     : TC202v2.0 PIXL
#TITLE       : N/A
#DATE        :       Date in the format DD-MMM-YYYY, for example 07-JUL-2010
#TIME        :             The time of day at which the spectrum was recorded, in 24-hour format
#OWNER       : PIXL Flight Model       (PIXL will use this to indicate which instrument took the data.)
#NPOINTS     : 4096     Number of data points in the spectrum (This can be zero for configuration only files)
#NCOLUMNS    : 2     Number of data columns in the spectrum (This can be zero for configuration only files)
#XUNITS      : eV
#YUNITS      : COUNTS
#DATATYPE    : YY
#XPERCHAN    : 7.862, 7.881   eV per channel (separate by commas if more than one detector)
#OFFSET      : 18.5, -22.4         eV of first channel  (separate by commas if more than one detector
#SIGNALTYPE  : XRF
#YP_TEMP     : 2.46
#LIVETIME    : 8.56097, 8.56555   seconds (separate by commas if more than one detector)
#REALTIME    : 10, 10.0   seconds (separate by commas if more than one detector)
#SPECTRUM    : start of spectrum data
0, 0
0, 0
0, 0
0, 0
0, 0
0, 0
0, 0
0, 0
0, 0
1, 2
1, 2
46, 41
49, 55
5, 6
3, 4
119, 89
459, 432
106, 91
6, 1
0, 0
3, 1
10, 7
3, 5
16, 10
41, 41
42, 53
26, 22
10, 19
7, 2
1, 2
2, 2
1, 1
5, 2
9, 21
11, 16
2, 10
5, 2
6, 4
1, 7
5, 6
3, 5
9, 10
14, 16
15, 9
5, 13
5, 23
12, 28
12, 15
7, 11
18, 22
23, 18
20, 13
25, 13
45, 38
60, 58
26, 22
24, 37
520, 587
2269, 2410
1659, 1428
202, 105
22, 9
20, 25
118, 139
352, 358
245, 200
24, 17
14, 21
17, 30
14, 37
3, 10
10, 2
7, 1
6, 4
5, 7
6, 7
5, 10
8, 3
3, 2
5, 5
7, 7
7, 3
4, 3
4, 8
11, 3
4, 3
2, 3
0, 4
3, 6
2, 4
2, 5
4, 1
5, 4
1, 10
3, 13
4, 6
2, 2
3, 1
6, 4
6, 1
3, 5
2, 0
5, 1
4, 5
5, 2
3, 2
2, 2
2, 1
4, 1
5, 4
2, 3
3, 3
0, 3
2, 2
2, 0
7, 3
3, 5
3, 7
1, 0
1, 1
1, 1
4, 2
1, 2
3, 1
2, 0
1, 3
1, 3
3, 1
1, 1
3, 0
2, 0
1, 1
1, 0
0, 1
1, 1
3, 1
1, 1
2, 1
1, 0
1, 0
0, 0
1, 0
3, 0
0, 1
0, 0
0, 1
0, 0
0, 0
0, 0
0, 0
2, 0
1, 2
0, 0
0, 0
0, 0
0, 0
0, 0
2, 0
0, 0
0, 0
0, 0
0, 0
0, 0
0, 0
1, 0
0, 0
0, 0
0, 0
0, 1
0, 0
1, 0
2, 0
0, 0
1, 0
1, 0
0, 0
0, 0
1, 0
0, 1
0, 0
0, 0
0, 0
0, 0
1, 0
0, 0
1, 0
0, 0
0, 0
0, 0
0, 0
0, 0
0, 0
0, 0
0, 0
0, 0
0, 0
0, 0
0, 0
0, 0
0, 0
0, 0
0, 0
0, 0
0, 0
0, 0
0, 0
0, 0
0, 0
0, 0
0, 0
0, 0
0, 0
0, 1
0, 0
0, 0
0, 0
0, 0
0, 0
0, 0
0, 0
0, 0
0, 0
0, 0
0, 0
0, 0
0, 0
0, 0
0, 0
0, 0
0, 0
0, 0
0, 0
0, 0
0, 0
0, 0
0, 0
0, 0
0, 0
0, 0
0, 0
0, 0
0, 0
0, 0
0, 0
0, 0
0, 0
0, 0
0, 0
0, 0
0, 0
0, 0
0, 0
0, 0
0, 0
0, 0
0, 0
0, 0
0, 0
0, 0
0, 0
0, 0
0, 0
0, 0
0, 0
0, 0
0, 0
0, 0
0, 0
0, 0
0, 0
0, 0
0, 0
0, 0
0, 0
0, 0
0, 0
0, 0
0, 0
0, 0
0, 0
0, 0
0, 0
0, 0
0, 0
0, 0
0, 0
0, 0
0, 0
0, 0
0, 0
0, 0
0, 0
0, 0
0, 0
#ENDOFDATA     end of spectrum data