File: host_upload/06-09-2024/ps_0852/dump3/ps__0852shot_2478.msa
#FORMAT      : EMSA/MAS spectral data file
#VERSION     : TC202v2.0 PIXL
#TITLE       : N/A
#DATE        :       Date in the format DD-MMM-YYYY, for example 07-JUL-2010
#TIME        :             The time of day at which the spectrum was recorded, in 24-hour format
#OWNER       : PIXL Flight Model       (PIXL will use this to indicate which instrument took the data.)
#NPOINTS     : 4096     Number of data points in the spectrum (This can be zero for configuration only files)
#NCOLUMNS    : 2     Number of data columns in the spectrum (This can be zero for configuration only files)
#XUNITS      : eV
#YUNITS      : COUNTS
#DATATYPE    : YY
#XPERCHAN    : 7.862, 7.881   eV per channel (separate by commas if more than one detector)
#OFFSET      : 18.5, -22.4         eV of first channel  (separate by commas if more than one detector
#SIGNALTYPE  : XRF
#YP_TEMP     : 2.524
#LIVETIME    : 8.56462, 8.56704   seconds (separate by commas if more than one detector)
#REALTIME    : 10, 10.0   seconds (separate by commas if more than one detector)
#SPECTRUM    : start of spectrum data
0, 0
0, 0
0, 0
0, 0
0, 0
0, 0
0, 0
0, 0
1, 0
1, 2
4, 1
57, 41
62, 58
7, 5
7, 4
101, 110
479, 467
100, 106
4, 1
2, 1
0, 2
6, 8
4, 2
7, 5
32, 26
32, 24
23, 15
6, 16
4, 4
4, 2
3, 2
2, 2
11, 1
46, 13
35, 25
9, 7
3, 4
7, 3
2, 3
3, 8
2, 2
6, 2
16, 16
16, 14
5, 5
11, 6
6, 12
5, 12
4, 9
18, 7
31, 6
22, 33
18, 31
52, 55
58, 50
20, 25
33, 29
493, 592
2247, 2235
1518, 1358
183, 137
16, 12
22, 21
109, 118
342, 319
259, 165
34, 22
11, 8
17, 16
4, 3
6, 2
4, 3
3, 2
6, 8
9, 7
13, 5
4, 5
3, 5
7, 5
3, 6
3, 3
7, 2
5, 9
0, 19
2, 29
3, 4
2, 5
3, 8
1, 5
2, 4
3, 6
4, 7
2, 2
5, 2
1, 5
5, 3
5, 2
4, 4
2, 1
4, 3
4, 2
3, 2
6, 3
6, 5
0, 2
2, 4
3, 2
2, 4
0, 5
3, 1
1, 3
2, 3
2, 6
1, 4
2, 3
2, 5
3, 6
1, 1
2, 3
2, 1
1, 1
1, 0
2, 0
0, 1
0, 0
1, 2
0, 2
3, 0
0, 1
0, 0
0, 2
0, 0
2, 1
1, 0
0, 0
0, 0
3, 0
0, 0
0, 1
1, 0
1, 0
0, 2
1, 1
0, 2
0, 0
3, 0
1, 0
0, 0
1, 1
0, 0
0, 1
1, 0
0, 0
0, 0
1, 0
0, 1
1, 0
0, 0
0, 0
0, 1
0, 0
0, 0
1, 0
0, 0
0, 0
0, 0
0, 0
0, 0
0, 0
0, 0
0, 0
0, 0
0, 0
0, 0
1, 0
0, 0
2, 0
0, 1
0, 0
0, 0
0, 0
0, 1
0, 0
0, 1
0, 0
0, 0
0, 0
1, 0
0, 0
0, 1
0, 0
0, 1
0, 0
0, 0
0, 0
0, 0
1, 0
0, 0
0, 0
0, 0
1, 0
0, 0
0, 0
0, 0
1, 0
0, 0
0, 0
0, 0
0, 0
0, 0
0, 0
0, 0
0, 0
0, 0
0, 0
0, 0
0, 0
0, 0
0, 0
0, 0
0, 0
0, 0
0, 0
0, 0
0, 0
0, 0
0, 0
0, 0
0, 0
0, 0
0, 0
0, 0
0, 0
0, 0
0, 0
0, 0
0, 0
0, 0
0, 0
0, 0
0, 0
0, 0
0, 0
0, 0
0, 0
0, 0
0, 0
0, 0
0, 0
0, 0
0, 0
0, 0
0, 0
0, 0
0, 0
0, 0
0, 0
0, 0
0, 0
0, 0
0, 0
0, 0
0, 0
0, 0
0, 0
0, 0
0, 0
0, 0
0, 0
0, 0
0, 0
0, 0
0, 0
0, 0
0, 0
0, 0
0, 0
0, 0
0, 0
0, 0
0, 0
0, 0
0, 0
0, 0
0, 0
0, 0
0, 0
0, 0
0, 0
0, 0
0, 0
0, 0
0, 0
0, 0
#ENDOFDATA     end of spectrum data