File: host_upload/06-09-2024/ps_0852/dump3/ps__0852shot_2516.msa
#FORMAT      : EMSA/MAS spectral data file
#VERSION     : TC202v2.0 PIXL
#TITLE       : N/A
#DATE        :       Date in the format DD-MMM-YYYY, for example 07-JUL-2010
#TIME        :             The time of day at which the spectrum was recorded, in 24-hour format
#OWNER       : PIXL Flight Model       (PIXL will use this to indicate which instrument took the data.)
#NPOINTS     : 4096     Number of data points in the spectrum (This can be zero for configuration only files)
#NCOLUMNS    : 2     Number of data columns in the spectrum (This can be zero for configuration only files)
#XUNITS      : eV
#YUNITS      : COUNTS
#DATATYPE    : YY
#XPERCHAN    : 7.862, 7.881   eV per channel (separate by commas if more than one detector)
#OFFSET      : 18.5, -22.4         eV of first channel  (separate by commas if more than one detector
#SIGNALTYPE  : XRF
#YP_TEMP     : 2.428
#LIVETIME    : 8.54836, 8.56594   seconds (separate by commas if more than one detector)
#REALTIME    : 10, 10.0   seconds (separate by commas if more than one detector)
#SPECTRUM    : start of spectrum data
0, 0
0, 0
0, 0
0, 0
0, 0
0, 0
0, 0
0, 1
1, 1
2, 5
7, 4
38, 38
53, 42
5, 5
10, 6
65, 84
278, 325
66, 66
4, 5
7, 3
78, 95
548, 555
200, 221
45, 60
75, 100
59, 71
27, 27
11, 21
7, 6
7, 4
9, 5
2, 2
15, 8
40, 45
56, 82
14, 12
14, 17
16, 12
1, 5
0, 5
0, 42
17, 118
20, 53
7, 15
5, 2
8, 14
7, 9
7, 9
1, 8
14, 22
24, 16
6, 7
5, 5
40, 62
49, 60
28, 8
29, 30
420, 606
1973, 2311
1471, 1358
172, 117
17, 18
20, 18
96, 99
294, 345
213, 196
25, 23
6, 8
8, 19
7, 3
7, 7
4, 3
4, 2
4, 9
6, 9
5, 12
5, 9
1, 5
6, 6
2, 7
3, 8
1, 10
7, 12
6, 12
5, 8
1, 7
4, 5
6, 3
2, 5
3, 5
7, 1
5, 2
3, 4
2, 6
4, 3
2, 3
2, 2
5, 4
6, 4
3, 4
1, 2
1, 1
4, 3
4, 1
4, 1
0, 3
4, 3
0, 3
1, 1
2, 2
0, 2
3, 2
0, 1
2, 2
1, 1
3, 2
1, 4
2, 1
3, 2
2, 2
3, 2
4, 1
1, 1
0, 3
0, 1
4, 2
3, 1
2, 1
2, 2
2, 1
2, 2
0, 1
0, 1
0, 1
1, 0
1, 0
1, 0
1, 0
1, 0
1, 0
1, 2
0, 2
1, 0
1, 0
0, 0
0, 0
0, 0
0, 0
0, 0
1, 1
0, 0
0, 0
1, 0
0, 0
0, 1
0, 0
0, 0
0, 0
0, 0
0, 0
0, 0
0, 0
0, 1
0, 0
0, 0
0, 0
1, 0
0, 0
1, 0
0, 0
0, 0
0, 0
0, 0
0, 0
2, 0
0, 0
0, 0
0, 1
0, 0
0, 0
0, 0
0, 1
0, 0
0, 1
1, 0
0, 0
0, 0
0, 0
0, 0
0, 0
0, 0
0, 0
0, 0
0, 0
0, 0
0, 0
0, 0
0, 0
0, 0
0, 0
0, 0
0, 0
0, 0
0, 0
0, 0
0, 0
0, 0
0, 0
0, 0
0, 0
0, 0
0, 0
0, 0
0, 0
0, 0
0, 0
0, 0
0, 0
0, 0
0, 0
0, 0
0, 0
0, 0
0, 0
0, 0
0, 0
0, 0
0, 0
0, 0
0, 0
0, 0
0, 0
0, 0
0, 0
0, 0
0, 0
0, 0
0, 0
0, 0
0, 0
0, 0
0, 0
0, 0
0, 0
0, 0
0, 0
0, 0
0, 0
0, 0
0, 0
0, 0
0, 0
0, 0
0, 0
0, 0
0, 0
0, 0
0, 0
0, 0
0, 0
0, 0
0, 0
0, 0
0, 0
0, 0
0, 0
0, 0
0, 0
0, 0
0, 0
0, 0
0, 0
0, 0
0, 0
0, 0
0, 0
0, 0
0, 0
0, 0
0, 0
0, 0
0, 0
0, 0
0, 0
0, 0
0, 0
0, 0
0, 0
0, 0
0, 0
0, 0
0, 0
0, 0
0, 0
#ENDOFDATA     end of spectrum data