File: host_upload/06-09-2024/ps_0852/dump3/ps__0852shot_2428.msa
#FORMAT      : EMSA/MAS spectral data file
#VERSION     : TC202v2.0 PIXL
#TITLE       : N/A
#DATE        :       Date in the format DD-MMM-YYYY, for example 07-JUL-2010
#TIME        :             The time of day at which the spectrum was recorded, in 24-hour format
#OWNER       : PIXL Flight Model       (PIXL will use this to indicate which instrument took the data.)
#NPOINTS     : 4096     Number of data points in the spectrum (This can be zero for configuration only files)
#NCOLUMNS    : 2     Number of data columns in the spectrum (This can be zero for configuration only files)
#XUNITS      : eV
#YUNITS      : COUNTS
#DATATYPE    : YY
#XPERCHAN    : 7.862, 7.881   eV per channel (separate by commas if more than one detector)
#OFFSET      : 18.5, -22.4         eV of first channel  (separate by commas if more than one detector
#SIGNALTYPE  : XRF
#YP_TEMP     : 2.46
#LIVETIME    : 8.56911, 8.55737   seconds (separate by commas if more than one detector)
#REALTIME    : 10, 10.0   seconds (separate by commas if more than one detector)
#SPECTRUM    : start of spectrum data
0, 0
0, 0
0, 0
0, 0
0, 0
0, 0
0, 0
0, 0
1, 0
1, 2
2, 0
38, 55
60, 54
3, 8
3, 0
96, 102
438, 380
105, 83
8, 4
0, 1
3, 1
2, 2
2, 5
4, 6
23, 25
33, 25
18, 8
14, 12
3, 4
1, 3
2, 2
1, 2
4, 8
42, 45
78, 58
18, 10
8, 5
16, 9
7, 5
5, 3
6, 2
18, 10
15, 10
10, 11
7, 3
6, 3
6, 2
9, 4
7, 19
19, 27
23, 21
11, 4
20, 11
33, 42
87, 69
33, 22
26, 41
448, 543
1969, 2283
1397, 1313
189, 126
15, 12
17, 29
102, 115
314, 361
219, 169
35, 28
32, 11
25, 12
8, 13
5, 8
2, 4
3, 8
3, 7
3, 22
3, 11
3, 7
5, 7
5, 5
5, 3
9, 3
13, 2
10, 1
6, 3
4, 6
7, 6
2, 6
3, 1
6, 2
5, 2
3, 2
3, 2
2, 1
3, 4
7, 6
2, 5
1, 2
5, 1
6, 5
5, 3
2, 3
0, 0
3, 2
1, 6
3, 2
4, 3
3, 1
1, 3
2, 3
0, 2
2, 1
0, 2
3, 3
2, 1
3, 2
4, 1
3, 5
3, 6
3, 6
1, 2
0, 0
0, 1
1, 2
1, 2
1, 1
1, 1
0, 2
1, 2
0, 0
1, 1
0, 1
0, 0
0, 0
0, 0
1, 1
0, 0
1, 0
0, 0
0, 0
0, 1
0, 0
1, 0
1, 0
1, 0
1, 2
0, 1
1, 1
0, 0
2, 0
0, 1
1, 1
0, 1
0, 0
0, 1
0, 0
0, 0
0, 0
0, 0
0, 0
0, 0
0, 1
0, 0
0, 0
0, 0
0, 0
0, 0
1, 0
1, 1
1, 0
1, 1
0, 0
2, 0
0, 0
0, 0
0, 0
0, 0
0, 0
0, 0
0, 0
0, 1
0, 0
0, 0
0, 0
0, 0
0, 0
1, 0
0, 0
0, 0
0, 0
0, 0
0, 0
0, 0
0, 0
2, 0
0, 0
0, 0
0, 0
0, 0
0, 0
0, 0
0, 0
0, 0
0, 0
0, 0
0, 0
0, 0
0, 0
0, 0
0, 0
0, 0
0, 0
0, 0
0, 0
0, 0
0, 0
0, 0
0, 0
0, 0
0, 0
0, 0
0, 0
0, 0
1, 0
0, 0
0, 0
0, 0
0, 0
0, 0
0, 0
0, 0
0, 0
0, 0
0, 0
0, 0
0, 0
0, 0
0, 0
0, 0
0, 0
0, 0
0, 0
0, 0
0, 0
0, 0
0, 0
0, 0
0, 0
0, 0
0, 0
0, 0
0, 0
0, 0
0, 0
0, 0
0, 0
0, 0
0, 0
0, 0
0, 0
0, 0
0, 0
0, 0
0, 0
0, 0
0, 0
0, 0
0, 0
0, 0
0, 0
0, 0
0, 0
0, 0
0, 0
0, 0
0, 0
0, 0
0, 0
0, 0
0, 0
0, 0
0, 0
0, 0
0, 0
0, 0
0, 0
0, 0
0, 0
0, 0
0, 0
0, 0
0, 0
0, 0
0, 0
0, 0
#ENDOFDATA     end of spectrum data