File: host_upload/06-09-2024/ps_0852/dump3/ps__0852shot_2217.msa
#FORMAT      : EMSA/MAS spectral data file
#VERSION     : TC202v2.0 PIXL
#TITLE       : N/A
#DATE        :       Date in the format DD-MMM-YYYY, for example 07-JUL-2010
#TIME        :             The time of day at which the spectrum was recorded, in 24-hour format
#OWNER       : PIXL Flight Model       (PIXL will use this to indicate which instrument took the data.)
#NPOINTS     : 4096     Number of data points in the spectrum (This can be zero for configuration only files)
#NCOLUMNS    : 2     Number of data columns in the spectrum (This can be zero for configuration only files)
#XUNITS      : eV
#YUNITS      : COUNTS
#DATATYPE    : YY
#XPERCHAN    : 7.862, 7.881   eV per channel (separate by commas if more than one detector)
#OFFSET      : 18.5, -22.4         eV of first channel  (separate by commas if more than one detector
#SIGNALTYPE  : XRF
#YP_TEMP     : 2.396
#LIVETIME    : 8.55295, 8.58418   seconds (separate by commas if more than one detector)
#REALTIME    : 10, 10.0   seconds (separate by commas if more than one detector)
#SPECTRUM    : start of spectrum data
0, 0
0, 0
0, 0
0, 0
0, 0
0, 0
0, 0
0, 0
0, 0
0, 1
1, 1
50, 39
63, 58
8, 3
4, 2
107, 98
423, 423
120, 89
8, 8
0, 1
1, 2
2, 3
3, 2
8, 5
34, 32
42, 36
13, 17
15, 5
2, 5
3, 1
4, 4
6, 0
3, 3
5, 11
16, 8
3, 2
2, 6
8, 4
6, 9
8, 2
10, 2
11, 7
13, 19
15, 14
4, 12
4, 26
8, 18
7, 11
10, 13
19, 25
16, 10
12, 10
15, 13
48, 51
65, 62
31, 16
25, 39
504, 601
2282, 2262
1651, 1361
219, 134
22, 18
21, 19
118, 119
342, 370
255, 215
36, 23
10, 10
14, 29
8, 27
5, 8
7, 2
5, 2
4, 6
8, 6
4, 6
7, 7
2, 1
4, 4
4, 3
3, 7
6, 5
4, 3
4, 4
3, 12
2, 6
0, 2
3, 2
3, 4
3, 2
9, 9
9, 5
3, 2
5, 7
2, 6
4, 5
5, 2
0, 3
4, 1
2, 1
3, 2
5, 1
4, 2
3, 2
1, 0
0, 2
3, 3
2, 3
1, 4
1, 4
2, 1
4, 2
1, 2
2, 3
2, 3
3, 2
5, 5
5, 3
4, 1
2, 3
0, 1
4, 2
1, 1
1, 3
2, 6
1, 1
1, 2
0, 2
0, 2
1, 2
0, 0
1, 1
0, 0
2, 0
0, 0
3, 1
0, 2
0, 0
0, 0
0, 2
0, 0
0, 3
3, 0
1, 0
0, 1
0, 0
0, 0
0, 0
0, 0
0, 0
0, 0
0, 1
0, 0
0, 0
1, 0
0, 0
0, 1
0, 0
1, 0
1, 0
0, 0
1, 0
0, 0
1, 1
1, 0
1, 0
0, 1
0, 0
0, 0
0, 0
0, 0
2, 0
0, 0
0, 0
0, 0
0, 0
0, 0
0, 0
0, 1
0, 0
0, 0
0, 0
0, 0
1, 1
1, 0
0, 0
0, 0
1, 0
0, 0
0, 0
0, 1
0, 0
0, 0
0, 0
0, 0
1, 0
0, 0
0, 0
0, 0
0, 0
0, 0
0, 0
0, 0
0, 0
0, 0
0, 0
0, 0
0, 0
0, 0
0, 0
0, 0
0, 0
0, 0
0, 0
0, 1
0, 0
0, 0
0, 0
1, 0
0, 0
0, 0
0, 0
0, 0
0, 0
0, 0
0, 0
0, 0
0, 0
0, 0
0, 0
0, 0
0, 0
0, 0
0, 0
0, 0
0, 0
0, 0
0, 0
0, 0
0, 0
0, 0
0, 0
0, 0
0, 0
0, 0
0, 0
0, 0
0, 0
0, 0
0, 0
0, 0
0, 0
0, 0
0, 0
0, 0
0, 0
0, 0
0, 0
0, 0
0, 0
0, 0
0, 0
0, 0
0, 0
0, 0
0, 0
0, 0
0, 0
0, 0
0, 0
0, 0
0, 0
0, 0
0, 0
0, 0
0, 0
0, 0
0, 0
0, 0
0, 0
0, 0
0, 0
0, 0
0, 0
0, 0
0, 0
0, 0
0, 0
0, 0
0, 0
0, 0
0, 0
0, 0
0, 0
#ENDOFDATA     end of spectrum data