File: host_upload/06-09-2024/ps_0852/dump3/ps__0852shot_2572.msa
#FORMAT      : EMSA/MAS spectral data file
#VERSION     : TC202v2.0 PIXL
#TITLE       : N/A
#DATE        :       Date in the format DD-MMM-YYYY, for example 07-JUL-2010
#TIME        :             The time of day at which the spectrum was recorded, in 24-hour format
#OWNER       : PIXL Flight Model       (PIXL will use this to indicate which instrument took the data.)
#NPOINTS     : 4096     Number of data points in the spectrum (This can be zero for configuration only files)
#NCOLUMNS    : 2     Number of data columns in the spectrum (This can be zero for configuration only files)
#XUNITS      : eV
#YUNITS      : COUNTS
#DATATYPE    : YY
#XPERCHAN    : 7.862, 7.881   eV per channel (separate by commas if more than one detector)
#OFFSET      : 18.5, -22.4         eV of first channel  (separate by commas if more than one detector
#SIGNALTYPE  : XRF
#YP_TEMP     : 2.46
#LIVETIME    : 8.55607, 8.56225   seconds (separate by commas if more than one detector)
#REALTIME    : 10, 10.0   seconds (separate by commas if more than one detector)
#SPECTRUM    : start of spectrum data
0, 0
0, 0
0, 0
0, 0
0, 0
0, 0
0, 0
1, 0
1, 2
1, 1
0, 4
37, 52
72, 56
3, 1
1, 4
103, 130
436, 413
105, 91
3, 6
1, 1
1, 2
10, 10
4, 1
5, 11
34, 41
51, 51
34, 24
12, 18
2, 5
5, 3
1, 4
1, 1
4, 3
15, 27
20, 35
7, 10
6, 3
8, 6
6, 15
4, 10
5, 4
11, 10
15, 23
14, 15
9, 6
10, 3
16, 4
11, 15
10, 16
18, 30
9, 37
16, 10
24, 17
34, 48
61, 77
17, 22
36, 53
486, 619
2148, 2466
1542, 1500
201, 131
15, 32
22, 32
94, 135
356, 371
218, 216
33, 20
14, 13
21, 14
10, 12
9, 7
6, 7
5, 7
1, 7
6, 2
5, 5
6, 7
7, 3
6, 7
1, 6
6, 4
3, 6
6, 2
7, 5
4, 6
8, 3
3, 4
2, 0
6, 8
1, 4
4, 2
3, 2
1, 7
1, 9
1, 13
1, 3
3, 7
2, 2
1, 3
4, 2
4, 2
2, 0
4, 5
7, 2
6, 2
3, 4
2, 1
3, 2
4, 0
2, 2
0, 5
2, 4
2, 3
8, 4
1, 4
2, 5
1, 3
2, 3
2, 1
2, 1
1, 2
1, 2
4, 2
2, 4
0, 2
1, 1
0, 1
2, 1
1, 4
2, 0
0, 1
3, 0
1, 1
3, 1
1, 2
1, 0
0, 0
0, 1
3, 1
1, 1
1, 1
0, 0
2, 0
0, 0
0, 0
0, 0
1, 0
1, 0
0, 1
2, 0
0, 1
1, 0
0, 0
1, 1
0, 1
0, 0
1, 1
0, 1
0, 1
0, 1
0, 0
0, 0
0, 0
0, 1
0, 0
2, 0
1, 0
0, 1
1, 0
1, 0
0, 0
1, 1
0, 0
0, 1
0, 0
0, 1
0, 0
0, 0
0, 1
0, 0
0, 0
0, 0
0, 0
1, 0
0, 0
0, 0
0, 0
0, 0
0, 0
1, 0
0, 0
1, 0
1, 0
0, 1
0, 0
0, 0
0, 0
0, 0
0, 0
0, 0
0, 0
0, 0
0, 0
0, 0
0, 0
0, 1
0, 0
0, 0
0, 0
0, 0
0, 0
0, 0
0, 0
0, 0
0, 0
0, 0
0, 0
0, 0
0, 0
0, 0
0, 0
0, 0
0, 0
0, 0
0, 0
0, 0
0, 0
0, 0
0, 0
0, 0
0, 0
0, 0
0, 0
0, 0
0, 0
0, 0
0, 0
0, 0
0, 0
0, 0
0, 0
0, 0
0, 0
0, 0
0, 0
0, 0
0, 0
0, 0
0, 0
0, 0
0, 0
0, 0
0, 0
0, 0
0, 0
0, 0
0, 0
0, 0
0, 0
0, 0
0, 0
0, 0
0, 0
0, 0
0, 0
0, 0
0, 0
0, 0
0, 0
0, 0
0, 0
0, 0
0, 0
0, 0
0, 0
0, 0
0, 0
0, 0
0, 0
0, 0
0, 0
0, 0
0, 0
0, 0
0, 0
0, 0
0, 0
0, 0
0, 0
0, 0
0, 0
0, 0
0, 0
0, 0
#ENDOFDATA     end of spectrum data