File: host_upload/06-09-2024/ps_0852/dump3/ps__0852shot_2570.msa
#FORMAT      : EMSA/MAS spectral data file
#VERSION     : TC202v2.0 PIXL
#TITLE       : N/A
#DATE        :       Date in the format DD-MMM-YYYY, for example 07-JUL-2010
#TIME        :             The time of day at which the spectrum was recorded, in 24-hour format
#OWNER       : PIXL Flight Model       (PIXL will use this to indicate which instrument took the data.)
#NPOINTS     : 4096     Number of data points in the spectrum (This can be zero for configuration only files)
#NCOLUMNS    : 2     Number of data columns in the spectrum (This can be zero for configuration only files)
#XUNITS      : eV
#YUNITS      : COUNTS
#DATATYPE    : YY
#XPERCHAN    : 7.862, 7.881   eV per channel (separate by commas if more than one detector)
#OFFSET      : 18.5, -22.4         eV of first channel  (separate by commas if more than one detector
#SIGNALTYPE  : XRF
#YP_TEMP     : 2.235
#LIVETIME    : 8.57169, 8.36284   seconds (separate by commas if more than one detector)
#REALTIME    : 10, 10.0   seconds (separate by commas if more than one detector)
#SPECTRUM    : start of spectrum data
0, 0
0, 0
0, 0
0, 0
0, 0
0, 0
0, 0
0, 0
0, 1
1, 1
2, 3
60, 39
72, 48
9, 3
2, 4
100, 78
496, 394
103, 97
7, 9
3, 1
2, 3
2, 4
3, 4
9, 9
53, 40
38, 34
17, 15
12, 14
5, 7
4, 1
1, 0
4, 2
2, 2
10, 13
12, 17
5, 3
3, 3
5, 2
5, 6
4, 4
8, 6
6, 7
10, 9
11, 7
10, 9
2, 19
5, 41
7, 16
10, 5
28, 10
14, 10
7, 6
7, 10
58, 52
72, 53
19, 18
33, 29
531, 533
2417, 2285
1713, 1301
211, 120
15, 17
25, 16
101, 119
383, 368
252, 172
26, 18
8, 17
13, 18
16, 18
16, 7
8, 3
10, 6
4, 4
4, 6
5, 12
6, 5
3, 10
8, 3
11, 4
17, 2
7, 4
6, 4
3, 5
1, 6
4, 3
2, 14
3, 25
10, 10
15, 2
1, 6
1, 4
1, 1
3, 1
4, 2
2, 4
1, 5
4, 2
2, 2
2, 1
9, 1
3, 1
0, 2
5, 3
3, 2
1, 0
2, 1
4, 3
5, 5
2, 5
1, 3
2, 1
1, 0
0, 0
0, 4
1, 6
1, 1
0, 2
3, 0
1, 3
1, 0
2, 3
2, 2
3, 2
1, 0
1, 1
1, 2
1, 0
2, 1
0, 1
2, 1
3, 0
1, 1
0, 0
1, 0
2, 4
1, 1
1, 1
1, 0
3, 0
2, 0
0, 1
0, 1
0, 0
1, 1
1, 0
1, 0
1, 0
0, 0
1, 0
1, 0
0, 0
1, 0
0, 0
0, 0
0, 0
0, 0
3, 0
0, 0
0, 0
1, 2
0, 0
0, 0
0, 0
0, 0
0, 0
1, 0
0, 0
0, 0
2, 0
1, 0
0, 0
0, 0
0, 0
0, 0
1, 0
1, 0
0, 0
0, 1
0, 0
0, 0
1, 0
0, 0
1, 1
0, 0
0, 0
0, 0
0, 0
0, 0
0, 0
1, 0
0, 0
0, 0
0, 0
0, 0
0, 0
0, 0
0, 0
0, 0
0, 0
0, 0
0, 0
0, 0
0, 0
0, 0
0, 0
0, 0
0, 0
0, 0
0, 0
0, 0
0, 0
0, 0
0, 0
0, 0
0, 0
0, 0
0, 0
0, 0
0, 0
0, 0
0, 0
0, 0
0, 0
0, 0
0, 1
0, 0
0, 0
0, 0
0, 0
0, 0
0, 0
0, 0
0, 0
0, 0
0, 0
0, 0
0, 0
0, 0
0, 0
0, 0
0, 0
0, 0
0, 0
0, 0
0, 0
0, 0
0, 0
0, 0
0, 0
0, 0
0, 0
0, 0
0, 0
0, 0
0, 0
0, 0
0, 0
0, 0
0, 0
0, 0
0, 0
0, 0
0, 0
0, 0
0, 0
0, 0
0, 0
0, 0
0, 0
0, 0
0, 0
0, 0
0, 0
0, 0
0, 0
0, 0
0, 0
0, 0
0, 0
0, 0
0, 0
0, 0
0, 0
0, 0
0, 0
0, 0
0, 0
0, 0
0, 0
0, 0
0, 0
0, 0
0, 0
#ENDOFDATA     end of spectrum data