File: host_upload/06-09-2024/ps_0852/dump3/ps__0852shot_2109.msa
#FORMAT      : EMSA/MAS spectral data file
#VERSION     : TC202v2.0 PIXL
#TITLE       : N/A
#DATE        :       Date in the format DD-MMM-YYYY, for example 07-JUL-2010
#TIME        :             The time of day at which the spectrum was recorded, in 24-hour format
#OWNER       : PIXL Flight Model       (PIXL will use this to indicate which instrument took the data.)
#NPOINTS     : 4096     Number of data points in the spectrum (This can be zero for configuration only files)
#NCOLUMNS    : 2     Number of data columns in the spectrum (This can be zero for configuration only files)
#XUNITS      : eV
#YUNITS      : COUNTS
#DATATYPE    : YY
#XPERCHAN    : 7.862, 7.881   eV per channel (separate by commas if more than one detector)
#OFFSET      : 18.5, -22.4         eV of first channel  (separate by commas if more than one detector
#SIGNALTYPE  : XRF
#YP_TEMP     : 2.428
#LIVETIME    : 8.5496, 8.55329   seconds (separate by commas if more than one detector)
#REALTIME    : 10, 10.0   seconds (separate by commas if more than one detector)
#SPECTRUM    : start of spectrum data
0, 0
0, 0
0, 0
0, 0
0, 0
0, 0
0, 0
1, 0
0, 0
3, 1
7, 0
29, 26
32, 40
5, 3
6, 3
60, 53
262, 234
50, 65
9, 8
3, 3
67, 72
303, 319
116, 112
44, 63
130, 150
91, 89
38, 28
21, 28
9, 6
3, 6
20, 14
10, 8
9, 7
54, 74
71, 98
21, 23
9, 11
21, 18
8, 3
1, 4
3, 4
4, 14
18, 19
26, 16
7, 14
9, 33
2, 17
5, 1
11, 10
23, 26
63, 32
35, 26
14, 10
37, 66
61, 68
21, 21
29, 53
464, 671
2099, 2356
1576, 1507
218, 163
14, 15
19, 21
118, 108
314, 383
229, 192
25, 25
7, 8
13, 9
42, 6
50, 4
10, 2
4, 3
11, 6
5, 4
8, 5
6, 7
3, 1
4, 3
2, 5
3, 4
9, 6
10, 2
3, 5
2, 9
2, 8
6, 3
6, 0
4, 6
7, 6
2, 20
8, 3
9, 6
4, 4
2, 2
5, 2
1, 4
5, 3
1, 2
2, 4
10, 10
3, 4
3, 2
2, 4
2, 2
3, 2
5, 2
0, 2
2, 1
1, 3
2, 4
1, 1
2, 0
3, 2
1, 0
4, 0
4, 4
1, 4
0, 3
4, 1
2, 0
2, 0
3, 1
1, 2
1, 2
0, 1
1, 0
0, 2
0, 2
1, 0
0, 2
1, 0
1, 1
1, 0
2, 0
0, 0
1, 0
2, 1
2, 2
0, 1
2, 0
0, 0
1, 0
1, 0
0, 1
3, 0
2, 0
2, 1
0, 0
0, 0
1, 1
1, 1
0, 0
0, 0
0, 0
0, 0
1, 1
1, 0
0, 0
0, 1
0, 0
0, 0
0, 1
0, 0
1, 1
0, 0
0, 1
0, 0
1, 1
0, 0
0, 0
0, 1
0, 1
0, 1
0, 0
0, 0
0, 0
0, 0
0, 0
0, 0
0, 0
0, 0
0, 0
0, 0
0, 1
0, 0
0, 0
0, 0
0, 0
1, 0
0, 0
0, 0
1, 0
0, 0
0, 1
0, 0
0, 0
0, 0
0, 0
0, 0
0, 1
0, 0
0, 0
0, 0
0, 0
0, 0
0, 0
0, 0
0, 0
0, 0
0, 0
0, 0
0, 0
0, 0
0, 0
0, 0
0, 0
0, 0
0, 0
0, 0
0, 0
0, 0
0, 0
0, 0
0, 0
0, 0
0, 0
0, 0
0, 0
0, 0
0, 0
0, 0
0, 0
0, 0
0, 0
0, 0
0, 0
0, 0
0, 0
0, 0
0, 0
0, 0
0, 0
0, 0
0, 0
0, 0
0, 0
0, 0
0, 0
0, 0
0, 0
0, 0
0, 0
0, 0
0, 0
0, 0
0, 0
0, 0
0, 0
0, 0
0, 0
0, 0
0, 0
0, 0
0, 0
0, 0
0, 0
0, 0
0, 0
0, 0
0, 0
0, 0
0, 0
0, 0
0, 0
0, 0
0, 0
0, 0
0, 0
0, 0
0, 0
0, 0
0, 0
0, 0
0, 0
0, 0
0, 0
0, 0
0, 0
0, 0
0, 0
0, 0
0, 0
0, 0
#ENDOFDATA     end of spectrum data