File: host_upload/06-09-2024/ps_0852/dump3/ps__0852shot_2322.msa
#FORMAT      : EMSA/MAS spectral data file
#VERSION     : TC202v2.0 PIXL
#TITLE       : N/A
#DATE        :       Date in the format DD-MMM-YYYY, for example 07-JUL-2010
#TIME        :             The time of day at which the spectrum was recorded, in 24-hour format
#OWNER       : PIXL Flight Model       (PIXL will use this to indicate which instrument took the data.)
#NPOINTS     : 4096     Number of data points in the spectrum (This can be zero for configuration only files)
#NCOLUMNS    : 2     Number of data columns in the spectrum (This can be zero for configuration only files)
#XUNITS      : eV
#YUNITS      : COUNTS
#DATATYPE    : YY
#XPERCHAN    : 7.862, 7.881   eV per channel (separate by commas if more than one detector)
#OFFSET      : 18.5, -22.4         eV of first channel  (separate by commas if more than one detector
#SIGNALTYPE  : XRF
#YP_TEMP     : 2.139
#LIVETIME    : 8.58195, 8.5687   seconds (separate by commas if more than one detector)
#REALTIME    : 10, 10.0   seconds (separate by commas if more than one detector)
#SPECTRUM    : start of spectrum data
0, 0
0, 0
0, 0
0, 0
0, 0
0, 0
0, 0
0, 0
0, 0
0, 1
1, 4
43, 44
60, 56
5, 3
3, 3
88, 111
422, 480
107, 114
8, 5
0, 1
4, 0
2, 1
5, 1
10, 8
44, 28
51, 38
18, 23
14, 23
4, 6
1, 2
2, 10
2, 0
6, 5
43, 43
56, 58
29, 7
39, 8
17, 9
6, 10
4, 3
10, 5
18, 15
10, 24
13, 14
10, 8
11, 8
8, 8
9, 9
15, 22
66, 62
55, 48
15, 17
9, 14
38, 63
63, 77
20, 32
25, 45
440, 581
2037, 2459
1535, 1409
186, 143
20, 18
20, 31
108, 162
313, 355
217, 208
25, 16
10, 7
10, 15
10, 12
13, 5
21, 3
21, 5
8, 2
10, 10
5, 11
5, 2
3, 4
4, 5
3, 4
3, 1
9, 3
8, 2
9, 2
3, 5
7, 1
9, 1
8, 2
1, 2
6, 4
1, 4
3, 2
3, 6
4, 5
5, 3
2, 5
2, 5
1, 3
3, 1
3, 5
1, 2
3, 2
2, 0
1, 1
3, 5
2, 4
0, 2
0, 1
3, 2
1, 1
2, 3
0, 3
2, 4
0, 2
2, 3
2, 5
4, 6
3, 4
5, 1
0, 0
2, 2
6, 5
2, 2
0, 3
1, 0
1, 2
2, 1
3, 1
1, 0
1, 0
0, 2
3, 1
0, 0
0, 2
0, 0
0, 2
0, 0
1, 0
0, 0
2, 2
1, 0
0, 1
0, 3
1, 0
1, 0
0, 1
0, 1
1, 0
2, 2
0, 0
0, 0
1, 1
0, 0
1, 0
0, 1
0, 0
0, 0
1, 0
1, 0
0, 0
0, 0
1, 0
0, 0
0, 0
0, 0
0, 0
1, 0
0, 0
0, 2
0, 0
1, 0
0, 0
0, 0
0, 0
0, 0
0, 0
0, 0
1, 0
0, 1
0, 0
0, 0
0, 0
0, 0
0, 0
0, 0
0, 0
0, 0
0, 0
0, 0
0, 0
0, 0
0, 1
0, 0
0, 0
0, 0
0, 0
0, 0
0, 0
0, 0
0, 0
0, 0
0, 0
1, 0
0, 0
0, 0
0, 0
0, 0
0, 0
0, 0
0, 0
0, 0
0, 0
0, 0
0, 0
0, 0
0, 0
0, 0
0, 0
0, 0
0, 0
0, 0
0, 0
0, 0
0, 0
0, 0
0, 0
0, 0
0, 0
0, 0
0, 0
0, 0
0, 0
0, 0
0, 0
0, 0
0, 0
0, 0
0, 0
0, 0
0, 0
0, 0
0, 0
0, 0
0, 0
0, 0
0, 0
0, 0
0, 0
0, 0
0, 0
0, 0
0, 0
0, 0
0, 0
0, 0
0, 0
0, 0
0, 0
0, 0
0, 0
0, 0
0, 0
0, 0
0, 0
0, 0
0, 0
0, 0
0, 0
0, 0
0, 0
0, 0
0, 0
0, 0
0, 0
0, 0
0, 0
0, 0
0, 0
0, 0
0, 0
0, 0
0, 0
0, 0
0, 0
0, 0
0, 0
0, 0
0, 0
0, 0
0, 0
0, 0
0, 0
0, 0
0, 0
#ENDOFDATA     end of spectrum data