File: host_upload/06-09-2024/ps_0852/dump3/ps__0852shot_2337.msa
#FORMAT      : EMSA/MAS spectral data file
#VERSION     : TC202v2.0 PIXL
#TITLE       : N/A
#DATE        :       Date in the format DD-MMM-YYYY, for example 07-JUL-2010
#TIME        :             The time of day at which the spectrum was recorded, in 24-hour format
#OWNER       : PIXL Flight Model       (PIXL will use this to indicate which instrument took the data.)
#NPOINTS     : 4096     Number of data points in the spectrum (This can be zero for configuration only files)
#NCOLUMNS    : 2     Number of data columns in the spectrum (This can be zero for configuration only files)
#XUNITS      : eV
#YUNITS      : COUNTS
#DATATYPE    : YY
#XPERCHAN    : 7.862, 7.881   eV per channel (separate by commas if more than one detector)
#OFFSET      : 18.5, -22.4         eV of first channel  (separate by commas if more than one detector
#SIGNALTYPE  : XRF
#YP_TEMP     : 2.364
#LIVETIME    : 8.5694, 8.54634   seconds (separate by commas if more than one detector)
#REALTIME    : 10, 10.0   seconds (separate by commas if more than one detector)
#SPECTRUM    : start of spectrum data
0, 0
0, 0
0, 0
0, 0
0, 0
0, 0
0, 0
0, 1
0, 2
1, 3
3, 1
37, 36
55, 63
6, 0
7, 3
83, 63
340, 352
71, 82
6, 3
7, 11
73, 67
350, 394
137, 158
44, 40
71, 60
57, 63
26, 36
16, 12
2, 9
5, 5
13, 10
3, 6
7, 3
13, 10
23, 18
4, 1
2, 1
4, 3
9, 13
7, 10
4, 6
9, 23
15, 30
16, 12
8, 19
7, 66
3, 31
8, 12
8, 7
26, 7
16, 14
10, 7
8, 10
36, 52
67, 72
24, 29
25, 38
473, 622
2135, 2359
1655, 1375
253, 119
18, 13
23, 25
108, 103
342, 375
228, 205
27, 28
8, 18
20, 28
17, 10
20, 3
10, 1
7, 3
3, 5
4, 2
6, 17
6, 13
5, 6
3, 7
10, 4
5, 4
4, 3
2, 4
5, 6
5, 6
5, 4
1, 1
1, 1
8, 3
5, 9
3, 13
5, 6
4, 1
4, 6
3, 3
0, 2
4, 2
2, 4
4, 0
6, 2
2, 2
5, 0
3, 2
1, 5
4, 2
3, 3
1, 5
4, 3
1, 0
0, 2
0, 4
0, 2
3, 8
3, 2
4, 3
1, 3
1, 2
9, 1
0, 6
2, 1
0, 0
3, 3
3, 1
3, 3
2, 2
2, 3
1, 0
0, 1
0, 0
1, 0
0, 2
0, 1
1, 0
1, 1
0, 1
0, 0
0, 0
0, 1
2, 1
1, 0
0, 3
0, 0
0, 1
0, 0
1, 1
0, 0
1, 0
0, 1
0, 0
0, 0
1, 1
0, 0
0, 0
0, 0
0, 0
0, 0
1, 0
0, 0
0, 0
0, 0
0, 0
0, 0
2, 0
0, 0
0, 1
0, 1
0, 1
0, 0
1, 0
1, 0
0, 2
0, 0
0, 0
0, 1
0, 0
0, 0
0, 0
0, 0
0, 0
0, 0
0, 1
0, 1
0, 0
0, 0
0, 0
0, 0
0, 0
0, 1
0, 0
0, 0
0, 0
0, 0
0, 0
0, 0
0, 0
0, 0
0, 0
0, 0
0, 0
0, 0
0, 0
0, 0
0, 0
0, 0
0, 0
0, 0
0, 0
0, 0
0, 0
0, 0
0, 0
0, 0
0, 0
0, 0
0, 0
0, 0
0, 0
0, 0
0, 0
0, 0
0, 0
0, 0
0, 0
0, 0
0, 0
0, 0
0, 0
0, 0
0, 0
0, 0
0, 0
0, 0
0, 0
0, 0
0, 0
0, 0
0, 0
0, 0
0, 0
0, 0
0, 0
0, 0
0, 0
0, 0
0, 0
0, 0
0, 0
0, 0
0, 0
0, 0
0, 0
0, 0
0, 0
0, 0
0, 0
0, 0
0, 0
0, 0
0, 0
0, 0
0, 0
0, 0
0, 0
0, 0
0, 0
0, 0
0, 0
0, 0
0, 0
0, 0
0, 0
0, 0
0, 0
0, 0
0, 0
0, 0
0, 0
0, 0
0, 0
0, 0
0, 0
0, 0
0, 0
0, 0
0, 0
0, 0
0, 0
0, 0
0, 0
0, 0
0, 0
0, 0
0, 0
0, 0
#ENDOFDATA     end of spectrum data