File: host_upload/06-09-2024/ps_0852/dump3/ps__0852shot_2459.msa
#FORMAT      : EMSA/MAS spectral data file
#VERSION     : TC202v2.0 PIXL
#TITLE       : N/A
#DATE        :       Date in the format DD-MMM-YYYY, for example 07-JUL-2010
#TIME        :             The time of day at which the spectrum was recorded, in 24-hour format
#OWNER       : PIXL Flight Model       (PIXL will use this to indicate which instrument took the data.)
#NPOINTS     : 4096     Number of data points in the spectrum (This can be zero for configuration only files)
#NCOLUMNS    : 2     Number of data columns in the spectrum (This can be zero for configuration only files)
#XUNITS      : eV
#YUNITS      : COUNTS
#DATATYPE    : YY
#XPERCHAN    : 7.862, 7.881   eV per channel (separate by commas if more than one detector)
#OFFSET      : 18.5, -22.4         eV of first channel  (separate by commas if more than one detector
#SIGNALTYPE  : XRF
#YP_TEMP     : 2.075
#LIVETIME    : 8.56959, 8.37179   seconds (separate by commas if more than one detector)
#REALTIME    : 10, 10.0   seconds (separate by commas if more than one detector)
#SPECTRUM    : start of spectrum data
0, 0
0, 0
0, 0
0, 0
0, 0
0, 0
0, 0
0, 0
0, 2
1, 1
1, 3
57, 61
68, 55
7, 3
3, 7
84, 96
484, 449
98, 96
3, 3
1, 1
1, 1
4, 9
7, 3
16, 8
25, 18
26, 31
15, 14
14, 15
4, 2
6, 1
3, 1
2, 2
2, 4
6, 13
15, 19
6, 1
3, 4
10, 6
1, 1
0, 5
2, 4
11, 11
9, 13
14, 11
1, 3
2, 3
3, 7
6, 8
9, 5
43, 17
110, 8
48, 9
18, 11
61, 34
117, 58
51, 15
29, 45
451, 611
2167, 2407
1577, 1349
205, 147
14, 11
21, 22
94, 104
327, 330
202, 222
28, 29
5, 9
13, 16
8, 6
3, 3
4, 11
7, 13
2, 3
6, 5
5, 6
3, 3
7, 3
4, 6
10, 8
18, 5
34, 7
22, 8
8, 11
6, 8
5, 3
4, 3
0, 6
4, 7
4, 5
4, 4
5, 3
4, 5
3, 3
3, 2
1, 5
1, 3
2, 3
7, 4
9, 1
9, 2
3, 1
1, 3
2, 3
3, 5
2, 3
1, 2
1, 4
2, 1
1, 2
2, 0
3, 0
2, 2
5, 2
6, 1
4, 4
5, 4
4, 3
0, 4
1, 1
2, 5
1, 1
1, 4
3, 1
2, 2
1, 0
0, 1
1, 1
1, 0
0, 0
3, 0
1, 1
0, 1
1, 0
2, 2
0, 1
1, 0
2, 0
1, 0
0, 1
3, 2
1, 0
0, 0
1, 1
0, 2
0, 1
0, 0
0, 0
0, 0
0, 0
0, 1
0, 0
0, 0
0, 0
0, 0
1, 1
0, 1
0, 0
0, 0
0, 0
0, 0
2, 0
1, 1
0, 0
0, 0
0, 0
0, 0
0, 0
0, 0
0, 0
0, 0
0, 0
0, 0
0, 0
0, 0
0, 1
0, 1
1, 0
0, 0
0, 0
0, 0
0, 0
0, 0
0, 1
0, 0
0, 0
1, 0
0, 0
0, 0
0, 0
0, 0
0, 0
0, 0
0, 1
0, 0
0, 0
0, 0
0, 0
0, 0
0, 0
0, 1
0, 0
0, 0
0, 0
0, 0
0, 0
0, 0
0, 0
0, 0
0, 0
0, 0
0, 0
1, 0
0, 0
0, 0
0, 0
0, 0
0, 0
0, 0
0, 0
0, 0
0, 0
0, 0
0, 0
0, 0
0, 0
0, 0
0, 0
0, 0
0, 0
0, 0
1, 0
0, 0
0, 0
0, 0
0, 0
0, 0
0, 0
0, 0
0, 0
0, 0
0, 0
0, 0
0, 0
0, 0
0, 0
0, 0
0, 0
0, 0
0, 0
0, 0
0, 0
0, 0
0, 0
0, 0
0, 0
0, 0
0, 0
0, 0
0, 0
0, 0
0, 0
0, 0
0, 0
0, 0
0, 0
0, 0
0, 0
0, 0
0, 0
0, 0
0, 0
0, 0
0, 0
0, 0
0, 0
0, 0
0, 0
0, 0
0, 0
0, 0
0, 0
0, 0
0, 0
0, 0
0, 0
0, 0
0, 0
0, 0
0, 0
0, 0
0, 0
0, 0
0, 0
#ENDOFDATA     end of spectrum data