File: host_upload/06-09-2024/ps_0852/dump3/ps__0852shot_2506.msa
#FORMAT      : EMSA/MAS spectral data file
#VERSION     : TC202v2.0 PIXL
#TITLE       : N/A
#DATE        :       Date in the format DD-MMM-YYYY, for example 07-JUL-2010
#TIME        :             The time of day at which the spectrum was recorded, in 24-hour format
#OWNER       : PIXL Flight Model       (PIXL will use this to indicate which instrument took the data.)
#NPOINTS     : 4096     Number of data points in the spectrum (This can be zero for configuration only files)
#NCOLUMNS    : 2     Number of data columns in the spectrum (This can be zero for configuration only files)
#XUNITS      : eV
#YUNITS      : COUNTS
#DATATYPE    : YY
#XPERCHAN    : 7.862, 7.881   eV per channel (separate by commas if more than one detector)
#OFFSET      : 18.5, -22.4         eV of first channel  (separate by commas if more than one detector
#SIGNALTYPE  : XRF
#YP_TEMP     : 2.364
#LIVETIME    : 8.55933, 8.55629   seconds (separate by commas if more than one detector)
#REALTIME    : 10, 10.0   seconds (separate by commas if more than one detector)
#SPECTRUM    : start of spectrum data
0, 0
0, 0
0, 0
0, 0
0, 0
0, 0
0, 0
0, 0
1, 0
5, 1
3, 1
37, 52
66, 43
2, 1
5, 4
106, 84
447, 361
106, 75
2, 5
3, 0
5, 7
16, 15
4, 8
4, 3
29, 24
52, 29
37, 67
15, 50
4, 6
2, 4
4, 3
3, 3
5, 1
17, 14
19, 14
4, 1
3, 5
4, 9
6, 12
4, 1
5, 2
11, 11
13, 11
14, 6
7, 1
3, 6
3, 4
4, 8
3, 6
27, 9
37, 7
44, 6
16, 27
55, 30
64, 62
27, 21
40, 38
494, 559
2272, 2190
1524, 1253
202, 130
14, 14
18, 16
94, 105
323, 334
232, 210
31, 28
11, 15
19, 19
20, 3
8, 2
5, 5
2, 5
3, 3
6, 11
2, 19
5, 10
7, 14
4, 16
6, 5
3, 2
5, 0
4, 4
2, 5
3, 4
0, 6
3, 3
3, 1
3, 2
6, 0
5, 4
4, 0
3, 2
4, 3
4, 1
4, 3
3, 2
1, 4
3, 5
5, 1
4, 1
3, 5
5, 0
3, 3
0, 0
2, 3
1, 3
2, 1
4, 4
0, 2
3, 0
0, 2
3, 2
2, 1
2, 2
2, 3
3, 7
7, 0
0, 2
2, 0
3, 1
3, 3
1, 2
3, 1
2, 0
1, 1
0, 0
1, 0
2, 3
0, 2
2, 0
0, 2
0, 2
1, 1
0, 0
0, 1
2, 1
3, 0
1, 0
1, 0
0, 4
0, 2
2, 0
0, 0
1, 0
1, 0
0, 0
0, 2
0, 0
2, 0
0, 0
1, 1
0, 0
0, 1
1, 0
0, 0
0, 0
0, 2
0, 0
0, 0
0, 0
0, 0
2, 1
0, 0
0, 1
0, 2
1, 0
0, 0
1, 1
0, 0
0, 1
0, 0
1, 1
0, 0
0, 0
0, 0
0, 1
0, 0
0, 0
0, 0
0, 0
0, 0
0, 0
0, 0
0, 1
0, 0
0, 0
0, 0
0, 0
0, 0
0, 0
0, 0
0, 0
0, 0
0, 0
0, 0
0, 0
0, 0
0, 0
0, 0
0, 0
0, 0
0, 0
0, 0
1, 0
0, 0
0, 0
0, 0
0, 0
0, 0
0, 0
0, 0
0, 0
0, 0
0, 0
0, 0
0, 0
0, 0
0, 0
1, 0
0, 0
0, 0
0, 0
0, 0
0, 0
0, 0
0, 0
0, 0
0, 0
0, 0
0, 0
0, 0
0, 0
0, 0
0, 0
0, 0
0, 0
0, 0
0, 0
0, 0
0, 0
0, 0
0, 0
0, 0
0, 0
0, 0
0, 0
0, 0
0, 0
0, 0
0, 0
0, 0
0, 0
0, 0
0, 0
0, 0
0, 0
0, 0
0, 0
0, 0
0, 0
0, 0
0, 0
0, 0
0, 0
0, 0
0, 0
0, 0
0, 0
0, 0
0, 0
0, 0
0, 0
0, 0
0, 0
0, 0
0, 0
0, 0
0, 0
0, 0
0, 0
0, 0
0, 0
0, 0
0, 0
0, 0
0, 0
0, 0
0, 0
0, 0
0, 0
0, 0
0, 0
0, 0
#ENDOFDATA     end of spectrum data