File: host_upload/06-09-2024/ps_0852/dump3/ps__0852shot_2161.msa
#FORMAT      : EMSA/MAS spectral data file
#VERSION     : TC202v2.0 PIXL
#TITLE       : N/A
#DATE        :       Date in the format DD-MMM-YYYY, for example 07-JUL-2010
#TIME        :             The time of day at which the spectrum was recorded, in 24-hour format
#OWNER       : PIXL Flight Model       (PIXL will use this to indicate which instrument took the data.)
#NPOINTS     : 4096     Number of data points in the spectrum (This can be zero for configuration only files)
#NCOLUMNS    : 2     Number of data columns in the spectrum (This can be zero for configuration only files)
#XUNITS      : eV
#YUNITS      : COUNTS
#DATATYPE    : YY
#XPERCHAN    : 7.862, 7.881   eV per channel (separate by commas if more than one detector)
#OFFSET      : 18.5, -22.4         eV of first channel  (separate by commas if more than one detector
#SIGNALTYPE  : XRF
#YP_TEMP     : 2.332
#LIVETIME    : 8.56087, 8.55625   seconds (separate by commas if more than one detector)
#REALTIME    : 10, 10.0   seconds (separate by commas if more than one detector)
#SPECTRUM    : start of spectrum data
0, 0
0, 0
0, 0
0, 0
0, 0
0, 0
0, 0
0, 0
0, 1
0, 4
2, 1
37, 36
39, 40
6, 7
5, 7
48, 71
260, 290
63, 92
7, 5
8, 2
48, 62
336, 378
156, 164
61, 53
101, 133
97, 92
41, 49
14, 22
11, 7
8, 6
4, 11
3, 2
1, 5
19, 19
38, 28
10, 12
4, 10
8, 10
5, 18
2, 8
6, 5
8, 13
9, 18
12, 7
6, 9
6, 29
8, 22
7, 6
9, 13
30, 14
49, 35
37, 17
11, 21
37, 54
60, 67
21, 19
26, 34
429, 607
2049, 2336
1504, 1551
185, 164
21, 22
29, 22
103, 132
328, 379
244, 196
34, 21
10, 9
14, 10
51, 5
40, 2
14, 7
6, 4
6, 5
7, 9
2, 2
0, 5
6, 6
6, 3
5, 4
6, 4
7, 7
7, 3
4, 9
3, 9
4, 10
3, 5
5, 7
7, 4
3, 9
4, 15
6, 12
7, 1
2, 3
3, 7
2, 6
2, 3
0, 3
1, 6
3, 3
7, 1
7, 0
5, 2
2, 1
2, 4
2, 4
3, 5
1, 0
3, 2
2, 2
2, 0
3, 0
3, 0
2, 2
1, 0
4, 1
4, 2
1, 4
3, 3
1, 2
0, 2
1, 5
1, 1
1, 1
0, 4
0, 0
0, 2
1, 3
0, 2
1, 0
2, 0
0, 1
2, 2
0, 0
0, 0
2, 1
2, 0
0, 0
2, 0
1, 0
0, 3
0, 1
0, 0
0, 0
0, 0
0, 1
0, 0
1, 0
0, 0
1, 0
0, 2
0, 1
0, 0
0, 0
2, 0
1, 0
0, 0
0, 0
0, 0
1, 1
1, 0
0, 0
0, 0
0, 2
0, 0
0, 0
0, 0
0, 0
0, 0
0, 1
1, 0
0, 0
0, 0
1, 1
1, 1
0, 0
0, 0
0, 0
0, 1
0, 0
0, 0
1, 0
0, 0
0, 0
0, 0
0, 0
0, 0
0, 0
0, 1
0, 0
2, 0
0, 0
0, 0
0, 0
0, 0
0, 0
0, 0
0, 0
0, 0
0, 0
0, 0
0, 0
0, 0
0, 0
0, 0
0, 0
0, 0
0, 0
0, 0
0, 0
0, 0
0, 0
0, 0
0, 0
0, 0
0, 0
0, 0
0, 0
0, 0
0, 0
0, 0
0, 0
0, 0
0, 0
0, 0
0, 0
0, 0
0, 0
0, 0
0, 0
1, 0
0, 0
0, 0
0, 0
0, 0
0, 0
0, 0
0, 0
0, 0
0, 0
0, 0
0, 0
0, 0
0, 0
0, 0
0, 0
0, 0
0, 0
0, 0
0, 0
0, 0
0, 0
0, 0
0, 0
0, 0
0, 0
0, 0
0, 0
0, 0
0, 0
0, 0
0, 0
0, 0
0, 0
0, 0
0, 0
0, 0
0, 0
0, 0
0, 0
0, 0
0, 0
0, 0
0, 0
0, 0
0, 0
0, 0
0, 0
0, 0
0, 0
0, 0
0, 0
0, 0
0, 0
0, 0
0, 0
0, 0
0, 0
0, 0
0, 0
0, 0
0, 0
0, 0
0, 0
#ENDOFDATA     end of spectrum data