File: host_upload/06-09-2024/ps_0852/dump3/ps__0852shot_2111.msa
#FORMAT      : EMSA/MAS spectral data file
#VERSION     : TC202v2.0 PIXL
#TITLE       : N/A
#DATE        :       Date in the format DD-MMM-YYYY, for example 07-JUL-2010
#TIME        :             The time of day at which the spectrum was recorded, in 24-hour format
#OWNER       : PIXL Flight Model       (PIXL will use this to indicate which instrument took the data.)
#NPOINTS     : 4096     Number of data points in the spectrum (This can be zero for configuration only files)
#NCOLUMNS    : 2     Number of data columns in the spectrum (This can be zero for configuration only files)
#XUNITS      : eV
#YUNITS      : COUNTS
#DATATYPE    : YY
#XPERCHAN    : 7.862, 7.881   eV per channel (separate by commas if more than one detector)
#OFFSET      : 18.5, -22.4         eV of first channel  (separate by commas if more than one detector
#SIGNALTYPE  : XRF
#YP_TEMP     : 2.396
#LIVETIME    : 8.54131, 8.533   seconds (separate by commas if more than one detector)
#REALTIME    : 10, 10.0   seconds (separate by commas if more than one detector)
#SPECTRUM    : start of spectrum data
0, 0
0, 0
0, 0
0, 0
0, 0
0, 0
0, 0
0, 1
2, 0
1, 2
4, 2
37, 39
48, 43
4, 7
9, 7
56, 89
292, 360
56, 72
5, 2
5, 7
47, 58
265, 296
114, 123
61, 36
104, 91
57, 74
28, 32
13, 18
8, 7
2, 5
2, 9
1, 5
5, 5
29, 25
26, 45
15, 9
8, 7
5, 20
8, 24
4, 14
3, 4
7, 20
9, 13
13, 11
4, 5
6, 20
12, 11
5, 13
6, 10
10, 16
20, 26
14, 9
8, 22
36, 63
46, 66
21, 38
30, 28
374, 642
1808, 2469
1360, 1466
177, 157
18, 19
25, 31
81, 124
254, 366
208, 178
26, 20
7, 10
18, 13
24, 9
5, 2
6, 1
5, 6
4, 8
2, 11
3, 13
4, 20
8, 15
3, 2
2, 5
7, 2
5, 2
3, 6
5, 5
2, 3
4, 7
2, 3
2, 4
1, 3
2, 10
4, 6
6, 2
7, 6
5, 3
4, 2
2, 3
3, 4
1, 3
1, 1
4, 2
4, 2
1, 2
4, 6
1, 4
2, 4
0, 3
4, 1
1, 5
1, 3
0, 1
0, 4
3, 1
0, 5
2, 3
2, 0
4, 4
6, 4
7, 4
2, 4
1, 1
0, 2
0, 0
5, 1
1, 1
3, 0
1, 1
0, 3
2, 0
0, 3
0, 1
0, 2
2, 0
1, 1
0, 0
0, 0
1, 0
1, 1
1, 0
1, 1
2, 1
0, 0
1, 0
0, 1
0, 0
0, 1
1, 0
0, 2
1, 1
0, 2
0, 2
0, 0
0, 0
0, 0
2, 0
0, 1
0, 0
0, 2
0, 0
0, 0
0, 0
0, 0
0, 0
2, 0
0, 1
1, 0
0, 0
0, 0
0, 2
1, 0
1, 1
0, 0
0, 0
1, 0
0, 0
0, 1
0, 0
0, 0
0, 0
0, 1
0, 0
0, 0
0, 0
0, 2
1, 0
0, 0
0, 1
0, 0
1, 0
0, 1
0, 0
0, 0
0, 0
0, 0
0, 0
0, 0
0, 0
0, 0
0, 0
0, 0
0, 0
0, 0
0, 0
0, 0
0, 0
1, 0
0, 0
0, 0
0, 0
0, 0
0, 0
0, 0
0, 0
0, 0
0, 0
0, 0
0, 0
0, 0
0, 0
0, 0
0, 0
0, 0
0, 0
0, 0
0, 0
0, 0
0, 0
0, 0
0, 0
0, 0
0, 0
0, 0
0, 0
0, 0
0, 0
0, 0
0, 0
0, 0
0, 0
0, 0
0, 0
0, 0
0, 0
0, 0
0, 0
0, 0
0, 0
0, 0
0, 0
0, 0
0, 0
0, 0
0, 0
0, 0
0, 0
0, 0
0, 0
0, 0
0, 0
0, 0
0, 0
0, 0
0, 0
0, 0
0, 0
0, 0
0, 0
0, 0
0, 0
0, 0
0, 0
0, 0
0, 0
0, 0
0, 0
0, 0
0, 0
0, 0
0, 0
0, 0
0, 0
0, 0
0, 0
0, 0
0, 0
0, 0
0, 0
0, 0
0, 0
0, 0
0, 0
0, 0
0, 0
0, 0
0, 0
#ENDOFDATA     end of spectrum data