File: host_upload/06-09-2024/ps_0852/dump3/ps__0852shot_2088.msa
#FORMAT      : EMSA/MAS spectral data file
#VERSION     : TC202v2.0 PIXL
#TITLE       : N/A
#DATE        :       Date in the format DD-MMM-YYYY, for example 07-JUL-2010
#TIME        :             The time of day at which the spectrum was recorded, in 24-hour format
#OWNER       : PIXL Flight Model       (PIXL will use this to indicate which instrument took the data.)
#NPOINTS     : 4096     Number of data points in the spectrum (This can be zero for configuration only files)
#NCOLUMNS    : 2     Number of data columns in the spectrum (This can be zero for configuration only files)
#XUNITS      : eV
#YUNITS      : COUNTS
#DATATYPE    : YY
#XPERCHAN    : 7.862, 7.881   eV per channel (separate by commas if more than one detector)
#OFFSET      : 18.5, -22.4         eV of first channel  (separate by commas if more than one detector
#SIGNALTYPE  : XRF
#YP_TEMP     : 2.428
#LIVETIME    : 8.58012, 8.36788   seconds (separate by commas if more than one detector)
#REALTIME    : 10, 10.0   seconds (separate by commas if more than one detector)
#SPECTRUM    : start of spectrum data
0, 0
0, 0
0, 0
0, 0
0, 0
0, 0
0, 0
0, 0
1, 3
6, 2
3, 0
46, 54
59, 54
8, 7
3, 4
95, 85
446, 379
101, 72
8, 5
2, 0
2, 1
8, 3
4, 6
30, 5
259, 111
437, 173
83, 38
14, 13
7, 5
1, 3
2, 1
2, 1
2, 1
20, 10
24, 18
9, 4
32, 7
50, 17
16, 5
3, 2
5, 5
9, 13
12, 17
16, 9
3, 6
7, 2
6, 5
13, 6
15, 9
14, 15
28, 9
22, 11
16, 20
31, 41
60, 53
18, 23
22, 48
502, 531
2247, 2203
1596, 1277
239, 151
58, 25
46, 27
92, 107
347, 313
228, 189
37, 25
7, 9
14, 15
9, 14
5, 4
4, 5
8, 2
9, 9
8, 10
8, 5
10, 1
2, 7
3, 3
2, 6
6, 6
5, 4
5, 0
4, 2
7, 1
10, 5
5, 5
6, 5
2, 3
4, 2
2, 1
1, 1
0, 4
5, 1
2, 1
1, 2
4, 1
5, 6
5, 5
5, 3
3, 1
3, 0
1, 2
1, 3
1, 0
0, 3
0, 3
4, 2
2, 0
4, 2
6, 0
3, 3
4, 2
5, 4
1, 1
2, 2
4, 4
2, 4
2, 1
2, 2
0, 3
4, 0
3, 3
2, 2
1, 0
2, 2
1, 2
1, 1
0, 2
2, 1
0, 0
0, 1
0, 0
0, 1
1, 1
2, 1
1, 0
2, 3
0, 1
0, 0
0, 2
1, 0
0, 1
1, 0
0, 1
1, 0
1, 0
0, 0
0, 0
0, 1
0, 0
0, 0
1, 0
0, 0
0, 0
0, 0
0, 0
0, 2
0, 0
0, 0
0, 0
0, 0
0, 0
0, 0
0, 1
1, 2
0, 0
0, 0
1, 1
1, 1
1, 1
0, 0
0, 0
1, 0
0, 0
0, 0
0, 0
0, 1
0, 0
0, 0
0, 0
0, 0
0, 0
0, 0
0, 0
1, 0
0, 0
0, 0
0, 0
1, 0
0, 0
0, 0
0, 0
0, 0
0, 0
1, 0
0, 0
0, 0
0, 0
0, 0
0, 0
0, 0
0, 0
0, 0
0, 0
0, 0
0, 0
0, 0
0, 0
0, 0
0, 0
0, 0
0, 0
0, 0
0, 0
0, 0
0, 0
0, 0
0, 0
0, 0
0, 0
0, 0
0, 0
0, 0
1, 0
0, 0
0, 0
0, 0
0, 0
0, 0
0, 0
0, 0
0, 0
0, 0
0, 0
0, 0
0, 0
0, 0
0, 0
0, 0
0, 0
0, 0
0, 0
0, 0
0, 0
0, 0
0, 0
0, 0
0, 0
0, 0
0, 0
0, 0
0, 0
0, 0
0, 0
0, 0
0, 0
0, 0
0, 0
0, 0
0, 0
0, 0
0, 0
0, 0
0, 0
0, 0
0, 0
0, 0
0, 0
0, 0
0, 0
0, 0
0, 0
0, 0
0, 0
0, 0
0, 0
0, 0
0, 0
0, 0
0, 0
0, 0
0, 0
0, 0
0, 0
0, 0
0, 0
0, 0
0, 0
0, 0
0, 0
0, 0
0, 0
0, 0
#ENDOFDATA     end of spectrum data