File: host_upload/06-09-2024/ps_0852/dump3/ps__0852shot_2237.msa
#FORMAT      : EMSA/MAS spectral data file
#VERSION     : TC202v2.0 PIXL
#TITLE       : N/A
#DATE        :       Date in the format DD-MMM-YYYY, for example 07-JUL-2010
#TIME        :             The time of day at which the spectrum was recorded, in 24-hour format
#OWNER       : PIXL Flight Model       (PIXL will use this to indicate which instrument took the data.)
#NPOINTS     : 4096     Number of data points in the spectrum (This can be zero for configuration only files)
#NCOLUMNS    : 2     Number of data columns in the spectrum (This can be zero for configuration only files)
#XUNITS      : eV
#YUNITS      : COUNTS
#DATATYPE    : YY
#XPERCHAN    : 7.862, 7.881   eV per channel (separate by commas if more than one detector)
#OFFSET      : 18.5, -22.4         eV of first channel  (separate by commas if more than one detector
#SIGNALTYPE  : XRF
#YP_TEMP     : 2.332
#LIVETIME    : 8.54415, 8.5199   seconds (separate by commas if more than one detector)
#REALTIME    : 10, 10.0   seconds (separate by commas if more than one detector)
#SPECTRUM    : start of spectrum data
0, 0
0, 0
0, 0
0, 0
0, 0
0, 0
0, 0
0, 0
0, 0
0, 0
1, 3
50, 43
62, 59
7, 6
6, 7
84, 97
467, 403
105, 108
2, 2
1, 2
2, 4
7, 5
3, 3
2, 3
25, 17
53, 19
25, 24
16, 12
4, 8
4, 4
4, 5
1, 5
2, 1
10, 11
15, 15
12, 3
5, 5
8, 5
16, 2
37, 4
55, 2
27, 9
16, 13
15, 21
6, 10
5, 8
6, 8
5, 10
8, 8
14, 18
21, 13
32, 8
53, 7
117, 41
89, 61
19, 22
30, 38
465, 562
2290, 2208
1661, 1341
184, 142
17, 18
24, 25
99, 141
334, 363
240, 169
43, 23
12, 3
17, 15
15, 7
3, 5
5, 3
6, 8
3, 3
8, 4
14, 7
16, 5
2, 7
17, 7
10, 5
16, 13
2, 16
5, 2
3, 4
2, 4
4, 2
2, 2
5, 10
2, 7
6, 7
3, 6
8, 2
13, 13
10, 17
4, 15
4, 3
2, 5
1, 4
1, 3
5, 3
1, 1
2, 0
3, 0
3, 0
4, 1
2, 1
4, 4
1, 3
1, 2
2, 6
0, 1
1, 2
1, 2
2, 0
3, 1
2, 6
4, 6
3, 4
5, 4
0, 1
2, 2
1, 0
0, 6
1, 0
2, 1
2, 1
1, 0
4, 2
2, 1
0, 1
1, 1
0, 2
0, 0
0, 1
0, 1
0, 1
0, 1
0, 2
0, 1
0, 0
2, 1
2, 0
1, 0
1, 0
2, 0
2, 3
0, 0
0, 2
0, 0
0, 1
0, 1
0, 0
0, 0
0, 0
1, 1
0, 2
0, 0
0, 0
0, 0
1, 0
0, 0
1, 0
0, 0
2, 1
0, 0
0, 0
0, 0
0, 0
1, 0
0, 0
0, 0
0, 0
0, 0
0, 0
0, 0
0, 0
0, 1
0, 0
0, 0
0, 0
1, 0
0, 0
0, 1
0, 0
0, 0
0, 0
0, 0
0, 0
0, 0
0, 0
0, 0
0, 0
0, 0
0, 0
0, 2
0, 0
0, 0
0, 0
0, 0
0, 0
0, 0
0, 0
0, 0
0, 0
0, 0
0, 0
0, 0
0, 0
0, 0
0, 0
0, 0
0, 0
1, 0
0, 0
0, 0
0, 0
0, 0
0, 0
0, 0
0, 0
0, 0
0, 0
0, 0
0, 0
0, 0
0, 0
0, 0
0, 0
0, 0
0, 0
0, 0
0, 0
0, 0
0, 0
0, 0
0, 0
0, 0
0, 0
0, 0
0, 0
0, 0
0, 0
0, 0
0, 0
0, 0
0, 0
0, 0
0, 0
0, 0
0, 0
0, 0
0, 0
0, 0
0, 0
0, 0
0, 0
0, 0
0, 0
0, 0
0, 0
0, 0
0, 0
0, 0
0, 0
0, 0
0, 0
0, 0
0, 0
0, 0
0, 0
0, 0
0, 0
0, 0
0, 0
0, 0
0, 0
0, 0
0, 0
0, 0
0, 0
0, 0
0, 0
0, 0
0, 0
0, 0
0, 0
0, 0
0, 0
0, 0
0, 0
0, 0
0, 0
0, 0
0, 0
#ENDOFDATA     end of spectrum data