File: host_upload/06-09-2024/ps_0852/dump3/ps__0852shot_2209.msa
#FORMAT      : EMSA/MAS spectral data file
#VERSION     : TC202v2.0 PIXL
#TITLE       : N/A
#DATE        :       Date in the format DD-MMM-YYYY, for example 07-JUL-2010
#TIME        :             The time of day at which the spectrum was recorded, in 24-hour format
#OWNER       : PIXL Flight Model       (PIXL will use this to indicate which instrument took the data.)
#NPOINTS     : 4096     Number of data points in the spectrum (This can be zero for configuration only files)
#NCOLUMNS    : 2     Number of data columns in the spectrum (This can be zero for configuration only files)
#XUNITS      : eV
#YUNITS      : COUNTS
#DATATYPE    : YY
#XPERCHAN    : 7.862, 7.881   eV per channel (separate by commas if more than one detector)
#OFFSET      : 18.5, -22.4         eV of first channel  (separate by commas if more than one detector
#SIGNALTYPE  : XRF
#YP_TEMP     : 2.396
#LIVETIME    : 8.55351, 8.5667   seconds (separate by commas if more than one detector)
#REALTIME    : 10, 10.0   seconds (separate by commas if more than one detector)
#SPECTRUM    : start of spectrum data
0, 0
0, 0
0, 0
0, 0
0, 0
0, 0
0, 0
0, 0
0, 0
1, 0
2, 1
41, 42
65, 60
6, 4
4, 4
87, 105
375, 413
92, 101
7, 7
1, 1
1, 2
5, 1
6, 2
9, 5
24, 17
24, 25
14, 14
17, 9
6, 5
5, 2
3, 3
0, 1
2, 4
8, 26
15, 20
6, 5
4, 2
3, 4
6, 5
27, 3
25, 6
20, 6
15, 14
15, 10
8, 5
8, 8
12, 3
10, 12
11, 14
11, 19
15, 27
13, 14
39, 9
72, 42
68, 62
28, 20
48, 41
471, 609
2008, 2380
1571, 1420
196, 174
14, 19
15, 24
104, 126
309, 357
218, 184
35, 31
12, 9
24, 18
15, 2
2, 4
2, 2
2, 3
3, 1
3, 2
5, 6
5, 4
9, 1
15, 7
15, 13
7, 7
3, 10
5, 6
3, 4
5, 1
2, 1
0, 2
1, 3
1, 3
4, 1
7, 6
5, 3
10, 4
6, 13
4, 8
2, 4
4, 3
1, 4
1, 0
0, 3
3, 5
3, 7
1, 1
3, 2
4, 1
3, 2
5, 4
0, 3
1, 0
4, 2
1, 2
2, 2
0, 3
1, 5
4, 5
2, 0
2, 4
4, 7
3, 3
1, 2
2, 2
2, 2
0, 3
4, 0
0, 1
0, 0
3, 0
2, 1
0, 0
1, 1
2, 3
0, 0
2, 3
1, 1
1, 1
0, 0
1, 3
1, 0
1, 1
2, 1
0, 0
0, 0
0, 0
1, 0
1, 1
1, 0
1, 0
1, 3
0, 2
0, 2
0, 2
3, 0
1, 0
1, 1
1, 1
1, 1
0, 0
0, 0
0, 0
0, 0
0, 1
1, 0
0, 0
0, 0
1, 0
0, 0
0, 1
1, 1
0, 0
1, 1
0, 0
0, 0
1, 0
0, 0
0, 0
1, 1
0, 0
0, 1
0, 0
0, 0
0, 0
0, 0
0, 0
1, 0
0, 0
0, 0
0, 0
0, 0
1, 0
0, 0
0, 0
0, 0
0, 0
0, 0
1, 0
0, 0
0, 0
0, 0
0, 0
0, 0
0, 0
0, 0
0, 0
0, 0
0, 0
0, 0
0, 0
0, 0
0, 0
0, 0
0, 0
0, 0
0, 0
0, 0
0, 0
0, 0
0, 0
0, 0
0, 0
0, 0
0, 0
0, 0
0, 0
0, 0
0, 0
0, 0
0, 0
0, 0
0, 0
0, 0
1, 0
0, 0
0, 0
0, 0
0, 0
0, 0
0, 0
0, 0
0, 0
0, 0
0, 0
0, 0
0, 0
0, 0
0, 0
0, 0
0, 0
0, 0
0, 0
0, 0
0, 0
0, 0
0, 0
0, 0
0, 0
0, 0
0, 0
0, 0
0, 0
0, 0
0, 0
0, 0
0, 0
0, 0
0, 0
0, 0
0, 0
0, 0
0, 0
0, 0
0, 0
0, 0
0, 0
0, 0
0, 0
0, 0
0, 0
0, 0
0, 0
0, 0
0, 0
0, 0
0, 0
0, 0
0, 0
0, 0
0, 0
0, 0
0, 0
0, 0
0, 0
0, 0
0, 0
0, 0
#ENDOFDATA     end of spectrum data