File: host_upload/06-09-2024/ps_0852/dump3/ps__0852shot_2035.msa
#FORMAT      : EMSA/MAS spectral data file
#VERSION     : TC202v2.0 PIXL
#TITLE       : N/A
#DATE        :       Date in the format DD-MMM-YYYY, for example 07-JUL-2010
#TIME        :             The time of day at which the spectrum was recorded, in 24-hour format
#OWNER       : PIXL Flight Model       (PIXL will use this to indicate which instrument took the data.)
#NPOINTS     : 4096     Number of data points in the spectrum (This can be zero for configuration only files)
#NCOLUMNS    : 2     Number of data columns in the spectrum (This can be zero for configuration only files)
#XUNITS      : eV
#YUNITS      : COUNTS
#DATATYPE    : YY
#XPERCHAN    : 7.862, 7.881   eV per channel (separate by commas if more than one detector)
#OFFSET      : 18.5, -22.4         eV of first channel  (separate by commas if more than one detector
#SIGNALTYPE  : XRF
#YP_TEMP     : 2.3
#LIVETIME    : 8.55599, 8.55957   seconds (separate by commas if more than one detector)
#REALTIME    : 10, 10.0   seconds (separate by commas if more than one detector)
#SPECTRUM    : start of spectrum data
0, 0
0, 0
0, 0
0, 0
0, 0
0, 0
0, 0
0, 0
1, 1
0, 2
2, 2
47, 37
58, 44
8, 6
3, 3
104, 85
469, 392
109, 85
13, 9
4, 1
2, 2
1, 6
3, 2
13, 10
45, 63
52, 34
36, 26
22, 8
5, 3
1, 3
2, 1
3, 4
1, 14
11, 35
19, 16
6, 5
6, 6
1, 4
4, 13
7, 9
10, 1
10, 11
12, 11
9, 14
4, 6
7, 9
6, 9
3, 13
1, 17
11, 30
22, 39
69, 20
118, 10
77, 40
54, 42
28, 19
37, 34
518, 595
2162, 2161
1641, 1304
212, 137
21, 18
18, 35
94, 120
367, 343
244, 184
38, 21
6, 10
15, 13
11, 4
6, 3
6, 1
10, 2
8, 1
11, 7
7, 2
2, 4
2, 5
5, 1
11, 6
5, 6
2, 14
11, 5
7, 2
7, 2
5, 6
5, 3
6, 2
2, 4
2, 5
8, 7
3, 5
3, 7
2, 4
2, 3
4, 4
1, 5
5, 2
1, 4
5, 3
0, 4
1, 2
3, 2
5, 4
8, 5
5, 2
2, 0
2, 1
2, 2
3, 2
4, 2
1, 2
1, 2
2, 1
3, 2
2, 1
1, 3
4, 1
2, 4
2, 1
5, 1
1, 2
3, 2
2, 2
0, 3
1, 1
3, 1
2, 3
0, 0
0, 0
1, 1
1, 3
1, 0
0, 1
3, 1
1, 0
2, 3
2, 0
1, 0
0, 2
0, 2
0, 1
1, 0
0, 0
0, 1
0, 0
1, 0
0, 0
2, 0
1, 0
1, 0
1, 0
1, 2
0, 0
2, 0
0, 2
0, 0
0, 1
0, 2
0, 0
0, 1
0, 1
1, 0
0, 0
0, 0
0, 0
1, 0
1, 0
0, 0
0, 1
1, 1
0, 0
0, 0
0, 1
0, 0
0, 0
0, 1
0, 0
0, 0
0, 0
1, 0
0, 0
0, 0
0, 0
0, 0
0, 0
0, 0
0, 0
0, 0
0, 0
1, 0
0, 0
0, 0
0, 0
0, 0
0, 0
0, 0
0, 0
1, 0
0, 0
0, 0
0, 0
0, 0
0, 0
0, 0
0, 0
0, 0
0, 0
0, 0
0, 0
0, 0
0, 0
0, 1
0, 0
0, 0
0, 0
0, 0
0, 0
0, 0
0, 0
0, 0
0, 0
0, 0
0, 0
0, 0
0, 0
0, 0
0, 0
0, 0
0, 0
0, 0
0, 0
0, 0
0, 0
0, 0
0, 0
0, 0
0, 0
0, 0
0, 0
0, 0
0, 0
0, 0
0, 0
0, 0
0, 0
0, 0
0, 0
0, 0
0, 0
0, 0
0, 0
0, 0
0, 0
0, 0
0, 0
0, 0
0, 0
0, 0
0, 0
0, 0
0, 0
0, 0
0, 0
0, 0
0, 0
0, 0
0, 0
0, 0
0, 0
0, 0
0, 0
0, 0
0, 0
0, 0
0, 0
0, 0
0, 0
0, 0
0, 0
0, 0
0, 0
0, 0
0, 0
0, 0
0, 0
0, 0
0, 0
0, 0
0, 0
0, 0
0, 0
0, 0
0, 0
#ENDOFDATA     end of spectrum data