File: host_upload/06-09-2024/ps_0852/dump3/ps__0852shot_2290.msa
#FORMAT      : EMSA/MAS spectral data file
#VERSION     : TC202v2.0 PIXL
#TITLE       : N/A
#DATE        :       Date in the format DD-MMM-YYYY, for example 07-JUL-2010
#TIME        :             The time of day at which the spectrum was recorded, in 24-hour format
#OWNER       : PIXL Flight Model       (PIXL will use this to indicate which instrument took the data.)
#NPOINTS     : 4096     Number of data points in the spectrum (This can be zero for configuration only files)
#NCOLUMNS    : 2     Number of data columns in the spectrum (This can be zero for configuration only files)
#XUNITS      : eV
#YUNITS      : COUNTS
#DATATYPE    : YY
#XPERCHAN    : 7.862, 7.881   eV per channel (separate by commas if more than one detector)
#OFFSET      : 18.5, -22.4         eV of first channel  (separate by commas if more than one detector
#SIGNALTYPE  : XRF
#YP_TEMP     : 2.46
#LIVETIME    : 8.58614, 8.58661   seconds (separate by commas if more than one detector)
#REALTIME    : 10, 10.0   seconds (separate by commas if more than one detector)
#SPECTRUM    : start of spectrum data
0, 0
0, 0
0, 0
0, 0
0, 0
0, 0
0, 0
0, 0
1, 2
2, 1
1, 2
46, 39
49, 41
11, 6
4, 10
111, 82
417, 407
95, 99
5, 4
5, 1
31, 30
168, 154
63, 61
21, 32
61, 55
48, 56
20, 27
18, 16
12, 4
1, 2
7, 3
4, 1
3, 1
16, 13
18, 26
2, 3
2, 4
5, 4
3, 4
3, 3
10, 9
12, 14
17, 12
17, 9
4, 7
8, 33
4, 6
3, 5
8, 6
10, 12
11, 17
4, 4
7, 10
34, 66
48, 91
30, 32
29, 30
510, 599
2325, 2186
1639, 1339
245, 140
27, 15
26, 16
106, 122
323, 370
254, 168
29, 17
9, 8
22, 10
19, 7
26, 5
11, 2
1, 7
4, 3
5, 3
8, 20
3, 10
1, 6
7, 2
12, 3
8, 2
1, 0
7, 5
3, 4
1, 2
4, 5
4, 1
2, 0
8, 2
4, 4
1, 4
6, 5
3, 0
4, 2
1, 0
4, 4
3, 4
3, 2
3, 3
7, 0
0, 2
2, 2
2, 2
2, 4
2, 4
3, 4
3, 6
1, 3
1, 1
4, 2
1, 2
2, 2
2, 2
2, 4
0, 2
1, 0
5, 3
3, 2
3, 3
2, 2
1, 1
3, 2
4, 4
1, 1
0, 0
0, 0
2, 0
0, 0
1, 3
2, 1
1, 0
0, 1
0, 1
1, 0
0, 0
0, 1
0, 0
1, 1
0, 2
1, 0
0, 0
0, 0
2, 0
1, 1
0, 1
0, 0
1, 0
0, 1
0, 1
1, 0
2, 1
0, 1
0, 1
1, 0
1, 2
0, 0
0, 0
0, 1
0, 0
0, 0
0, 0
1, 0
0, 0
1, 0
0, 0
0, 0
0, 0
0, 0
1, 0
0, 0
1, 2
0, 1
0, 0
1, 1
0, 0
0, 0
0, 0
0, 0
0, 0
0, 0
1, 0
0, 0
0, 0
0, 0
0, 0
0, 0
0, 0
1, 1
1, 0
0, 0
1, 0
0, 0
0, 0
0, 0
0, 0
0, 0
0, 0
0, 0
0, 0
0, 0
0, 0
0, 0
0, 0
0, 0
0, 0
0, 0
0, 0
0, 0
0, 0
0, 0
0, 0
0, 0
0, 0
0, 0
0, 0
0, 0
0, 0
1, 0
0, 0
0, 0
0, 0
0, 0
0, 0
0, 0
0, 0
0, 0
0, 0
0, 0
0, 0
0, 0
0, 0
0, 0
0, 0
0, 0
0, 0
0, 0
0, 0
0, 0
0, 0
0, 0
0, 0
0, 0
0, 0
0, 0
0, 0
0, 0
0, 0
0, 0
0, 0
0, 0
0, 0
0, 0
0, 0
0, 0
0, 0
0, 0
0, 0
0, 0
0, 0
0, 0
0, 0
0, 0
0, 0
0, 0
0, 0
0, 0
0, 0
0, 0
0, 0
0, 0
0, 0
0, 0
0, 0
0, 0
0, 0
0, 0
0, 0
0, 0
0, 0
0, 0
0, 0
0, 0
0, 0
0, 0
0, 0
0, 0
0, 0
0, 0
0, 0
0, 0
0, 0
0, 0
0, 0
0, 0
#ENDOFDATA     end of spectrum data