File: host_upload/06-09-2024/ps_0852/dump3/ps__0852shot_2486.msa
#FORMAT      : EMSA/MAS spectral data file
#VERSION     : TC202v2.0 PIXL
#TITLE       : N/A
#DATE        :       Date in the format DD-MMM-YYYY, for example 07-JUL-2010
#TIME        :             The time of day at which the spectrum was recorded, in 24-hour format
#OWNER       : PIXL Flight Model       (PIXL will use this to indicate which instrument took the data.)
#NPOINTS     : 4096     Number of data points in the spectrum (This can be zero for configuration only files)
#NCOLUMNS    : 2     Number of data columns in the spectrum (This can be zero for configuration only files)
#XUNITS      : eV
#YUNITS      : COUNTS
#DATATYPE    : YY
#XPERCHAN    : 7.862, 7.881   eV per channel (separate by commas if more than one detector)
#OFFSET      : 18.5, -22.4         eV of first channel  (separate by commas if more than one detector
#SIGNALTYPE  : XRF
#YP_TEMP     : 2.588
#LIVETIME    : 8.55849, 8.56662   seconds (separate by commas if more than one detector)
#REALTIME    : 10, 10.0   seconds (separate by commas if more than one detector)
#SPECTRUM    : start of spectrum data
0, 0
0, 0
0, 0
0, 0
0, 0
0, 0
0, 0
0, 0
1, 2
1, 3
3, 4
43, 20
48, 36
6, 4
6, 3
88, 64
431, 326
88, 81
7, 3
3, 1
9, 4
15, 14
4, 7
22, 11
93, 76
94, 79
36, 29
20, 16
11, 13
9, 3
3, 2
3, 2
7, 3
69, 49
110, 74
26, 13
29, 9
43, 10
13, 7
11, 6
2, 8
13, 11
21, 11
40, 11
97, 7
65, 3
7, 10
8, 11
16, 24
63, 45
51, 32
10, 8
13, 13
53, 34
77, 58
44, 27
29, 36
538, 497
2408, 1989
1699, 1144
198, 107
25, 9
28, 18
108, 98
358, 308
261, 190
33, 20
7, 5
17, 10
12, 8
6, 3
7, 0
12, 5
27, 6
15, 6
7, 3
5, 2
4, 4
4, 3
5, 4
4, 1
5, 2
2, 3
3, 2
3, 1
3, 1
1, 3
6, 1
6, 4
4, 2
6, 4
4, 1
3, 1
2, 5
1, 3
4, 1
3, 2
1, 4
4, 1
3, 4
3, 4
3, 1
0, 2
2, 3
2, 0
1, 1
8, 1
3, 4
3, 1
1, 3
2, 0
3, 1
1, 1
1, 2
3, 3
5, 2
6, 4
6, 0
3, 1
1, 0
2, 1
3, 2
0, 1
0, 3
1, 1
1, 2
1, 1
2, 2
2, 0
1, 2
1, 0
1, 0
2, 1
1, 1
1, 0
1, 1
1, 1
1, 0
2, 0
1, 1
2, 0
0, 0
4, 0
0, 0
0, 0
0, 0
0, 1
0, 0
0, 2
0, 1
0, 0
1, 1
0, 0
0, 0
0, 0
1, 0
0, 0
0, 0
0, 0
0, 0
0, 1
0, 0
0, 0
1, 0
0, 0
0, 0
2, 1
0, 0
0, 0
0, 1
0, 1
0, 0
2, 0
1, 0
0, 0
0, 0
0, 0
0, 0
0, 1
0, 0
0, 0
0, 1
0, 0
1, 0
0, 1
0, 0
0, 0
0, 0
0, 0
1, 0
0, 0
1, 0
0, 0
0, 0
0, 0
0, 0
0, 0
0, 0
0, 0
0, 0
0, 0
0, 1
0, 0
0, 0
0, 0
0, 0
0, 0
0, 0
0, 0
0, 0
0, 0
0, 0
0, 0
0, 0
0, 0
0, 0
0, 0
0, 0
0, 0
0, 0
0, 0
0, 0
0, 0
0, 0
0, 0
0, 0
0, 0
0, 0
0, 0
0, 0
0, 0
0, 0
0, 0
0, 0
0, 0
0, 0
0, 0
0, 0
0, 0
0, 0
0, 0
0, 0
0, 0
0, 0
0, 0
0, 0
0, 0
0, 0
0, 0
0, 0
0, 0
0, 0
0, 0
0, 0
0, 0
0, 0
0, 0
0, 0
0, 0
0, 0
0, 0
0, 0
0, 0
0, 0
0, 0
0, 0
0, 0
0, 0
0, 0
0, 0
0, 0
0, 0
0, 0
0, 0
0, 0
0, 0
0, 0
0, 0
0, 0
0, 0
0, 0
0, 0
0, 0
0, 0
0, 0
0, 0
0, 0
0, 0
0, 0
0, 0
0, 0
0, 0
0, 0
0, 0
#ENDOFDATA     end of spectrum data