File: host_upload/06-09-2024/ps_0852/dump3/ps__0852shot_2087.msa
#FORMAT      : EMSA/MAS spectral data file
#VERSION     : TC202v2.0 PIXL
#TITLE       : N/A
#DATE        :       Date in the format DD-MMM-YYYY, for example 07-JUL-2010
#TIME        :             The time of day at which the spectrum was recorded, in 24-hour format
#OWNER       : PIXL Flight Model       (PIXL will use this to indicate which instrument took the data.)
#NPOINTS     : 4096     Number of data points in the spectrum (This can be zero for configuration only files)
#NCOLUMNS    : 2     Number of data columns in the spectrum (This can be zero for configuration only files)
#XUNITS      : eV
#YUNITS      : COUNTS
#DATATYPE    : YY
#XPERCHAN    : 7.862, 7.881   eV per channel (separate by commas if more than one detector)
#OFFSET      : 18.5, -22.4         eV of first channel  (separate by commas if more than one detector
#SIGNALTYPE  : XRF
#YP_TEMP     : 2.428
#LIVETIME    : 8.55785, 8.5531   seconds (separate by commas if more than one detector)
#REALTIME    : 10, 10.0   seconds (separate by commas if more than one detector)
#SPECTRUM    : start of spectrum data
0, 0
0, 0
0, 0
0, 0
0, 0
0, 0
0, 0
0, 0
5, 0
9, 2
5, 4
45, 48
65, 51
5, 4
7, 7
77, 99
383, 413
98, 114
5, 6
3, 4
2, 4
2, 4
4, 3
24, 13
477, 129
738, 171
102, 35
16, 12
3, 4
4, 2
1, 2
2, 2
1, 2
5, 12
10, 14
8, 4
27, 14
37, 23
31, 10
5, 4
13, 0
14, 12
20, 24
6, 35
9, 21
3, 5
5, 5
7, 13
11, 35
17, 27
16, 5
22, 6
19, 9
39, 39
61, 48
18, 13
35, 37
500, 661
2099, 2384
1552, 1434
214, 180
50, 29
68, 34
138, 137
339, 368
204, 211
36, 30
2, 11
9, 17
7, 9
5, 3
3, 7
3, 9
8, 12
5, 11
24, 6
19, 6
9, 6
4, 4
3, 5
3, 8
3, 4
4, 3
3, 5
2, 10
6, 8
5, 6
3, 6
3, 3
6, 5
3, 2
2, 2
9, 2
3, 2
2, 2
3, 4
1, 1
4, 7
5, 4
5, 1
1, 3
1, 0
0, 2
2, 5
0, 2
4, 0
0, 3
0, 6
3, 4
1, 3
1, 3
4, 1
2, 3
2, 1
2, 3
3, 1
2, 3
5, 2
1, 2
1, 4
1, 3
0, 1
1, 2
3, 2
0, 0
1, 3
2, 2
0, 2
1, 1
4, 0
0, 2
1, 0
1, 1
1, 2
3, 0
2, 2
0, 1
1, 1
3, 0
0, 1
0, 1
0, 0
1, 2
0, 2
0, 0
0, 0
1, 1
0, 0
0, 1
0, 1
0, 0
0, 0
1, 0
2, 0
0, 1
0, 0
0, 0
0, 0
0, 0
0, 0
1, 0
0, 0
0, 1
1, 1
0, 0
0, 0
0, 0
0, 1
0, 0
1, 0
0, 0
0, 0
1, 1
0, 0
0, 0
0, 0
0, 0
0, 0
0, 1
0, 0
0, 0
0, 0
0, 0
0, 0
0, 0
0, 0
0, 0
0, 0
0, 0
0, 1
0, 0
0, 0
0, 0
0, 0
0, 2
0, 0
0, 0
0, 0
0, 0
0, 0
0, 0
0, 0
0, 0
0, 0
0, 0
0, 0
0, 0
0, 0
0, 0
0, 0
0, 0
0, 0
0, 0
0, 0
0, 0
0, 0
0, 0
0, 0
0, 0
0, 0
0, 0
0, 0
0, 0
0, 0
0, 0
0, 0
0, 0
0, 0
0, 0
0, 0
0, 0
0, 0
0, 0
0, 0
0, 0
0, 0
0, 0
0, 0
0, 0
0, 0
0, 0
0, 0
0, 0
0, 0
0, 0
0, 0
0, 0
0, 0
0, 0
0, 0
0, 0
0, 0
0, 0
0, 0
0, 0
0, 0
0, 0
0, 0
0, 0
0, 0
0, 0
0, 0
0, 0
0, 0
0, 0
0, 0
0, 0
0, 0
0, 0
0, 0
0, 0
0, 0
0, 0
0, 0
0, 0
0, 0
0, 0
0, 0
0, 0
0, 0
0, 0
0, 0
0, 0
0, 0
0, 0
0, 0
0, 0
0, 0
0, 0
0, 0
0, 0
0, 0
0, 0
0, 0
#ENDOFDATA     end of spectrum data