File: host_upload/06-09-2024/ps_0852/dump3/ps__0852shot_2464.msa
#FORMAT      : EMSA/MAS spectral data file
#VERSION     : TC202v2.0 PIXL
#TITLE       : N/A
#DATE        :       Date in the format DD-MMM-YYYY, for example 07-JUL-2010
#TIME        :             The time of day at which the spectrum was recorded, in 24-hour format
#OWNER       : PIXL Flight Model       (PIXL will use this to indicate which instrument took the data.)
#NPOINTS     : 4096     Number of data points in the spectrum (This can be zero for configuration only files)
#NCOLUMNS    : 2     Number of data columns in the spectrum (This can be zero for configuration only files)
#XUNITS      : eV
#YUNITS      : COUNTS
#DATATYPE    : YY
#XPERCHAN    : 7.862, 7.881   eV per channel (separate by commas if more than one detector)
#OFFSET      : 18.5, -22.4         eV of first channel  (separate by commas if more than one detector
#SIGNALTYPE  : XRF
#YP_TEMP     : 2.332
#LIVETIME    : 8.55754, 8.51714   seconds (separate by commas if more than one detector)
#REALTIME    : 10, 10.0   seconds (separate by commas if more than one detector)
#SPECTRUM    : start of spectrum data
0, 0
0, 0
0, 0
0, 0
0, 0
0, 0
0, 0
0, 0
0, 0
1, 0
6, 6
43, 36
46, 58
4, 3
4, 1
73, 89
351, 301
96, 96
8, 1
3, 1
66, 76
347, 436
139, 143
28, 29
86, 50
89, 50
41, 26
18, 13
7, 8
4, 3
6, 8
2, 6
3, 2
12, 28
23, 36
9, 6
9, 13
19, 7
40, 7
18, 5
3, 8
8, 11
13, 13
9, 10
3, 15
5, 11
4, 9
3, 10
6, 7
19, 28
24, 25
14, 28
15, 32
53, 60
71, 50
26, 19
24, 41
437, 549
2085, 2317
1429, 1355
155, 149
15, 17
26, 20
82, 104
293, 341
221, 188
29, 14
11, 9
20, 15
25, 10
9, 4
7, 5
6, 5
4, 8
9, 8
3, 10
12, 9
7, 4
3, 9
9, 5
6, 3
6, 5
7, 4
2, 18
4, 9
6, 9
10, 5
3, 6
1, 6
7, 5
4, 5
5, 11
4, 7
6, 6
2, 4
1, 2
6, 1
4, 5
5, 2
2, 2
2, 2
4, 1
2, 5
1, 4
1, 3
1, 2
2, 3
0, 3
0, 3
1, 5
0, 2
4, 5
4, 2
2, 1
4, 2
2, 3
9, 3
4, 4
1, 2
2, 1
0, 1
2, 2
0, 4
1, 2
3, 1
0, 0
0, 2
2, 1
1, 1
1, 3
1, 1
0, 0
0, 3
2, 1
1, 1
0, 1
2, 1
0, 0
1, 0
0, 1
1, 0
0, 1
2, 0
1, 0
1, 0
0, 1
0, 1
0, 1
1, 0
1, 2
0, 1
0, 0
1, 0
1, 0
0, 0
0, 0
0, 0
1, 1
0, 0
0, 0
0, 0
1, 0
0, 0
0, 1
1, 0
0, 0
0, 1
0, 1
0, 1
1, 0
0, 0
0, 0
1, 0
0, 0
1, 0
0, 0
0, 0
0, 0
0, 0
0, 0
0, 0
0, 0
0, 0
0, 0
0, 0
0, 0
0, 0
0, 0
0, 0
0, 0
0, 0
0, 0
0, 0
0, 0
0, 0
0, 0
0, 0
0, 0
0, 0
1, 0
2, 0
0, 0
0, 0
0, 1
0, 0
0, 0
0, 0
0, 0
0, 0
0, 0
0, 0
0, 0
0, 0
0, 0
0, 0
0, 0
0, 0
0, 0
0, 0
0, 0
0, 0
0, 0
0, 0
0, 0
0, 0
0, 0
0, 0
0, 0
0, 0
0, 0
0, 0
0, 0
0, 0
0, 0
0, 0
0, 0
0, 0
0, 0
0, 0
0, 0
0, 0
0, 0
0, 0
0, 0
0, 0
0, 0
0, 0
0, 0
0, 0
0, 0
0, 0
0, 0
0, 0
0, 0
0, 0
0, 0
0, 0
0, 0
0, 0
0, 0
0, 0
0, 0
0, 0
0, 0
0, 0
0, 0
0, 0
0, 0
0, 0
0, 0
0, 0
0, 0
0, 0
0, 0
0, 0
0, 0
0, 0
0, 0
0, 0
0, 0
0, 0
0, 0
0, 0
0, 0
0, 0
0, 0
0, 0
0, 0
0, 0
0, 0
0, 0
0, 0
0, 0
0, 0
#ENDOFDATA     end of spectrum data