File: host_upload/06-09-2024/ps_0852/dump3/ps__0852shot_2466.msa
#FORMAT      : EMSA/MAS spectral data file
#VERSION     : TC202v2.0 PIXL
#TITLE       : N/A
#DATE        :       Date in the format DD-MMM-YYYY, for example 07-JUL-2010
#TIME        :             The time of day at which the spectrum was recorded, in 24-hour format
#OWNER       : PIXL Flight Model       (PIXL will use this to indicate which instrument took the data.)
#NPOINTS     : 4096     Number of data points in the spectrum (This can be zero for configuration only files)
#NCOLUMNS    : 2     Number of data columns in the spectrum (This can be zero for configuration only files)
#XUNITS      : eV
#YUNITS      : COUNTS
#DATATYPE    : YY
#XPERCHAN    : 7.862, 7.881   eV per channel (separate by commas if more than one detector)
#OFFSET      : 18.5, -22.4         eV of first channel  (separate by commas if more than one detector
#SIGNALTYPE  : XRF
#YP_TEMP     : 1.979
#LIVETIME    : 8.52715, 8.51512   seconds (separate by commas if more than one detector)
#REALTIME    : 10, 10.0   seconds (separate by commas if more than one detector)
#SPECTRUM    : start of spectrum data
0, 0
0, 0
0, 0
0, 0
0, 0
0, 0
0, 1
0, 0
0, 3
4, 0
5, 2
41, 44
40, 44
6, 5
3, 3
72, 62
281, 292
59, 59
11, 9
6, 3
97, 109
584, 595
242, 215
67, 46
95, 109
57, 69
41, 31
17, 17
10, 5
4, 8
8, 9
5, 11
4, 8
41, 37
60, 76
10, 7
15, 8
9, 12
12, 7
6, 11
8, 20
9, 18
15, 20
16, 12
7, 10
7, 7
6, 12
5, 8
7, 7
19, 25
20, 30
15, 10
7, 12
40, 43
71, 53
21, 29
26, 27
464, 582
2071, 2192
1524, 1379
204, 153
22, 14
22, 28
102, 127
329, 359
247, 208
25, 24
6, 17
18, 10
25, 15
10, 13
9, 19
4, 8
7, 4
6, 7
3, 5
6, 3
5, 4
3, 2
4, 8
8, 5
4, 6
7, 6
5, 7
4, 4
5, 4
2, 0
4, 6
5, 5
2, 10
7, 4
6, 8
8, 11
3, 5
3, 3
5, 4
3, 2
2, 3
3, 2
1, 3
4, 6
4, 5
1, 2
5, 2
0, 2
3, 2
2, 2
4, 2
2, 2
3, 2
1, 6
1, 3
1, 1
4, 1
2, 0
4, 2
1, 3
4, 3
2, 1
2, 1
1, 1
1, 1
4, 2
1, 1
0, 1
0, 0
1, 1
0, 2
2, 0
0, 0
1, 3
1, 1
1, 1
1, 1
1, 2
0, 1
2, 0
1, 1
1, 0
0, 0
0, 1
0, 1
0, 0
0, 1
0, 0
2, 1
0, 0
1, 0
0, 0
0, 2
0, 0
1, 0
2, 0
1, 2
0, 0
2, 0
0, 0
0, 0
0, 1
1, 0
0, 0
0, 0
0, 0
1, 0
0, 0
0, 0
1, 0
0, 0
0, 2
0, 0
0, 0
0, 0
0, 0
1, 1
2, 1
0, 0
0, 0
0, 0
1, 1
0, 0
0, 0
0, 1
0, 0
1, 0
0, 1
0, 0
0, 0
0, 0
0, 0
0, 0
0, 1
0, 0
1, 0
0, 0
0, 0
0, 0
0, 0
0, 0
0, 0
0, 0
0, 0
0, 0
0, 0
0, 0
0, 0
0, 0
0, 0
0, 0
0, 0
0, 0
0, 0
0, 0
0, 0
0, 0
0, 0
0, 0
0, 0
0, 0
0, 0
0, 0
0, 0
0, 0
0, 0
0, 0
0, 0
0, 0
0, 0
0, 0
0, 0
0, 0
0, 0
0, 0
0, 0
0, 0
0, 0
0, 0
0, 0
0, 0
0, 0
0, 0
0, 0
0, 0
0, 0
0, 0
0, 0
0, 0
0, 0
0, 0
0, 0
0, 0
0, 0
0, 0
0, 0
0, 0
0, 0
0, 0
0, 0
0, 0
0, 0
0, 0
0, 0
0, 0
0, 0
0, 0
0, 0
0, 0
0, 0
0, 0
0, 0
0, 0
0, 0
0, 0
0, 0
0, 0
0, 0
0, 0
0, 0
0, 0
0, 0
0, 0
0, 0
0, 0
0, 0
0, 0
0, 0
0, 0
0, 0
0, 0
0, 0
0, 0
0, 0
0, 0
0, 0
0, 0
#ENDOFDATA     end of spectrum data