File: host_upload/06-09-2024/ps_0852/dump3/ps__0852shot_2477.msa
#FORMAT      : EMSA/MAS spectral data file
#VERSION     : TC202v2.0 PIXL
#TITLE       : N/A
#DATE        :       Date in the format DD-MMM-YYYY, for example 07-JUL-2010
#TIME        :             The time of day at which the spectrum was recorded, in 24-hour format
#OWNER       : PIXL Flight Model       (PIXL will use this to indicate which instrument took the data.)
#NPOINTS     : 4096     Number of data points in the spectrum (This can be zero for configuration only files)
#NCOLUMNS    : 2     Number of data columns in the spectrum (This can be zero for configuration only files)
#XUNITS      : eV
#YUNITS      : COUNTS
#DATATYPE    : YY
#XPERCHAN    : 7.862, 7.881   eV per channel (separate by commas if more than one detector)
#OFFSET      : 18.5, -22.4         eV of first channel  (separate by commas if more than one detector
#SIGNALTYPE  : XRF
#YP_TEMP     : 2.396
#LIVETIME    : 8.56134, 8.56406   seconds (separate by commas if more than one detector)
#REALTIME    : 10, 10.0   seconds (separate by commas if more than one detector)
#SPECTRUM    : start of spectrum data
0, 0
0, 0
0, 0
0, 0
0, 0
0, 0
0, 0
0, 1
1, 0
1, 0
2, 5
27, 33
67, 50
8, 5
8, 5
98, 83
424, 401
89, 84
4, 6
3, 2
8, 1
16, 25
12, 9
9, 10
42, 29
64, 42
52, 30
11, 17
3, 6
1, 2
3, 3
2, 1
1, 3
32, 20
47, 42
12, 7
7, 2
11, 5
7, 6
9, 2
8, 4
9, 8
15, 12
11, 5
11, 2
6, 7
6, 11
6, 6
8, 10
24, 19
39, 10
46, 7
19, 15
33, 46
65, 71
20, 44
18, 51
516, 526
2285, 2143
1630, 1321
208, 130
18, 26
27, 15
88, 124
342, 343
226, 192
33, 28
7, 10
9, 16
8, 7
4, 3
7, 6
3, 6
3, 5
4, 9
10, 6
12, 12
10, 9
5, 5
1, 6
2, 3
5, 1
0, 5
2, 9
2, 5
2, 5
1, 3
1, 1
3, 2
6, 4
1, 1
4, 0
4, 1
3, 5
3, 1
5, 0
3, 3
1, 3
0, 1
3, 4
2, 0
5, 6
5, 1
1, 1
1, 1
3, 4
3, 3
5, 2
1, 2
5, 1
2, 1
1, 0
1, 2
1, 2
2, 2
1, 4
7, 1
2, 4
1, 1
1, 0
1, 1
2, 1
1, 2
4, 2
1, 0
1, 0
1, 1
1, 0
2, 2
3, 0
1, 3
0, 0
1, 2
1, 0
0, 0
1, 1
0, 0
0, 0
0, 0
1, 3
0, 0
0, 1
0, 1
0, 1
1, 0
0, 0
0, 0
1, 0
0, 0
1, 1
0, 3
0, 0
0, 0
0, 1
1, 1
1, 0
1, 0
1, 0
0, 0
0, 0
0, 0
0, 1
0, 0
1, 0
2, 0
0, 0
0, 0
0, 0
0, 1
0, 0
0, 1
1, 0
1, 0
1, 0
0, 0
0, 0
0, 0
1, 0
0, 0
0, 0
0, 0
0, 0
0, 0
0, 0
0, 0
0, 0
1, 0
0, 0
0, 0
0, 0
0, 0
0, 0
0, 0
0, 0
0, 0
0, 0
0, 0
0, 0
0, 0
0, 0
0, 0
0, 0
0, 0
0, 0
0, 0
0, 0
0, 0
0, 0
0, 0
0, 0
0, 0
0, 0
0, 0
0, 0
0, 0
0, 0
0, 0
0, 0
0, 0
0, 0
0, 0
0, 0
0, 0
0, 0
0, 0
0, 0
0, 0
0, 0
0, 0
0, 0
0, 0
0, 0
0, 0
0, 0
1, 0
0, 0
0, 0
0, 0
0, 0
0, 0
0, 0
0, 0
0, 0
0, 0
0, 0
0, 0
0, 0
0, 0
0, 0
0, 0
0, 0
0, 0
0, 0
0, 0
0, 0
0, 0
0, 0
0, 0
0, 0
0, 0
0, 0
0, 0
0, 0
0, 0
0, 0
0, 0
0, 0
0, 0
0, 0
0, 0
0, 0
0, 0
0, 0
0, 0
0, 0
0, 0
0, 0
0, 0
0, 0
0, 0
0, 0
0, 0
0, 0
0, 0
0, 0
0, 0
0, 0
0, 0
0, 0
0, 0
0, 0
0, 0
0, 0
0, 0
#ENDOFDATA     end of spectrum data