File: host_upload/06-09-2024/ps_0852/dump3/ps__0852shot_2216.msa
#FORMAT      : EMSA/MAS spectral data file
#VERSION     : TC202v2.0 PIXL
#TITLE       : N/A
#DATE        :       Date in the format DD-MMM-YYYY, for example 07-JUL-2010
#TIME        :             The time of day at which the spectrum was recorded, in 24-hour format
#OWNER       : PIXL Flight Model       (PIXL will use this to indicate which instrument took the data.)
#NPOINTS     : 4096     Number of data points in the spectrum (This can be zero for configuration only files)
#NCOLUMNS    : 2     Number of data columns in the spectrum (This can be zero for configuration only files)
#XUNITS      : eV
#YUNITS      : COUNTS
#DATATYPE    : YY
#XPERCHAN    : 7.862, 7.881   eV per channel (separate by commas if more than one detector)
#OFFSET      : 18.5, -22.4         eV of first channel  (separate by commas if more than one detector
#SIGNALTYPE  : XRF
#YP_TEMP     : 2.396
#LIVETIME    : 8.5606, 8.57349   seconds (separate by commas if more than one detector)
#REALTIME    : 10, 10.0   seconds (separate by commas if more than one detector)
#SPECTRUM    : start of spectrum data
0, 0
0, 0
0, 0
0, 0
0, 0
0, 0
0, 0
1, 0
1, 1
1, 2
3, 3
50, 37
50, 52
4, 7
6, 4
94, 118
418, 453
91, 111
7, 2
0, 0
1, 1
1, 6
3, 7
10, 9
42, 50
38, 41
24, 17
14, 15
2, 2
2, 1
3, 4
0, 0
5, 3
7, 6
17, 26
4, 14
5, 9
3, 6
4, 3
6, 2
10, 4
6, 6
14, 13
7, 7
7, 16
5, 64
2, 60
6, 20
6, 4
7, 13
12, 9
10, 6
9, 8
40, 42
56, 58
27, 12
32, 38
445, 626
2153, 2488
1590, 1401
207, 149
26, 11
13, 21
111, 121
344, 343
247, 212
31, 24
10, 24
20, 69
9, 68
9, 18
19, 5
16, 5
6, 5
3, 5
6, 6
5, 2
5, 3
5, 1
4, 1
6, 2
3, 0
2, 7
3, 5
2, 1
1, 7
1, 3
6, 3
2, 1
3, 1
1, 2
5, 3
3, 1
1, 3
1, 3
2, 2
1, 6
4, 2
2, 3
3, 4
1, 2
5, 3
4, 2
3, 0
2, 2
3, 0
3, 2
2, 1
2, 0
2, 1
4, 4
2, 2
5, 3
0, 2
1, 3
3, 1
2, 3
1, 7
3, 3
1, 0
1, 0
5, 3
3, 1
2, 1
2, 2
0, 2
2, 1
1, 4
0, 0
1, 1
1, 0
1, 0
0, 0
3, 0
0, 1
0, 1
1, 2
1, 0
0, 0
1, 0
0, 0
0, 0
0, 0
0, 1
0, 0
0, 0
1, 0
0, 2
1, 0
0, 1
0, 0
0, 0
0, 0
0, 1
0, 0
0, 0
0, 1
0, 0
0, 0
1, 0
0, 0
0, 0
0, 0
0, 0
1, 0
0, 0
0, 0
1, 1
1, 0
2, 0
0, 2
0, 0
0, 0
0, 0
0, 0
1, 0
0, 0
0, 0
0, 0
0, 0
0, 0
0, 0
1, 0
0, 0
1, 0
0, 0
0, 0
0, 0
0, 0
0, 0
0, 1
0, 0
1, 1
0, 0
0, 0
0, 0
0, 0
0, 0
0, 0
0, 0
0, 0
0, 0
0, 0
0, 0
0, 0
0, 0
0, 0
0, 0
0, 0
0, 0
0, 0
0, 0
0, 0
0, 0
0, 0
0, 0
0, 0
0, 0
0, 0
0, 0
0, 0
0, 0
0, 0
0, 0
0, 0
0, 0
0, 0
0, 0
0, 0
0, 0
0, 0
0, 0
0, 0
0, 0
0, 0
0, 0
0, 0
0, 0
0, 0
0, 0
0, 0
0, 0
0, 0
0, 0
0, 0
0, 0
0, 0
0, 0
0, 0
0, 0
0, 0
0, 0
0, 0
0, 0
0, 0
0, 0
0, 0
0, 0
0, 0
0, 0
0, 0
0, 0
0, 0
0, 0
0, 0
0, 0
0, 0
0, 0
0, 0
0, 0
0, 0
0, 0
0, 0
0, 0
0, 0
0, 0
0, 0
0, 0
0, 0
0, 0
0, 0
0, 0
0, 0
0, 0
0, 0
0, 0
0, 0
0, 0
0, 0
0, 0
0, 0
0, 0
0, 0
0, 0
#ENDOFDATA     end of spectrum data