File: host_upload/06-09-2024/ps_0852/dump3/ps__0852shot_2154.msa
#FORMAT      : EMSA/MAS spectral data file
#VERSION     : TC202v2.0 PIXL
#TITLE       : N/A
#DATE        :       Date in the format DD-MMM-YYYY, for example 07-JUL-2010
#TIME        :             The time of day at which the spectrum was recorded, in 24-hour format
#OWNER       : PIXL Flight Model       (PIXL will use this to indicate which instrument took the data.)
#NPOINTS     : 4096     Number of data points in the spectrum (This can be zero for configuration only files)
#NCOLUMNS    : 2     Number of data columns in the spectrum (This can be zero for configuration only files)
#XUNITS      : eV
#YUNITS      : COUNTS
#DATATYPE    : YY
#XPERCHAN    : 7.862, 7.881   eV per channel (separate by commas if more than one detector)
#OFFSET      : 18.5, -22.4         eV of first channel  (separate by commas if more than one detector
#SIGNALTYPE  : XRF
#YP_TEMP     : 2.46
#LIVETIME    : 8.54349, 8.5404   seconds (separate by commas if more than one detector)
#REALTIME    : 10, 10.0   seconds (separate by commas if more than one detector)
#SPECTRUM    : start of spectrum data
0, 0
0, 0
0, 0
0, 0
0, 0
0, 0
0, 0
0, 0
1, 0
2, 0
2, 3
41, 42
85, 64
3, 6
4, 4
85, 97
447, 376
105, 81
2, 2
0, 0
6, 4
32, 31
12, 10
13, 7
19, 19
25, 28
15, 27
14, 13
6, 4
2, 1
3, 2
2, 3
30, 1
42, 16
29, 12
5, 10
6, 8
8, 4
6, 6
4, 6
10, 3
7, 11
21, 18
17, 28
7, 5
6, 5
7, 9
17, 10
23, 13
90, 15
68, 8
16, 7
9, 10
38, 29
49, 58
19, 15
40, 43
463, 581
2119, 2258
1620, 1343
199, 147
38, 27
32, 21
120, 138
337, 382
253, 245
42, 50
9, 14
14, 14
6, 12
5, 7
1, 7
2, 6
2, 6
4, 6
8, 4
4, 3
3, 3
5, 3
4, 5
10, 5
4, 1
9, 5
4, 4
2, 15
8, 10
2, 4
2, 3
6, 6
4, 2
10, 2
3, 1
3, 4
8, 2
2, 2
1, 1
2, 3
3, 3
7, 3
4, 3
3, 3
1, 4
2, 3
1, 1
1, 3
2, 6
0, 2
2, 2
2, 5
1, 2
1, 2
6, 1
2, 1
1, 1
0, 1
1, 3
6, 5
3, 2
2, 2
1, 1
0, 2
2, 4
0, 1
3, 4
0, 0
0, 1
1, 0
0, 0
3, 1
1, 1
1, 2
1, 2
2, 2
0, 1
1, 2
0, 2
1, 0
1, 1
0, 0
0, 0
1, 0
1, 0
0, 0
0, 1
0, 1
0, 1
0, 0
1, 0
0, 3
2, 0
0, 1
0, 0
0, 0
1, 0
0, 1
0, 0
0, 0
0, 0
0, 1
0, 0
0, 0
0, 1
0, 0
0, 0
0, 0
0, 0
0, 0
0, 0
0, 0
0, 0
0, 0
0, 0
0, 0
0, 0
0, 0
0, 0
0, 0
0, 0
1, 0
0, 0
0, 0
0, 0
0, 0
0, 0
0, 0
0, 0
0, 0
0, 0
0, 1
0, 0
0, 0
0, 0
0, 0
0, 0
0, 0
0, 0
0, 0
0, 0
0, 0
0, 0
0, 0
0, 0
0, 0
0, 0
0, 0
0, 0
0, 0
0, 0
0, 0
0, 0
0, 0
0, 0
0, 0
0, 0
0, 0
0, 0
0, 0
0, 0
0, 0
0, 0
0, 0
0, 0
0, 0
0, 0
0, 0
0, 0
0, 0
0, 0
0, 0
0, 0
0, 0
0, 0
0, 0
0, 0
0, 0
0, 0
0, 0
0, 0
0, 0
0, 0
0, 0
0, 0
0, 0
0, 0
0, 0
0, 0
0, 0
0, 0
0, 0
0, 0
0, 0
0, 0
0, 0
0, 0
0, 0
0, 0
0, 0
0, 0
0, 0
0, 0
0, 0
0, 0
0, 0
0, 0
0, 0
0, 0
0, 0
0, 0
0, 0
0, 0
0, 0
0, 0
0, 0
0, 0
0, 0
0, 0
0, 0
0, 0
0, 0
0, 0
0, 0
0, 0
0, 0
0, 0
0, 0
0, 0
0, 0
0, 0
0, 0
0, 0
0, 0
0, 0
0, 0
0, 0
#ENDOFDATA     end of spectrum data