File: host_upload/06-09-2024/ps_0852/dump3/ps__0852shot_2218.msa
#FORMAT      : EMSA/MAS spectral data file
#VERSION     : TC202v2.0 PIXL
#TITLE       : N/A
#DATE        :       Date in the format DD-MMM-YYYY, for example 07-JUL-2010
#TIME        :             The time of day at which the spectrum was recorded, in 24-hour format
#OWNER       : PIXL Flight Model       (PIXL will use this to indicate which instrument took the data.)
#NPOINTS     : 4096     Number of data points in the spectrum (This can be zero for configuration only files)
#NCOLUMNS    : 2     Number of data columns in the spectrum (This can be zero for configuration only files)
#XUNITS      : eV
#YUNITS      : COUNTS
#DATATYPE    : YY
#XPERCHAN    : 7.862, 7.881   eV per channel (separate by commas if more than one detector)
#OFFSET      : 18.5, -22.4         eV of first channel  (separate by commas if more than one detector
#SIGNALTYPE  : XRF
#YP_TEMP     : 2.46
#LIVETIME    : 8.55612, 8.55975   seconds (separate by commas if more than one detector)
#REALTIME    : 10, 10.0   seconds (separate by commas if more than one detector)
#SPECTRUM    : start of spectrum data
0, 0
0, 0
0, 0
0, 0
0, 0
0, 0
0, 0
0, 0
1, 0
2, 0
0, 4
43, 51
53, 66
3, 12
2, 7
95, 103
453, 421
111, 106
8, 3
1, 1
0, 1
1, 6
1, 1
8, 9
31, 41
38, 41
19, 21
6, 9
3, 3
1, 3
3, 4
1, 1
2, 3
5, 7
18, 15
7, 2
0, 1
4, 3
5, 4
8, 7
11, 11
10, 16
17, 16
12, 12
15, 1
8, 4
8, 7
3, 13
10, 20
9, 22
16, 15
9, 6
15, 17
34, 53
52, 57
26, 25
34, 35
459, 591
2238, 2292
1666, 1350
221, 154
17, 11
21, 22
104, 112
330, 344
267, 198
46, 26
12, 6
13, 21
13, 5
4, 4
1, 1
3, 2
7, 3
6, 4
3, 5
6, 9
4, 8
1, 4
5, 8
9, 10
14, 3
8, 4
10, 6
9, 5
5, 4
3, 6
3, 2
2, 5
2, 6
4, 11
2, 11
6, 5
1, 2
3, 4
2, 6
5, 2
2, 2
6, 2
1, 2
2, 3
3, 0
2, 0
0, 2
1, 5
0, 2
2, 4
1, 4
4, 2
3, 0
5, 1
4, 2
3, 4
3, 1
2, 2
2, 4
5, 7
3, 4
1, 1
0, 1
1, 2
2, 1
2, 2
3, 0
0, 3
3, 1
1, 3
1, 1
3, 0
1, 0
0, 3
1, 0
1, 1
0, 2
0, 1
0, 2
0, 1
2, 1
0, 1
1, 0
1, 1
0, 1
0, 0
0, 0
1, 0
2, 0
1, 0
0, 1
0, 0
0, 1
0, 1
0, 3
2, 0
0, 0
0, 0
0, 0
0, 1
1, 0
1, 0
0, 0
0, 0
0, 0
0, 2
0, 0
0, 0
0, 1
0, 0
1, 0
0, 0
1, 0
1, 0
2, 0
0, 0
2, 0
0, 0
0, 0
0, 0
0, 0
0, 0
0, 0
0, 0
0, 0
0, 0
0, 0
0, 0
1, 0
0, 0
0, 0
0, 0
0, 0
0, 0
0, 0
0, 0
0, 0
0, 0
0, 0
0, 0
0, 0
0, 0
0, 0
0, 0
0, 0
0, 0
0, 0
0, 0
0, 0
0, 0
0, 0
0, 0
0, 0
0, 0
0, 0
0, 0
0, 0
0, 0
0, 0
0, 0
0, 0
0, 0
0, 0
0, 0
0, 0
0, 0
0, 0
0, 0
0, 0
0, 0
0, 0
0, 0
0, 0
0, 0
0, 0
0, 0
0, 0
0, 0
0, 0
0, 0
0, 0
0, 0
0, 0
0, 0
0, 0
0, 0
0, 0
0, 0
0, 0
0, 0
0, 0
0, 0
0, 0
0, 0
0, 0
0, 0
0, 0
0, 0
0, 0
0, 0
0, 0
0, 0
0, 0
0, 0
0, 0
0, 0
0, 0
0, 0
0, 0
0, 0
0, 0
0, 0
0, 0
0, 0
0, 0
0, 0
0, 0
0, 0
0, 0
0, 0
0, 0
0, 0
0, 0
0, 0
0, 0
0, 0
0, 0
0, 0
0, 0
0, 0
0, 0
0, 0
0, 0
0, 0
0, 0
0, 0
0, 0
#ENDOFDATA     end of spectrum data