File: host_upload/06-09-2024/ps_0852/dump3/ps__0852shot_2187.msa
#FORMAT      : EMSA/MAS spectral data file
#VERSION     : TC202v2.0 PIXL
#TITLE       : N/A
#DATE        :       Date in the format DD-MMM-YYYY, for example 07-JUL-2010
#TIME        :             The time of day at which the spectrum was recorded, in 24-hour format
#OWNER       : PIXL Flight Model       (PIXL will use this to indicate which instrument took the data.)
#NPOINTS     : 4096     Number of data points in the spectrum (This can be zero for configuration only files)
#NCOLUMNS    : 2     Number of data columns in the spectrum (This can be zero for configuration only files)
#XUNITS      : eV
#YUNITS      : COUNTS
#DATATYPE    : YY
#XPERCHAN    : 7.862, 7.881   eV per channel (separate by commas if more than one detector)
#OFFSET      : 18.5, -22.4         eV of first channel  (separate by commas if more than one detector
#SIGNALTYPE  : XRF
#YP_TEMP     : 2.428
#LIVETIME    : 8.56907, 8.54811   seconds (separate by commas if more than one detector)
#REALTIME    : 10, 10.0   seconds (separate by commas if more than one detector)
#SPECTRUM    : start of spectrum data
0, 0
0, 0
0, 0
0, 0
0, 0
0, 0
0, 0
0, 0
2, 0
1, 1
3, 4
42, 57
65, 64
9, 11
3, 7
94, 102
392, 493
105, 110
3, 5
1, 0
1, 1
2, 3
1, 2
9, 6
101, 30
171, 28
35, 16
11, 16
3, 4
2, 2
1, 1
1, 1
1, 0
10, 16
17, 20
0, 7
6, 2
29, 7
49, 5
9, 2
5, 7
5, 8
12, 19
16, 90
3, 94
4, 16
2, 9
4, 16
6, 4
9, 21
30, 15
63, 6
16, 5
34, 37
52, 55
19, 30
30, 60
445, 617
1977, 2577
1455, 1605
168, 186
10, 30
35, 23
81, 118
336, 358
225, 198
33, 25
8, 10
16, 12
0, 10
3, 5
5, 3
3, 4
5, 12
18, 6
39, 11
41, 6
14, 5
2, 4
2, 6
3, 2
6, 1
4, 1
6, 4
2, 3
2, 4
2, 10
3, 11
4, 3
2, 5
3, 4
4, 5
2, 2
5, 14
2, 2
4, 3
3, 0
2, 2
5, 3
2, 3
3, 6
2, 2
1, 1
5, 1
2, 3
1, 3
1, 2
0, 1
1, 1
2, 2
0, 2
1, 3
1, 3
6, 2
1, 2
2, 5
3, 6
2, 6
4, 6
2, 5
0, 2
0, 1
0, 5
0, 3
2, 3
2, 3
0, 0
0, 2
1, 1
0, 1
1, 1
0, 1
0, 1
0, 0
0, 3
1, 2
0, 0
0, 0
0, 0
3, 1
0, 0
1, 0
0, 0
0, 2
0, 2
0, 2
0, 1
0, 1
1, 0
0, 1
0, 0
1, 0
0, 0
0, 0
0, 1
0, 0
1, 1
0, 0
0, 0
0, 1
0, 0
0, 2
0, 2
0, 1
0, 0
0, 0
0, 0
0, 0
0, 0
1, 0
0, 0
0, 0
0, 0
0, 0
0, 0
0, 0
0, 0
0, 0
0, 0
0, 0
0, 0
0, 1
0, 0
0, 0
0, 1
0, 0
0, 0
0, 0
0, 0
0, 0
0, 0
0, 0
0, 0
0, 0
0, 0
0, 0
0, 0
0, 0
1, 0
0, 0
0, 0
0, 0
0, 0
0, 0
0, 0
0, 0
0, 0
0, 0
0, 0
0, 0
0, 0
0, 0
0, 0
0, 0
0, 0
0, 0
0, 0
0, 0
0, 0
0, 0
0, 0
0, 0
0, 0
0, 0
0, 0
0, 0
0, 0
0, 0
0, 0
0, 0
0, 0
0, 0
0, 0
0, 0
0, 0
1, 0
0, 0
0, 0
0, 0
0, 0
0, 0
0, 0
0, 0
0, 0
0, 0
0, 0
0, 0
0, 0
0, 0
0, 0
0, 0
0, 0
0, 0
0, 0
0, 0
0, 0
0, 0
0, 0
0, 0
0, 0
0, 0
0, 0
0, 0
0, 0
0, 0
0, 0
0, 0
0, 0
0, 0
0, 0
0, 0
0, 0
0, 0
0, 0
0, 0
0, 0
0, 0
0, 0
0, 0
0, 0
0, 0
0, 0
0, 0
0, 0
0, 0
0, 0
0, 0
0, 0
0, 0
0, 0
0, 0
0, 0
0, 0
0, 0
#ENDOFDATA     end of spectrum data