File: host_upload/06-09-2024/ps_0852/dump3/ps__0852shot_2168.msa
#FORMAT      : EMSA/MAS spectral data file
#VERSION     : TC202v2.0 PIXL
#TITLE       : N/A
#DATE        :       Date in the format DD-MMM-YYYY, for example 07-JUL-2010
#TIME        :             The time of day at which the spectrum was recorded, in 24-hour format
#OWNER       : PIXL Flight Model       (PIXL will use this to indicate which instrument took the data.)
#NPOINTS     : 4096     Number of data points in the spectrum (This can be zero for configuration only files)
#NCOLUMNS    : 2     Number of data columns in the spectrum (This can be zero for configuration only files)
#XUNITS      : eV
#YUNITS      : COUNTS
#DATATYPE    : YY
#XPERCHAN    : 7.862, 7.881   eV per channel (separate by commas if more than one detector)
#OFFSET      : 18.5, -22.4         eV of first channel  (separate by commas if more than one detector
#SIGNALTYPE  : XRF
#YP_TEMP     : 2.203
#LIVETIME    : 8.57006, 8.57997   seconds (separate by commas if more than one detector)
#REALTIME    : 10, 10.0   seconds (separate by commas if more than one detector)
#SPECTRUM    : start of spectrum data
0, 0
0, 0
0, 0
0, 0
0, 0
0, 0
0, 0
0, 0
0, 0
0, 2
4, 1
43, 56
65, 50
4, 4
5, 4
84, 101
383, 473
113, 97
0, 2
2, 1
0, 0
1, 1
4, 1
9, 5
11, 23
26, 25
11, 12
11, 13
9, 3
4, 3
3, 2
5, 0
1, 3
9, 12
12, 12
3, 6
3, 4
5, 5
3, 6
1, 2
2, 3
9, 10
19, 9
10, 9
5, 6
7, 9
5, 1
1, 7
3, 8
49, 7
132, 14
33, 5
11, 11
55, 45
93, 63
51, 21
28, 36
465, 608
2020, 2352
1586, 1483
184, 165
19, 7
16, 15
112, 131
313, 355
232, 201
36, 15
8, 10
17, 16
15, 10
2, 10
3, 11
9, 11
8, 1
4, 5
4, 5
10, 1
4, 5
2, 5
15, 3
11, 1
25, 2
16, 9
5, 11
4, 5
3, 1
5, 2
3, 4
2, 3
2, 4
3, 3
1, 0
4, 2
2, 2
3, 3
0, 2
4, 3
3, 4
2, 3
4, 2
5, 2
1, 3
2, 0
3, 1
1, 2
5, 1
2, 3
1, 5
1, 3
0, 4
0, 1
3, 1
2, 4
2, 3
0, 2
5, 2
4, 2
4, 4
3, 2
0, 2
1, 1
1, 0
6, 2
0, 0
1, 5
1, 0
1, 1
0, 0
0, 0
2, 1
0, 1
2, 1
1, 1
1, 2
1, 0
0, 0
0, 1
0, 0
0, 1
2, 0
0, 2
1, 2
0, 0
0, 1
1, 2
0, 1
2, 0
0, 2
1, 0
1, 1
1, 0
1, 1
1, 0
0, 1
0, 0
1, 0
1, 0
0, 1
0, 0
0, 0
0, 0
0, 1
1, 1
1, 0
0, 1
0, 0
0, 0
2, 0
0, 0
0, 0
0, 0
0, 0
0, 0
0, 0
0, 0
0, 0
0, 0
2, 1
0, 0
0, 0
1, 0
0, 0
0, 0
0, 0
0, 1
0, 0
0, 0
0, 0
0, 0
0, 0
0, 0
0, 0
0, 0
0, 1
0, 0
0, 0
0, 0
0, 0
0, 0
0, 0
0, 0
0, 0
0, 0
0, 0
0, 0
0, 0
0, 0
0, 0
0, 0
0, 0
0, 0
0, 0
0, 0
0, 0
0, 0
0, 0
0, 0
0, 0
0, 0
0, 0
0, 0
0, 0
0, 0
0, 0
0, 0
0, 0
0, 0
0, 0
0, 0
0, 0
0, 0
0, 0
0, 0
0, 0
0, 0
0, 0
0, 0
0, 0
0, 0
0, 0
0, 0
0, 0
0, 0
0, 0
0, 0
0, 0
0, 0
0, 0
0, 0
0, 0
0, 0
0, 0
0, 0
0, 0
0, 0
0, 0
0, 0
0, 0
0, 0
0, 0
0, 0
0, 0
0, 0
0, 0
0, 0
0, 0
0, 0
0, 0
0, 0
0, 0
0, 0
0, 0
0, 0
0, 0
0, 0
0, 0
0, 0
0, 0
0, 0
0, 0
0, 0
0, 0
0, 0
0, 0
0, 0
0, 0
0, 0
0, 0
0, 0
0, 0
0, 0
0, 0
0, 0
0, 0
#ENDOFDATA     end of spectrum data