File: host_upload/06-09-2024/ps_0852/dump3/ps__0852shot_2121.msa
#FORMAT      : EMSA/MAS spectral data file
#VERSION     : TC202v2.0 PIXL
#TITLE       : N/A
#DATE        :       Date in the format DD-MMM-YYYY, for example 07-JUL-2010
#TIME        :             The time of day at which the spectrum was recorded, in 24-hour format
#OWNER       : PIXL Flight Model       (PIXL will use this to indicate which instrument took the data.)
#NPOINTS     : 4096     Number of data points in the spectrum (This can be zero for configuration only files)
#NCOLUMNS    : 2     Number of data columns in the spectrum (This can be zero for configuration only files)
#XUNITS      : eV
#YUNITS      : COUNTS
#DATATYPE    : YY
#XPERCHAN    : 7.862, 7.881   eV per channel (separate by commas if more than one detector)
#OFFSET      : 18.5, -22.4         eV of first channel  (separate by commas if more than one detector
#SIGNALTYPE  : XRF
#YP_TEMP     : 2.524
#LIVETIME    : 8.56646, 8.57279   seconds (separate by commas if more than one detector)
#REALTIME    : 10, 10.0   seconds (separate by commas if more than one detector)
#SPECTRUM    : start of spectrum data
0, 0
0, 0
0, 0
0, 0
0, 0
0, 0
0, 0
0, 0
0, 0
2, 7
1, 1
47, 39
56, 48
8, 8
1, 3
106, 99
473, 403
137, 103
8, 5
2, 1
1, 4
4, 3
5, 3
8, 5
39, 42
69, 51
29, 32
23, 11
9, 3
1, 4
4, 4
5, 2
21, 15
139, 155
243, 195
52, 30
33, 26
39, 19
11, 20
11, 12
14, 14
34, 15
21, 18
14, 6
8, 10
8, 14
12, 8
9, 6
19, 14
55, 48
39, 23
10, 20
12, 23
43, 52
59, 57
21, 30
33, 38
408, 452
1791, 1737
1415, 1025
158, 112
15, 12
14, 17
93, 109
318, 294
231, 160
24, 26
9, 11
11, 10
10, 5
7, 3
6, 2
3, 4
10, 9
7, 10
7, 8
4, 8
4, 4
5, 7
7, 12
4, 5
4, 6
2, 4
6, 2
11, 4
12, 8
5, 2
6, 0
4, 8
3, 1
2, 2
2, 5
4, 6
1, 6
1, 4
3, 2
10, 1
3, 3
6, 1
3, 0
2, 3
4, 4
0, 2
3, 1
4, 4
2, 4
4, 3
2, 1
6, 1
5, 3
9, 1
2, 1
2, 2
4, 3
2, 0
3, 3
0, 6
3, 2
1, 0
0, 1
2, 1
1, 3
2, 1
0, 1
0, 2
0, 2
2, 1
1, 1
0, 2
0, 2
2, 3
2, 3
1, 0
1, 1
1, 2
1, 0
2, 0
1, 1
2, 0
1, 0
1, 0
1, 0
0, 2
0, 1
0, 0
0, 0
1, 1
2, 1
0, 1
0, 1
2, 1
0, 0
0, 0
0, 0
0, 1
0, 1
0, 0
1, 0
0, 0
1, 0
1, 0
0, 0
0, 0
1, 0
1, 0
0, 0
0, 0
0, 0
0, 1
2, 0
0, 0
1, 1
0, 0
0, 0
0, 0
0, 0
0, 0
0, 0
0, 0
0, 0
0, 0
0, 0
0, 0
0, 1
0, 0
0, 0
0, 0
0, 0
0, 0
0, 0
0, 0
0, 0
0, 0
0, 0
0, 0
0, 0
0, 0
0, 0
1, 0
0, 0
0, 0
0, 0
0, 0
0, 0
0, 0
0, 0
0, 0
0, 0
0, 0
0, 0
0, 0
0, 0
0, 0
0, 0
0, 0
0, 0
0, 0
0, 0
0, 0
0, 0
0, 0
0, 0
0, 0
0, 0
0, 0
0, 0
0, 0
0, 0
0, 0
0, 0
0, 0
0, 0
0, 0
0, 0
0, 0
0, 0
0, 0
0, 0
0, 0
0, 0
0, 0
0, 0
0, 0
0, 0
0, 0
0, 0
0, 0
0, 0
0, 0
0, 0
0, 0
0, 0
0, 0
0, 0
0, 0
0, 0
0, 0
0, 0
0, 0
0, 0
0, 0
0, 0
0, 0
0, 0
0, 0
0, 0
0, 0
0, 0
0, 0
0, 0
0, 0
0, 0
0, 0
0, 0
0, 0
0, 0
0, 0
0, 0
0, 0
0, 0
0, 0
0, 0
0, 0
0, 0
0, 0
0, 0
0, 0
0, 0
0, 0
0, 0
0, 0
0, 0
0, 0
0, 0
#ENDOFDATA     end of spectrum data