File: host_upload/06-09-2024/ps_0852/dump3/ps__0852shot_2219.msa
#FORMAT      : EMSA/MAS spectral data file
#VERSION     : TC202v2.0 PIXL
#TITLE       : N/A
#DATE        :       Date in the format DD-MMM-YYYY, for example 07-JUL-2010
#TIME        :             The time of day at which the spectrum was recorded, in 24-hour format
#OWNER       : PIXL Flight Model       (PIXL will use this to indicate which instrument took the data.)
#NPOINTS     : 4096     Number of data points in the spectrum (This can be zero for configuration only files)
#NCOLUMNS    : 2     Number of data columns in the spectrum (This can be zero for configuration only files)
#XUNITS      : eV
#YUNITS      : COUNTS
#DATATYPE    : YY
#XPERCHAN    : 7.862, 7.881   eV per channel (separate by commas if more than one detector)
#OFFSET      : 18.5, -22.4         eV of first channel  (separate by commas if more than one detector
#SIGNALTYPE  : XRF
#YP_TEMP     : 2.428
#LIVETIME    : 8.55652, 8.36658   seconds (separate by commas if more than one detector)
#REALTIME    : 10, 10.0   seconds (separate by commas if more than one detector)
#SPECTRUM    : start of spectrum data
0, 0
0, 0
0, 0
0, 0
0, 0
0, 0
0, 0
0, 0
0, 4
1, 9
5, 5
51, 45
79, 49
11, 4
4, 5
83, 94
445, 435
88, 96
1, 2
2, 0
1, 1
4, 5
5, 0
2, 38
28, 451
38, 521
19, 60
19, 7
7, 5
6, 2
4, 1
3, 1
2, 2
10, 3
9, 11
3, 8
4, 2
5, 3
4, 11
3, 3
3, 10
12, 9
23, 20
52, 9
104, 3
81, 4
9, 5
6, 7
1, 58
14, 50
7, 20
11, 10
7, 7
52, 42
70, 55
19, 17
34, 36
492, 606
2233, 2244
1737, 1266
210, 130
20, 15
15, 21
94, 109
354, 342
235, 186
40, 28
12, 11
7, 11
8, 5
4, 5
7, 8
12, 31
30, 43
29, 14
5, 6
5, 4
1, 4
4, 8
2, 10
6, 2
8, 3
5, 4
4, 6
5, 5
6, 4
3, 4
2, 2
7, 2
2, 2
3, 4
5, 3
3, 6
3, 0
2, 2
8, 8
4, 6
3, 3
1, 6
2, 4
2, 1
3, 4
2, 0
0, 1
3, 1
3, 1
2, 4
4, 4
2, 4
0, 2
2, 5
5, 1
3, 4
3, 1
2, 2
3, 1
6, 8
2, 1
0, 1
2, 1
2, 2
1, 2
0, 3
1, 1
3, 1
0, 3
4, 0
2, 0
0, 0
1, 0
0, 0
1, 1
4, 1
1, 0
1, 0
1, 0
2, 0
0, 0
2, 0
2, 1
3, 0
2, 0
0, 0
1, 1
1, 1
1, 0
0, 0
1, 2
0, 0
1, 0
0, 0
1, 0
0, 1
1, 0
0, 0
0, 0
0, 0
0, 0
2, 0
1, 1
0, 1
0, 0
0, 0
1, 0
2, 0
0, 0
0, 0
0, 0
0, 0
0, 0
0, 0
0, 0
0, 0
1, 0
0, 0
0, 1
0, 0
0, 0
0, 0
1, 0
0, 0
0, 1
1, 0
0, 0
0, 0
0, 0
0, 0
0, 0
1, 0
0, 0
0, 0
0, 0
1, 0
0, 0
0, 0
0, 0
0, 0
0, 0
0, 0
0, 0
0, 0
0, 0
0, 0
0, 0
0, 0
0, 0
0, 0
0, 0
0, 0
0, 0
0, 0
0, 0
0, 0
0, 0
0, 0
0, 0
0, 0
0, 0
0, 0
0, 0
0, 0
0, 0
0, 0
0, 1
0, 0
0, 0
0, 0
0, 0
0, 0
0, 0
0, 0
0, 0
0, 0
0, 0
0, 0
0, 0
0, 0
0, 0
0, 0
0, 0
0, 0
0, 0
0, 0
0, 0
0, 0
0, 0
0, 0
0, 0
0, 0
0, 0
0, 0
0, 0
0, 0
0, 0
0, 0
0, 0
0, 0
0, 0
0, 0
0, 0
0, 0
0, 0
0, 0
0, 0
0, 0
0, 0
0, 0
0, 0
0, 0
0, 0
0, 0
0, 0
0, 0
0, 0
0, 0
0, 0
0, 0
0, 0
0, 0
0, 0
0, 0
0, 0
0, 0
0, 0
0, 0
0, 0
0, 0
0, 0
0, 0
0, 0
0, 0
0, 0
0, 0
0, 0
#ENDOFDATA     end of spectrum data