File: host_upload/06-09-2024/ps_0852/dump3/ps__0852shot_2400.msa
#FORMAT      : EMSA/MAS spectral data file
#VERSION     : TC202v2.0 PIXL
#TITLE       : N/A
#DATE        :       Date in the format DD-MMM-YYYY, for example 07-JUL-2010
#TIME        :             The time of day at which the spectrum was recorded, in 24-hour format
#OWNER       : PIXL Flight Model       (PIXL will use this to indicate which instrument took the data.)
#NPOINTS     : 4096     Number of data points in the spectrum (This can be zero for configuration only files)
#NCOLUMNS    : 2     Number of data columns in the spectrum (This can be zero for configuration only files)
#XUNITS      : eV
#YUNITS      : COUNTS
#DATATYPE    : YY
#XPERCHAN    : 7.862, 7.881   eV per channel (separate by commas if more than one detector)
#OFFSET      : 18.5, -22.4         eV of first channel  (separate by commas if more than one detector
#SIGNALTYPE  : XRF
#YP_TEMP     : 2.3
#LIVETIME    : 8.56812, 8.56801   seconds (separate by commas if more than one detector)
#REALTIME    : 10, 10.0   seconds (separate by commas if more than one detector)
#SPECTRUM    : start of spectrum data
0, 0
0, 0
0, 0
0, 0
0, 0
0, 0
0, 0
0, 0
0, 7
1, 20
1, 6
50, 53
61, 71
6, 7
5, 2
124, 86
405, 433
90, 89
3, 6
1, 3
3, 1
4, 2
0, 7
3, 36
21, 497
26, 848
19, 93
13, 10
8, 3
1, 0
1, 1
2, 3
7, 2
18, 9
12, 11
8, 3
53, 3
54, 5
22, 67
10, 118
8, 25
14, 10
7, 15
14, 9
5, 16
4, 12
2, 14
6, 7
9, 9
16, 20
15, 11
48, 14
32, 27
36, 83
52, 78
16, 24
26, 43
443, 610
2241, 2337
1647, 1332
216, 149
19, 27
15, 39
88, 118
362, 385
209, 185
39, 38
12, 39
13, 22
6, 8
3, 8
5, 1
6, 6
6, 12
4, 17
6, 23
9, 18
8, 7
3, 10
6, 7
7, 2
4, 8
2, 12
1, 9
2, 5
5, 4
10, 1
13, 3
5, 4
3, 10
4, 5
3, 2
0, 2
5, 5
8, 1
6, 2
2, 1
6, 3
2, 0
2, 5
3, 1
1, 3
2, 0
0, 3
5, 0
1, 5
3, 2
0, 4
4, 3
2, 4
0, 2
2, 1
5, 5
1, 0
1, 1
3, 0
4, 7
1, 1
3, 3
0, 0
1, 1
1, 1
3, 0
3, 3
3, 0
0, 4
0, 1
1, 2
0, 0
0, 0
0, 0
2, 0
2, 4
0, 1
0, 3
0, 1
1, 1
1, 2
0, 0
0, 0
0, 0
0, 0
0, 0
2, 1
1, 0
2, 0
1, 1
2, 0
0, 0
2, 0
0, 1
0, 0
2, 0
1, 1
2, 0
0, 1
0, 0
0, 0
0, 0
0, 0
0, 0
0, 0
0, 0
0, 1
0, 0
1, 0
1, 1
0, 0
0, 0
0, 0
0, 0
0, 0
0, 1
0, 0
0, 0
0, 1
0, 0
0, 0
0, 0
2, 1
0, 1
0, 0
0, 2
0, 0
0, 0
0, 0
0, 0
0, 0
0, 0
0, 0
0, 0
0, 0
0, 0
0, 0
0, 0
0, 1
0, 0
0, 0
0, 0
1, 0
0, 0
0, 0
0, 0
0, 0
0, 0
0, 0
0, 0
0, 0
0, 0
0, 0
0, 0
0, 0
0, 0
0, 0
0, 0
0, 0
0, 0
0, 0
0, 0
0, 0
0, 0
0, 0
0, 0
0, 0
0, 0
0, 0
0, 0
0, 0
0, 0
0, 0
0, 0
0, 0
0, 0
0, 0
0, 0
0, 0
0, 0
0, 0
0, 0
0, 0
0, 0
0, 0
0, 0
0, 0
0, 0
0, 0
0, 0
0, 0
0, 0
0, 0
0, 0
0, 0
0, 0
0, 0
0, 0
0, 0
0, 0
0, 0
0, 0
0, 0
0, 0
0, 0
0, 0
0, 0
0, 0
0, 0
0, 0
0, 0
0, 0
0, 0
0, 0
0, 0
0, 0
0, 0
0, 0
0, 0
0, 0
0, 0
0, 0
0, 0
0, 0
0, 0
0, 0
0, 0
0, 0
0, 0
0, 0
0, 0
0, 0
0, 0
0, 0
0, 0
0, 0
0, 0
#ENDOFDATA     end of spectrum data