File: host_upload/06-09-2024/ps_0852/dump3/ps__0852shot_2192.msa
#FORMAT      : EMSA/MAS spectral data file
#VERSION     : TC202v2.0 PIXL
#TITLE       : N/A
#DATE        :       Date in the format DD-MMM-YYYY, for example 07-JUL-2010
#TIME        :             The time of day at which the spectrum was recorded, in 24-hour format
#OWNER       : PIXL Flight Model       (PIXL will use this to indicate which instrument took the data.)
#NPOINTS     : 4096     Number of data points in the spectrum (This can be zero for configuration only files)
#NCOLUMNS    : 2     Number of data columns in the spectrum (This can be zero for configuration only files)
#XUNITS      : eV
#YUNITS      : COUNTS
#DATATYPE    : YY
#XPERCHAN    : 7.862, 7.881   eV per channel (separate by commas if more than one detector)
#OFFSET      : 18.5, -22.4         eV of first channel  (separate by commas if more than one detector
#SIGNALTYPE  : XRF
#YP_TEMP     : 2.524
#LIVETIME    : 8.54887, 8.57403   seconds (separate by commas if more than one detector)
#REALTIME    : 10, 10.0   seconds (separate by commas if more than one detector)
#SPECTRUM    : start of spectrum data
0, 0
0, 0
0, 0
0, 0
0, 0
0, 0
0, 0
0, 0
0, 2
6, 7
2, 3
47, 56
86, 54
4, 4
7, 5
118, 95
438, 357
110, 73
7, 6
0, 3
2, 1
12, 8
4, 2
16, 22
144, 174
210, 209
60, 29
16, 10
3, 2
1, 1
2, 2
4, 1
4, 7
26, 10
22, 20
8, 9
7, 9
15, 6
22, 15
13, 7
6, 7
23, 6
23, 19
13, 26
14, 38
10, 14
7, 10
9, 6
13, 14
29, 21
33, 19
14, 18
19, 8
44, 44
75, 52
24, 26
34, 41
529, 515
2208, 2105
1651, 1256
228, 131
33, 28
59, 40
144, 116
320, 337
260, 177
32, 27
11, 8
17, 13
15, 11
9, 5
4, 1
2, 8
4, 5
8, 6
13, 10
13, 0
4, 2
8, 6
3, 3
5, 3
3, 3
5, 5
4, 10
4, 4
6, 5
4, 8
1, 7
5, 6
4, 3
4, 2
10, 0
8, 0
4, 6
5, 3
3, 2
4, 0
5, 3
3, 1
4, 3
3, 3
4, 0
3, 3
2, 2
3, 0
2, 1
4, 4
3, 3
3, 2
6, 0
2, 0
1, 3
5, 3
2, 3
2, 5
2, 1
1, 5
3, 6
1, 0
2, 1
2, 2
1, 2
0, 1
2, 0
2, 1
2, 0
3, 0
2, 0
1, 2
2, 0
1, 2
0, 0
0, 1
1, 1
2, 0
1, 1
0, 1
1, 0
3, 0
0, 0
3, 1
0, 3
1, 0
1, 1
1, 0
0, 0
1, 1
0, 0
0, 1
2, 0
0, 0
1, 0
1, 0
0, 0
0, 0
1, 0
0, 1
0, 1
0, 0
0, 1
1, 0
0, 1
0, 0
0, 0
0, 0
0, 0
0, 0
0, 0
0, 0
0, 0
0, 0
1, 0
0, 0
1, 0
0, 1
0, 1
0, 0
0, 0
0, 0
1, 0
0, 1
0, 1
1, 1
0, 0
0, 0
0, 0
0, 0
0, 0
1, 0
0, 0
0, 0
0, 0
1, 0
0, 0
0, 0
0, 0
0, 0
0, 0
0, 0
0, 0
0, 0
0, 0
0, 0
0, 0
0, 0
0, 0
0, 0
0, 1
0, 0
0, 0
0, 0
0, 0
0, 0
0, 0
0, 0
0, 0
0, 0
0, 0
0, 0
0, 0
0, 0
0, 0
0, 0
0, 0
0, 0
0, 0
0, 0
0, 0
0, 0
0, 0
0, 0
0, 0
0, 0
0, 0
0, 0
0, 0
0, 0
0, 0
0, 0
0, 0
1, 0
0, 0
0, 0
0, 0
0, 0
0, 0
0, 0
0, 0
0, 0
0, 0
0, 0
0, 0
0, 0
0, 0
0, 0
0, 0
0, 0
0, 0
0, 0
0, 0
0, 0
0, 0
0, 0
0, 0
0, 0
0, 0
0, 0
0, 0
0, 0
0, 0
0, 0
0, 0
0, 0
0, 0
0, 0
0, 0
0, 0
0, 0
0, 0
0, 0
0, 0
0, 0
0, 0
0, 0
0, 0
0, 0
0, 0
0, 0
0, 0
0, 0
0, 0
0, 0
0, 0
0, 0
#ENDOFDATA     end of spectrum data