File: host_upload/06-09-2024/ps_0852/dump3/ps__0852shot_2182.msa
#FORMAT      : EMSA/MAS spectral data file
#VERSION     : TC202v2.0 PIXL
#TITLE       : N/A
#DATE        :       Date in the format DD-MMM-YYYY, for example 07-JUL-2010
#TIME        :             The time of day at which the spectrum was recorded, in 24-hour format
#OWNER       : PIXL Flight Model       (PIXL will use this to indicate which instrument took the data.)
#NPOINTS     : 4096     Number of data points in the spectrum (This can be zero for configuration only files)
#NCOLUMNS    : 2     Number of data columns in the spectrum (This can be zero for configuration only files)
#XUNITS      : eV
#YUNITS      : COUNTS
#DATATYPE    : YY
#XPERCHAN    : 7.862, 7.881   eV per channel (separate by commas if more than one detector)
#OFFSET      : 18.5, -22.4         eV of first channel  (separate by commas if more than one detector
#SIGNALTYPE  : XRF
#YP_TEMP     : 2.749
#LIVETIME    : 8.55472, 8.56773   seconds (separate by commas if more than one detector)
#REALTIME    : 10, 10.0   seconds (separate by commas if more than one detector)
#SPECTRUM    : start of spectrum data
0, 0
0, 0
0, 0
0, 0
0, 0
0, 0
0, 0
0, 0
2, 3
1, 10
3, 5
47, 50
66, 60
9, 4
2, 8
85, 104
417, 443
114, 117
6, 5
0, 0
1, 4
6, 9
4, 2
10, 34
44, 536
78, 726
34, 87
8, 18
3, 5
6, 4
8, 1
4, 2
8, 1
49, 43
57, 86
16, 14
11, 36
23, 28
5, 13
3, 8
4, 3
10, 19
10, 17
34, 9
103, 4
51, 12
9, 6
8, 6
13, 8
37, 24
46, 25
57, 29
14, 36
31, 60
61, 60
21, 23
29, 43
414, 589
2010, 2177
1540, 1363
210, 136
25, 22
32, 38
120, 118
309, 338
226, 186
37, 29
4, 6
12, 8
6, 8
5, 11
2, 26
9, 22
29, 12
29, 8
15, 9
6, 5
5, 2
5, 3
6, 2
3, 5
2, 5
3, 5
3, 7
5, 1
3, 4
7, 1
4, 3
13, 5
3, 3
1, 4
4, 8
3, 2
3, 7
4, 8
8, 2
6, 3
5, 2
1, 4
1, 3
3, 3
1, 2
2, 3
3, 4
1, 4
1, 5
2, 2
1, 1
2, 4
6, 0
4, 3
3, 4
1, 1
2, 2
1, 2
3, 0
2, 2
3, 6
0, 0
1, 2
3, 2
7, 3
4, 2
1, 1
1, 1
2, 1
4, 1
2, 1
0, 0
3, 2
1, 1
0, 0
0, 0
0, 1
2, 2
1, 0
0, 0
0, 1
0, 1
2, 0
1, 2
1, 0
2, 1
1, 0
0, 0
1, 0
1, 0
0, 0
0, 0
1, 0
0, 0
0, 0
0, 1
1, 0
0, 0
0, 0
0, 1
1, 0
0, 0
0, 0
1, 0
0, 0
0, 1
0, 1
0, 0
1, 1
1, 0
0, 0
0, 1
2, 1
0, 0
0, 0
0, 1
0, 2
0, 1
0, 0
1, 0
0, 0
0, 0
0, 0
0, 0
0, 0
0, 1
0, 0
0, 1
0, 0
0, 0
0, 0
0, 0
0, 0
0, 0
1, 0
1, 0
1, 0
0, 0
0, 0
0, 0
0, 0
0, 0
0, 0
0, 0
0, 0
0, 0
0, 0
0, 0
0, 0
0, 0
0, 0
0, 0
0, 0
0, 0
0, 0
0, 0
0, 0
0, 0
0, 0
0, 0
0, 0
0, 0
0, 0
0, 0
0, 0
0, 0
0, 0
0, 0
0, 0
0, 0
0, 0
0, 0
0, 0
0, 0
0, 0
0, 0
0, 0
0, 0
0, 0
0, 0
1, 0
0, 0
0, 0
0, 0
0, 0
0, 0
0, 0
0, 0
0, 0
0, 0
0, 0
0, 0
0, 0
0, 0
0, 0
0, 0
0, 0
0, 0
0, 0
0, 0
0, 0
0, 0
0, 0
0, 0
0, 0
0, 0
0, 0
0, 0
0, 0
0, 0
0, 0
0, 0
0, 0
0, 0
0, 0
0, 0
0, 0
0, 0
0, 0
0, 0
0, 0
0, 0
0, 0
0, 0
0, 0
0, 0
0, 0
0, 0
0, 0
0, 0
0, 0
0, 0
0, 0
0, 0
0, 0
0, 0
0, 0
#ENDOFDATA     end of spectrum data