File: host_upload/06-09-2024/ps_0852/dump3/ps__0852shot_2538.msa
#FORMAT      : EMSA/MAS spectral data file
#VERSION     : TC202v2.0 PIXL
#TITLE       : N/A
#DATE        :       Date in the format DD-MMM-YYYY, for example 07-JUL-2010
#TIME        :             The time of day at which the spectrum was recorded, in 24-hour format
#OWNER       : PIXL Flight Model       (PIXL will use this to indicate which instrument took the data.)
#NPOINTS     : 4096     Number of data points in the spectrum (This can be zero for configuration only files)
#NCOLUMNS    : 2     Number of data columns in the spectrum (This can be zero for configuration only files)
#XUNITS      : eV
#YUNITS      : COUNTS
#DATATYPE    : YY
#XPERCHAN    : 7.862, 7.881   eV per channel (separate by commas if more than one detector)
#OFFSET      : 18.5, -22.4         eV of first channel  (separate by commas if more than one detector
#SIGNALTYPE  : XRF
#YP_TEMP     : 2.492
#LIVETIME    : 8.54879, 8.56823   seconds (separate by commas if more than one detector)
#REALTIME    : 10, 10.0   seconds (separate by commas if more than one detector)
#SPECTRUM    : start of spectrum data
0, 0
0, 0
0, 0
0, 0
0, 0
0, 0
0, 0
0, 1
0, 5
1, 24
2, 6
37, 53
49, 65
5, 9
3, 9
82, 110
424, 442
89, 109
4, 3
0, 2
1, 1
2, 8
3, 8
8, 48
62, 1052
60, 1608
37, 182
12, 17
9, 3
2, 1
2, 1
3, 2
3, 5
13, 23
13, 21
4, 6
6, 11
5, 10
9, 9
8, 6
7, 10
5, 16
25, 18
27, 11
23, 8
13, 11
8, 9
9, 7
22, 17
38, 24
33, 25
15, 10
12, 8
39, 52
47, 72
27, 22
40, 35
486, 597
2146, 2394
1547, 1397
197, 122
25, 30
26, 47
104, 137
322, 328
234, 208
26, 16
8, 11
14, 16
10, 7
6, 4
4, 3
7, 4
9, 10
8, 8
6, 16
6, 8
3, 4
7, 0
3, 4
2, 2
4, 1
8, 3
9, 7
12, 5
7, 5
4, 5
7, 6
1, 8
4, 0
1, 9
5, 7
4, 2
3, 4
5, 2
4, 7
2, 3
8, 3
3, 4
4, 5
3, 0
2, 5
2, 2
3, 5
1, 0
1, 1
2, 0
3, 5
3, 1
2, 4
1, 3
2, 1
0, 3
1, 4
0, 3
7, 3
5, 7
2, 5
1, 0
1, 1
1, 1
3, 2
4, 1
3, 3
0, 2
1, 2
0, 2
0, 1
2, 3
0, 0
0, 1
0, 1
0, 2
0, 0
0, 0
0, 1
0, 1
2, 0
2, 1
0, 1
0, 0
0, 2
0, 0
0, 1
2, 1
0, 0
0, 0
0, 0
1, 3
1, 2
0, 1
0, 0
2, 1
0, 0
0, 0
0, 0
0, 0
0, 0
0, 0
0, 0
1, 1
1, 0
0, 0
0, 1
0, 0
0, 0
0, 1
1, 1
1, 1
0, 0
0, 0
0, 1
1, 0
1, 0
0, 0
0, 0
0, 0
0, 0
0, 0
0, 0
0, 0
0, 0
0, 0
0, 0
0, 0
0, 0
1, 0
1, 0
0, 0
0, 0
0, 0
0, 0
0, 0
0, 0
0, 0
1, 0
0, 0
0, 0
0, 0
0, 0
0, 0
0, 0
0, 0
0, 0
1, 0
0, 0
0, 0
0, 0
0, 0
0, 1
0, 0
0, 0
0, 0
0, 0
0, 0
0, 0
0, 0
0, 0
0, 0
0, 0
0, 0
0, 0
0, 0
0, 0
0, 0
0, 0
0, 0
0, 0
0, 0
0, 0
0, 0
0, 0
0, 0
0, 0
0, 0
0, 0
0, 0
0, 0
0, 0
0, 0
0, 0
0, 0
0, 0
0, 0
0, 0
0, 0
0, 0
0, 0
0, 0
0, 0
0, 0
0, 0
0, 0
0, 0
0, 0
0, 0
0, 0
0, 0
0, 0
0, 0
0, 0
0, 0
0, 0
0, 0
0, 0
0, 0
0, 0
0, 0
0, 0
0, 0
0, 0
0, 0
0, 0
0, 0
0, 0
0, 0
0, 0
0, 0
0, 0
0, 0
0, 0
0, 0
0, 0
0, 0
0, 0
0, 0
0, 0
0, 0
0, 0
0, 0
0, 0
0, 0
0, 0
0, 0
#ENDOFDATA     end of spectrum data