File: host_upload/06-09-2024/ps_0852/dump3/ps__0852shot_2518.msa
#FORMAT      : EMSA/MAS spectral data file
#VERSION     : TC202v2.0 PIXL
#TITLE       : N/A
#DATE        :       Date in the format DD-MMM-YYYY, for example 07-JUL-2010
#TIME        :             The time of day at which the spectrum was recorded, in 24-hour format
#OWNER       : PIXL Flight Model       (PIXL will use this to indicate which instrument took the data.)
#NPOINTS     : 4096     Number of data points in the spectrum (This can be zero for configuration only files)
#NCOLUMNS    : 2     Number of data columns in the spectrum (This can be zero for configuration only files)
#XUNITS      : eV
#YUNITS      : COUNTS
#DATATYPE    : YY
#XPERCHAN    : 7.862, 7.881   eV per channel (separate by commas if more than one detector)
#OFFSET      : 18.5, -22.4         eV of first channel  (separate by commas if more than one detector
#SIGNALTYPE  : XRF
#YP_TEMP     : 2.171
#LIVETIME    : 8.56201, 8.5514   seconds (separate by commas if more than one detector)
#REALTIME    : 10, 10.0   seconds (separate by commas if more than one detector)
#SPECTRUM    : start of spectrum data
0, 0
0, 0
0, 0
0, 0
0, 0
0, 0
0, 0
1, 0
1, 2
0, 3
4, 1
45, 40
69, 48
6, 6
5, 6
87, 70
401, 328
99, 74
6, 8
3, 3
50, 77
297, 371
109, 153
25, 35
52, 62
58, 52
13, 20
12, 12
3, 5
3, 7
5, 3
1, 5
4, 3
22, 35
37, 51
8, 11
9, 9
19, 4
75, 11
33, 4
9, 9
14, 17
12, 15
11, 6
3, 9
6, 13
2, 4
6, 6
6, 15
24, 19
24, 22
11, 36
5, 34
48, 53
52, 49
18, 15
35, 40
452, 592
2125, 2318
1598, 1273
187, 112
17, 13
27, 21
97, 119
315, 324
242, 178
29, 19
5, 11
14, 15
17, 13
10, 11
3, 10
4, 2
13, 4
6, 5
10, 5
13, 7
9, 4
5, 1
3, 5
2, 4
4, 3
4, 10
3, 16
4, 15
1, 12
4, 1
7, 7
3, 2
5, 4
2, 7
3, 8
3, 7
1, 4
3, 6
2, 6
5, 1
2, 2
1, 1
2, 4
1, 4
2, 4
3, 1
1, 1
5, 6
2, 2
2, 3
0, 2
0, 2
3, 2
1, 3
2, 2
4, 0
4, 2
2, 4
1, 3
9, 5
4, 1
4, 2
2, 0
1, 2
1, 2
2, 3
1, 3
0, 1
4, 5
0, 0
2, 2
0, 4
1, 0
0, 0
3, 0
1, 2
0, 1
1, 0
0, 0
1, 1
1, 1
0, 0
2, 2
1, 0
1, 1
0, 1
1, 1
0, 0
1, 0
0, 0
1, 0
0, 0
0, 0
0, 0
0, 0
0, 0
1, 0
0, 0
2, 1
0, 1
0, 0
0, 0
0, 0
0, 0
0, 0
0, 0
1, 0
1, 0
0, 1
0, 0
0, 1
0, 0
0, 0
0, 0
2, 0
0, 0
1, 0
1, 0
0, 0
0, 0
0, 2
0, 1
0, 0
0, 0
0, 0
0, 0
0, 2
0, 0
0, 0
0, 0
0, 0
0, 0
0, 0
0, 0
0, 0
0, 0
0, 0
0, 0
0, 0
0, 0
0, 0
0, 0
0, 0
0, 0
0, 0
0, 0
0, 0
0, 0
0, 0
0, 1
0, 0
0, 0
0, 0
0, 0
0, 0
0, 0
0, 0
0, 0
0, 0
0, 0
0, 0
0, 0
0, 0
0, 0
0, 0
0, 0
0, 0
0, 0
0, 0
0, 0
0, 0
0, 0
0, 1
0, 0
0, 0
0, 0
0, 0
0, 0
0, 0
0, 0
0, 0
0, 0
0, 0
0, 0
0, 0
0, 0
0, 0
0, 0
0, 0
0, 0
0, 0
0, 0
0, 0
0, 0
0, 0
0, 0
0, 0
0, 0
0, 0
0, 0
0, 0
0, 0
0, 0
0, 0
0, 0
0, 0
0, 0
0, 0
0, 0
0, 0
0, 0
0, 0
0, 0
0, 0
0, 0
0, 0
0, 0
0, 0
0, 0
0, 0
0, 0
0, 0
0, 0
0, 0
0, 0
0, 0
0, 0
0, 0
0, 0
0, 0
0, 0
0, 0
0, 0
0, 0
0, 0
0, 0
0, 0
#ENDOFDATA     end of spectrum data