File: host_upload/06-09-2024/ps_0852/dump3/ps__0852shot_2031.msa
#FORMAT      : EMSA/MAS spectral data file
#VERSION     : TC202v2.0 PIXL
#TITLE       : N/A
#DATE        :       Date in the format DD-MMM-YYYY, for example 07-JUL-2010
#TIME        :             The time of day at which the spectrum was recorded, in 24-hour format
#OWNER       : PIXL Flight Model       (PIXL will use this to indicate which instrument took the data.)
#NPOINTS     : 4096     Number of data points in the spectrum (This can be zero for configuration only files)
#NCOLUMNS    : 2     Number of data columns in the spectrum (This can be zero for configuration only files)
#XUNITS      : eV
#YUNITS      : COUNTS
#DATATYPE    : YY
#XPERCHAN    : 7.862, 7.881   eV per channel (separate by commas if more than one detector)
#OFFSET      : 18.5, -22.4         eV of first channel  (separate by commas if more than one detector
#SIGNALTYPE  : XRF
#YP_TEMP     : 2.556
#LIVETIME    : 8.55665, 8.56448   seconds (separate by commas if more than one detector)
#REALTIME    : 10, 10.0   seconds (separate by commas if more than one detector)
#SPECTRUM    : start of spectrum data
0, 0
0, 0
0, 0
0, 0
0, 0
0, 0
0, 0
0, 0
0, 0
1, 1
4, 2
38, 52
68, 64
6, 6
3, 3
83, 93
414, 395
102, 116
5, 4
2, 2
1, 0
8, 6
5, 5
7, 5
27, 24
78, 27
77, 17
44, 13
6, 2
1, 3
2, 2
6, 0
10, 2
7, 11
13, 16
5, 5
0, 3
0, 2
1, 3
3, 4
5, 7
11, 12
7, 11
12, 12
5, 5
34, 15
30, 6
10, 6
7, 14
16, 40
61, 29
56, 7
23, 14
33, 54
69, 101
17, 30
26, 40
455, 573
2131, 2283
1475, 1526
211, 137
17, 16
27, 29
123, 126
355, 328
240, 209
39, 20
13, 12
30, 18
31, 7
11, 5
2, 1
1, 5
7, 3
5, 5
3, 5
5, 4
4, 4
7, 3
4, 5
2, 2
4, 4
6, 3
1, 6
3, 3
2, 1
4, 4
3, 5
5, 5
3, 3
4, 3
3, 1
4, 0
2, 3
3, 3
3, 1
4, 6
5, 0
3, 3
5, 8
0, 2
1, 1
2, 0
1, 3
4, 1
4, 1
2, 3
1, 6
5, 2
1, 2
1, 0
1, 1
1, 7
2, 2
1, 4
3, 6
5, 6
1, 5
1, 1
0, 1
0, 2
1, 1
0, 3
0, 6
1, 1
1, 4
0, 1
0, 1
2, 1
0, 0
1, 1
0, 0
2, 1
1, 1
1, 1
0, 1
0, 0
1, 2
0, 1
3, 0
1, 1
0, 1
2, 0
1, 1
1, 2
0, 0
0, 1
0, 0
0, 0
0, 1
0, 2
0, 0
0, 0
1, 0
0, 0
0, 0
0, 0
0, 0
0, 0
0, 0
0, 1
0, 0
0, 0
0, 1
0, 0
2, 0
0, 0
0, 1
0, 0
0, 0
0, 1
0, 1
0, 0
0, 1
0, 0
0, 0
0, 0
2, 0
1, 0
1, 0
0, 0
0, 0
0, 0
0, 1
0, 0
0, 0
0, 0
0, 1
0, 0
0, 0
0, 0
0, 0
0, 0
0, 1
0, 0
0, 1
0, 0
0, 0
0, 0
0, 0
0, 0
0, 0
0, 0
0, 0
0, 0
0, 0
0, 0
0, 1
0, 0
0, 0
0, 0
0, 0
0, 0
0, 0
0, 0
0, 0
0, 0
0, 0
0, 0
0, 0
0, 0
0, 0
0, 0
0, 0
0, 0
0, 0
0, 0
0, 0
0, 0
0, 0
0, 0
0, 0
0, 0
0, 0
0, 0
0, 0
0, 0
0, 0
0, 0
0, 0
0, 0
0, 0
0, 0
0, 0
0, 0
0, 0
0, 0
0, 0
0, 0
0, 0
0, 0
0, 0
0, 0
0, 0
0, 0
0, 0
0, 0
0, 0
0, 0
0, 0
0, 0
0, 0
0, 0
0, 0
0, 0
0, 0
0, 0
0, 0
0, 0
0, 0
0, 0
0, 0
0, 0
0, 0
0, 0
0, 0
0, 0
0, 0
0, 0
0, 0
0, 0
0, 0
0, 0
0, 0
0, 0
0, 0
0, 0
0, 0
0, 0
0, 0
0, 0
0, 0
0, 0
0, 0
#ENDOFDATA     end of spectrum data