File: host_upload/06-09-2024/ps_0852/dump3/ps__0852shot_2159.msa
#FORMAT      : EMSA/MAS spectral data file
#VERSION     : TC202v2.0 PIXL
#TITLE       : N/A
#DATE        :       Date in the format DD-MMM-YYYY, for example 07-JUL-2010
#TIME        :             The time of day at which the spectrum was recorded, in 24-hour format
#OWNER       : PIXL Flight Model       (PIXL will use this to indicate which instrument took the data.)
#NPOINTS     : 4096     Number of data points in the spectrum (This can be zero for configuration only files)
#NCOLUMNS    : 2     Number of data columns in the spectrum (This can be zero for configuration only files)
#XUNITS      : eV
#YUNITS      : COUNTS
#DATATYPE    : YY
#XPERCHAN    : 7.862, 7.881   eV per channel (separate by commas if more than one detector)
#OFFSET      : 18.5, -22.4         eV of first channel  (separate by commas if more than one detector
#SIGNALTYPE  : XRF
#YP_TEMP     : 2.364
#LIVETIME    : 8.55954, 8.55638   seconds (separate by commas if more than one detector)
#REALTIME    : 10, 10.0   seconds (separate by commas if more than one detector)
#SPECTRUM    : start of spectrum data
0, 0
0, 0
0, 0
0, 0
0, 0
0, 0
0, 0
0, 1
1, 0
1, 4
2, 2
31, 46
39, 53
5, 4
4, 8
87, 86
376, 397
93, 83
10, 8
4, 2
31, 27
161, 199
64, 86
18, 48
51, 69
66, 55
26, 23
11, 12
6, 7
3, 4
7, 1
0, 4
6, 3
17, 17
27, 34
3, 7
11, 11
12, 2
6, 0
6, 5
1, 6
12, 7
14, 10
11, 13
5, 9
8, 16
6, 33
5, 8
12, 9
12, 20
7, 14
8, 8
15, 8
52, 50
73, 70
24, 25
32, 37
491, 566
2237, 2184
1732, 1377
213, 127
20, 14
11, 25
98, 109
323, 349
230, 181
31, 22
7, 9
13, 19
12, 4
13, 1
8, 8
12, 9
2, 7
4, 6
6, 21
9, 12
5, 3
5, 2
11, 3
11, 5
2, 2
3, 6
3, 2
1, 11
4, 3
3, 4
3, 1
7, 6
4, 5
5, 3
6, 4
2, 2
4, 2
8, 1
4, 3
3, 1
3, 3
5, 1
2, 1
3, 2
2, 0
2, 3
2, 2
5, 3
3, 4
1, 3
1, 4
4, 5
0, 5
5, 3
1, 1
4, 0
1, 1
1, 0
4, 6
3, 4
4, 3
4, 3
1, 0
1, 2
1, 2
6, 4
2, 2
2, 2
0, 0
0, 2
1, 0
0, 1
1, 0
2, 0
2, 1
0, 0
2, 0
1, 0
2, 0
0, 0
1, 1
1, 1
1, 2
1, 0
1, 1
0, 0
1, 0
0, 0
0, 1
0, 2
0, 0
1, 0
0, 2
1, 0
0, 0
0, 1
0, 1
0, 0
0, 1
0, 0
0, 0
0, 0
1, 1
0, 0
0, 1
0, 0
1, 0
0, 1
0, 1
1, 0
0, 0
0, 0
0, 2
0, 0
0, 0
1, 1
0, 0
1, 0
0, 0
0, 0
0, 0
1, 0
1, 1
1, 0
0, 0
0, 0
0, 1
0, 0
0, 1
0, 0
0, 0
0, 1
0, 0
0, 1
0, 0
1, 0
0, 0
1, 0
0, 0
0, 0
0, 0
0, 0
0, 0
0, 0
0, 0
0, 0
0, 0
0, 0
0, 0
0, 0
0, 0
0, 0
0, 0
0, 0
0, 0
0, 0
0, 0
0, 0
0, 0
0, 0
0, 0
0, 0
0, 0
0, 0
0, 0
0, 0
0, 0
0, 0
0, 0
0, 0
0, 0
0, 0
0, 0
0, 0
0, 0
0, 0
0, 0
0, 0
0, 0
0, 0
0, 0
0, 0
0, 0
0, 0
0, 0
0, 0
0, 0
0, 0
0, 0
0, 0
0, 0
0, 0
0, 0
0, 0
0, 0
0, 0
0, 0
0, 0
0, 0
0, 0
0, 0
0, 0
0, 0
0, 0
0, 0
0, 0
0, 0
0, 0
0, 0
0, 0
0, 0
0, 0
0, 0
0, 0
0, 0
0, 0
0, 0
0, 0
0, 0
0, 0
0, 0
0, 0
0, 0
0, 0
0, 0
0, 0
0, 0
0, 0
0, 0
0, 0
0, 0
0, 0
0, 0
0, 0
0, 0
0, 0
0, 0
#ENDOFDATA     end of spectrum data