File: host_upload/06-09-2024/ps_0852/dump3/ps__0852shot_2481.msa
#FORMAT      : EMSA/MAS spectral data file
#VERSION     : TC202v2.0 PIXL
#TITLE       : N/A
#DATE        :       Date in the format DD-MMM-YYYY, for example 07-JUL-2010
#TIME        :             The time of day at which the spectrum was recorded, in 24-hour format
#OWNER       : PIXL Flight Model       (PIXL will use this to indicate which instrument took the data.)
#NPOINTS     : 4096     Number of data points in the spectrum (This can be zero for configuration only files)
#NCOLUMNS    : 2     Number of data columns in the spectrum (This can be zero for configuration only files)
#XUNITS      : eV
#YUNITS      : COUNTS
#DATATYPE    : YY
#XPERCHAN    : 7.862, 7.881   eV per channel (separate by commas if more than one detector)
#OFFSET      : 18.5, -22.4         eV of first channel  (separate by commas if more than one detector
#SIGNALTYPE  : XRF
#YP_TEMP     : 2.364
#LIVETIME    : 8.59659, 8.55715   seconds (separate by commas if more than one detector)
#REALTIME    : 10, 10.0   seconds (separate by commas if more than one detector)
#SPECTRUM    : start of spectrum data
0, 0
0, 0
0, 0
0, 0
0, 0
0, 0
0, 0
0, 0
0, 0
0, 1
2, 1
50, 66
70, 51
6, 3
6, 5
111, 92
440, 378
95, 83
5, 4
2, 1
1, 1
4, 1
3, 1
9, 12
22, 23
46, 33
25, 21
25, 16
12, 6
1, 1
6, 2
1, 2
6, 10
16, 11
25, 21
11, 8
6, 3
6, 7
5, 7
2, 10
7, 14
21, 19
21, 15
7, 12
6, 7
10, 5
7, 2
8, 11
34, 52
238, 253
193, 159
29, 27
17, 13
64, 67
96, 99
46, 71
33, 65
446, 561
2076, 2093
1486, 1277
203, 114
16, 14
24, 30
99, 102
287, 307
226, 164
36, 13
14, 6
14, 15
8, 9
3, 2
6, 3
4, 2
9, 3
6, 5
6, 6
5, 2
4, 4
5, 6
9, 1
4, 7
4, 1
2, 7
6, 11
4, 10
4, 4
3, 3
1, 3
2, 9
3, 2
2, 3
2, 4
3, 1
3, 1
5, 8
4, 4
2, 2
1, 3
0, 3
6, 4
1, 2
3, 5
4, 1
6, 0
7, 4
0, 2
2, 1
3, 3
3, 0
0, 4
2, 1
2, 2
3, 1
2, 2
1, 2
0, 1
3, 0
4, 2
1, 1
2, 0
4, 1
2, 2
2, 1
0, 0
0, 1
1, 0
1, 1
1, 0
1, 0
0, 1
1, 2
0, 1
0, 0
1, 1
2, 0
1, 5
0, 0
0, 2
0, 0
0, 0
0, 2
1, 0
0, 0
0, 0
0, 0
0, 1
0, 0
0, 1
0, 0
1, 1
0, 1
0, 1
1, 1
0, 0
0, 1
1, 0
0, 0
0, 0
0, 0
0, 1
0, 0
0, 0
0, 0
1, 0
0, 0
1, 0
0, 0
0, 0
0, 1
0, 1
0, 0
0, 0
0, 0
0, 1
0, 0
0, 0
1, 0
1, 1
1, 0
0, 0
0, 0
0, 0
0, 0
0, 0
1, 0
0, 0
0, 0
0, 0
0, 0
0, 0
0, 0
0, 1
0, 0
1, 0
0, 0
0, 1
0, 0
0, 0
0, 0
1, 0
1, 0
0, 0
0, 0
0, 0
0, 0
0, 0
0, 0
0, 0
0, 0
0, 0
0, 0
0, 0
0, 0
0, 0
0, 0
0, 0
0, 0
0, 0
0, 0
0, 0
0, 0
0, 0
0, 0
0, 0
0, 0
0, 0
0, 0
0, 0
0, 0
0, 0
0, 0
0, 0
0, 0
0, 0
0, 0
0, 0
0, 0
0, 0
0, 0
0, 0
0, 0
0, 0
0, 0
0, 0
0, 0
0, 0
0, 0
0, 0
0, 0
0, 0
0, 0
0, 0
0, 0
0, 0
0, 0
0, 0
0, 0
0, 0
0, 0
0, 0
0, 0
0, 0
0, 0
0, 0
0, 0
0, 0
0, 0
0, 0
0, 0
0, 0
0, 0
0, 0
0, 0
0, 0
0, 0
0, 0
0, 0
0, 0
0, 0
0, 0
0, 0
0, 0
0, 0
0, 0
0, 0
0, 0
0, 0
0, 0
0, 0
0, 0
0, 0
0, 0
0, 0
0, 0
#ENDOFDATA     end of spectrum data