File: host_upload/06-09-2024/ps_0852/dump3/ps__0852shot_2409.msa
#FORMAT      : EMSA/MAS spectral data file
#VERSION     : TC202v2.0 PIXL
#TITLE       : N/A
#DATE        :       Date in the format DD-MMM-YYYY, for example 07-JUL-2010
#TIME        :             The time of day at which the spectrum was recorded, in 24-hour format
#OWNER       : PIXL Flight Model       (PIXL will use this to indicate which instrument took the data.)
#NPOINTS     : 4096     Number of data points in the spectrum (This can be zero for configuration only files)
#NCOLUMNS    : 2     Number of data columns in the spectrum (This can be zero for configuration only files)
#XUNITS      : eV
#YUNITS      : COUNTS
#DATATYPE    : YY
#XPERCHAN    : 7.862, 7.881   eV per channel (separate by commas if more than one detector)
#OFFSET      : 18.5, -22.4         eV of first channel  (separate by commas if more than one detector
#SIGNALTYPE  : XRF
#YP_TEMP     : 2.107
#LIVETIME    : 8.5751, 8.57953   seconds (separate by commas if more than one detector)
#REALTIME    : 10, 10.0   seconds (separate by commas if more than one detector)
#SPECTRUM    : start of spectrum data
0, 0
0, 0
0, 0
0, 0
0, 0
0, 0
0, 0
0, 0
0, 2
3, 0
2, 3
35, 47
56, 53
3, 3
7, 3
112, 103
449, 495
117, 96
1, 3
1, 2
4, 4
3, 4
5, 3
12, 12
47, 70
32, 55
16, 22
17, 11
7, 7
3, 0
1, 3
3, 0
3, 3
7, 11
14, 10
6, 2
6, 2
6, 4
7, 7
22, 4
17, 4
5, 7
12, 12
12, 12
10, 4
8, 7
3, 6
7, 38
13, 73
10, 37
20, 7
28, 13
26, 9
40, 54
53, 69
17, 25
26, 34
404, 577
1958, 2476
1443, 1474
179, 136
14, 20
23, 18
99, 124
310, 375
208, 208
34, 21
6, 7
14, 16
3, 6
7, 5
5, 6
4, 9
3, 4
4, 3
6, 10
4, 2
4, 6
4, 1
4, 5
5, 2
7, 5
1, 9
2, 8
3, 11
1, 12
2, 4
5, 0
3, 3
6, 3
13, 7
18, 5
9, 3
3, 2
2, 3
2, 7
1, 9
3, 11
3, 5
2, 5
0, 0
3, 3
2, 2
1, 1
0, 1
1, 2
2, 0
1, 6
1, 2
1, 6
2, 1
3, 1
2, 1
6, 0
5, 1
3, 3
6, 6
5, 4
3, 2
2, 3
1, 3
0, 0
0, 4
1, 3
1, 1
1, 1
2, 2
1, 0
0, 0
0, 1
0, 0
1, 1
1, 0
2, 4
0, 2
1, 2
1, 0
0, 0
0, 1
1, 0
2, 3
0, 0
0, 0
1, 2
0, 1
1, 1
1, 0
1, 0
0, 0
2, 0
0, 0
1, 0
0, 1
1, 0
1, 0
0, 0
0, 1
0, 0
1, 0
0, 1
0, 0
0, 0
1, 0
1, 1
0, 0
0, 0
0, 0
0, 0
0, 1
0, 0
1, 0
1, 0
2, 0
1, 0
0, 1
0, 0
1, 0
0, 1
0, 0
1, 0
0, 0
0, 0
0, 0
1, 1
0, 0
0, 2
0, 0
1, 0
0, 0
0, 0
0, 0
0, 0
0, 0
0, 0
0, 0
0, 0
1, 1
0, 0
0, 0
0, 0
0, 0
0, 0
0, 0
0, 0
0, 0
0, 0
0, 0
2, 1
0, 0
0, 0
0, 0
0, 0
0, 0
0, 0
0, 0
0, 0
0, 0
0, 0
0, 0
0, 0
0, 0
0, 0
0, 0
0, 0
0, 0
0, 0
0, 0
0, 0
0, 0
0, 0
0, 0
0, 0
0, 0
0, 0
0, 0
0, 0
0, 0
0, 0
0, 0
0, 0
0, 0
0, 0
0, 0
0, 0
0, 0
0, 0
0, 0
0, 0
0, 0
0, 0
0, 1
0, 0
0, 0
0, 0
0, 0
0, 0
0, 0
0, 0
0, 0
0, 0
0, 0
0, 0
0, 0
0, 0
0, 0
0, 0
0, 0
0, 0
0, 0
0, 0
0, 0
0, 0
0, 0
0, 0
0, 0
0, 0
0, 0
0, 0
0, 0
0, 0
0, 0
0, 0
0, 0
0, 0
0, 0
0, 0
0, 0
0, 0
0, 0
0, 0
0, 0
0, 0
0, 0
0, 0
#ENDOFDATA     end of spectrum data