File: host_upload/06-09-2024/ps_0852/dump3/ps__0852shot_2557.msa
#FORMAT      : EMSA/MAS spectral data file
#VERSION     : TC202v2.0 PIXL
#TITLE       : N/A
#DATE        :       Date in the format DD-MMM-YYYY, for example 07-JUL-2010
#TIME        :             The time of day at which the spectrum was recorded, in 24-hour format
#OWNER       : PIXL Flight Model       (PIXL will use this to indicate which instrument took the data.)
#NPOINTS     : 4096     Number of data points in the spectrum (This can be zero for configuration only files)
#NCOLUMNS    : 2     Number of data columns in the spectrum (This can be zero for configuration only files)
#XUNITS      : eV
#YUNITS      : COUNTS
#DATATYPE    : YY
#XPERCHAN    : 7.862, 7.881   eV per channel (separate by commas if more than one detector)
#OFFSET      : 18.5, -22.4         eV of first channel  (separate by commas if more than one detector
#SIGNALTYPE  : XRF
#YP_TEMP     : 2.332
#LIVETIME    : 8.55553, 8.54614   seconds (separate by commas if more than one detector)
#REALTIME    : 10, 10.0   seconds (separate by commas if more than one detector)
#SPECTRUM    : start of spectrum data
0, 0
0, 0
0, 0
0, 0
0, 0
0, 0
0, 0
0, 0
0, 1
0, 2
1, 5
50, 50
58, 59
5, 6
2, 4
98, 110
422, 449
124, 102
3, 5
3, 4
2, 1
3, 5
1, 1
8, 7
39, 98
59, 144
30, 43
13, 26
2, 0
4, 3
1, 1
3, 2
1, 5
15, 9
13, 11
3, 2
3, 4
2, 5
1, 5
2, 4
16, 6
38, 17
55, 21
11, 9
3, 6
1, 1
5, 3
9, 11
20, 39
23, 26
14, 17
24, 35
25, 68
53, 71
54, 52
23, 22
30, 49
502, 590
2115, 2539
1529, 1466
188, 153
13, 24
16, 27
104, 136
364, 367
212, 190
37, 31
24, 37
20, 33
4, 5
3, 4
4, 2
8, 5
7, 7
11, 5
5, 3
8, 8
4, 18
3, 8
4, 4
5, 3
3, 2
6, 4
4, 6
10, 6
9, 5
8, 4
5, 4
5, 11
2, 4
0, 3
5, 6
5, 6
11, 8
7, 2
1, 2
3, 4
4, 2
2, 3
3, 2
3, 2
5, 1
5, 1
1, 3
0, 6
1, 0
0, 3
2, 1
3, 5
6, 3
1, 3
3, 6
1, 2
3, 2
1, 1
2, 3
2, 7
1, 5
1, 1
0, 3
3, 0
1, 1
2, 3
2, 1
1, 2
1, 2
2, 0
1, 1
1, 2
1, 2
2, 0
3, 0
1, 1
1, 1
2, 0
0, 1
0, 0
1, 0
1, 1
1, 0
1, 2
2, 0
1, 1
0, 0
0, 0
1, 0
0, 1
1, 1
0, 0
0, 0
1, 0
0, 0
0, 1
1, 0
2, 1
0, 1
0, 0
1, 1
2, 0
0, 0
0, 0
1, 0
0, 0
0, 0
0, 0
0, 0
0, 0
1, 0
0, 0
0, 0
0, 0
0, 0
0, 0
0, 1
0, 1
0, 0
0, 0
0, 0
0, 0
0, 0
0, 1
0, 1
0, 0
0, 1
0, 1
0, 0
0, 0
0, 0
0, 0
0, 0
0, 0
0, 0
0, 0
0, 0
0, 0
1, 0
0, 0
0, 0
0, 0
0, 0
0, 0
1, 0
0, 0
0, 0
0, 0
0, 0
0, 0
0, 0
1, 0
0, 0
0, 0
0, 0
0, 0
0, 0
0, 0
0, 0
0, 0
0, 0
0, 0
0, 0
0, 0
0, 0
0, 0
0, 0
0, 0
0, 0
0, 0
0, 0
0, 0
0, 0
0, 0
0, 0
0, 0
0, 0
0, 0
0, 0
0, 0
0, 0
0, 0
0, 0
0, 0
0, 0
0, 0
0, 0
0, 0
0, 0
0, 0
0, 0
0, 0
0, 0
0, 0
0, 0
0, 0
0, 0
0, 0
0, 0
0, 0
0, 0
0, 0
0, 0
0, 0
0, 0
0, 0
0, 0
0, 0
0, 0
0, 0
0, 0
0, 0
0, 0
0, 0
0, 0
0, 0
0, 0
0, 0
0, 0
0, 0
0, 0
0, 0
0, 0
0, 0
0, 0
0, 0
0, 0
0, 0
0, 0
0, 0
0, 0
0, 0
0, 0
0, 0
0, 0
0, 0
0, 0
#ENDOFDATA     end of spectrum data