File: host_upload/06-09-2024/ps_0852/dump3/ps__0852shot_2081.msa
#FORMAT      : EMSA/MAS spectral data file
#VERSION     : TC202v2.0 PIXL
#TITLE       : N/A
#DATE        :       Date in the format DD-MMM-YYYY, for example 07-JUL-2010
#TIME        :             The time of day at which the spectrum was recorded, in 24-hour format
#OWNER       : PIXL Flight Model       (PIXL will use this to indicate which instrument took the data.)
#NPOINTS     : 4096     Number of data points in the spectrum (This can be zero for configuration only files)
#NCOLUMNS    : 2     Number of data columns in the spectrum (This can be zero for configuration only files)
#XUNITS      : eV
#YUNITS      : COUNTS
#DATATYPE    : YY
#XPERCHAN    : 7.862, 7.881   eV per channel (separate by commas if more than one detector)
#OFFSET      : 18.5, -22.4         eV of first channel  (separate by commas if more than one detector
#SIGNALTYPE  : XRF
#YP_TEMP     : 2.428
#LIVETIME    : 8.56196, 8.5584   seconds (separate by commas if more than one detector)
#REALTIME    : 10, 10.0   seconds (separate by commas if more than one detector)
#SPECTRUM    : start of spectrum data
0, 0
0, 0
0, 0
0, 0
0, 0
0, 0
0, 0
0, 0
6, 1
11, 0
3, 1
47, 57
72, 61
8, 6
1, 7
118, 107
414, 437
134, 96
8, 8
4, 2
6, 6
24, 27
15, 7
15, 4
366, 22
561, 28
95, 16
12, 10
7, 1
2, 0
1, 2
0, 3
3, 2
12, 12
16, 21
3, 2
2, 3
46, 7
77, 3
25, 6
9, 5
12, 9
15, 24
13, 104
7, 126
1, 20
6, 9
6, 7
9, 7
9, 11
33, 13
57, 4
34, 10
30, 35
44, 50
18, 26
22, 55
445, 619
2182, 2388
1556, 1366
175, 153
37, 18
109, 22
217, 116
365, 348
228, 209
24, 23
9, 5
15, 12
7, 7
3, 1
3, 1
2, 0
6, 6
18, 6
62, 2
106, 8
46, 6
6, 12
4, 0
7, 2
3, 3
8, 4
5, 4
2, 4
2, 3
1, 4
5, 5
3, 6
5, 3
3, 7
1, 4
0, 4
2, 3
3, 0
3, 2
1, 3
1, 2
1, 4
6, 0
5, 8
8, 1
4, 2
6, 3
5, 0
0, 0
1, 0
2, 4
1, 5
6, 1
4, 1
1, 3
2, 5
4, 5
5, 1
3, 4
4, 3
5, 1
1, 4
1, 0
0, 0
6, 1
2, 5
2, 2
0, 2
2, 1
0, 0
1, 1
0, 2
0, 1
1, 2
0, 2
0, 0
0, 2
1, 0
1, 1
2, 3
0, 0
3, 0
3, 1
1, 3
1, 0
0, 0
1, 1
1, 0
1, 1
0, 1
1, 1
0, 1
0, 0
0, 0
0, 0
2, 3
0, 0
0, 0
1, 0
1, 3
0, 0
0, 1
0, 0
1, 0
0, 0
1, 0
0, 0
0, 0
0, 1
0, 0
0, 0
0, 0
0, 0
0, 0
0, 0
0, 0
0, 0
0, 0
0, 1
0, 1
1, 0
0, 0
0, 0
0, 1
1, 1
0, 0
0, 1
0, 0
0, 0
1, 0
0, 0
0, 0
0, 0
0, 0
0, 0
0, 0
0, 0
0, 0
0, 0
0, 0
0, 0
0, 0
0, 0
0, 0
0, 0
0, 0
0, 0
0, 0
0, 0
0, 0
0, 0
0, 0
0, 1
0, 0
0, 0
0, 0
0, 0
0, 0
0, 0
0, 0
0, 0
0, 0
0, 0
0, 0
0, 0
0, 0
0, 0
0, 0
0, 0
0, 0
1, 0
0, 0
0, 0
0, 0
0, 0
0, 0
0, 0
0, 0
0, 0
0, 0
0, 0
0, 0
0, 0
0, 0
0, 0
0, 0
0, 0
0, 0
0, 0
0, 0
0, 0
0, 0
0, 0
0, 0
0, 0
0, 0
0, 0
0, 0
0, 0
0, 0
0, 0
0, 0
0, 0
0, 0
0, 0
0, 0
0, 0
0, 0
0, 0
0, 0
0, 0
0, 0
0, 0
0, 0
0, 0
0, 0
0, 0
0, 0
0, 0
0, 0
0, 0
0, 0
0, 0
0, 0
0, 0
0, 0
0, 0
0, 0
0, 0
0, 0
0, 0
0, 0
0, 0
0, 0
0, 0
0, 0
0, 0
#ENDOFDATA     end of spectrum data