File: host_upload/06-09-2024/ps_0852/dump3/ps__0852shot_2273.msa
#FORMAT      : EMSA/MAS spectral data file
#VERSION     : TC202v2.0 PIXL
#TITLE       : N/A
#DATE        :       Date in the format DD-MMM-YYYY, for example 07-JUL-2010
#TIME        :             The time of day at which the spectrum was recorded, in 24-hour format
#OWNER       : PIXL Flight Model       (PIXL will use this to indicate which instrument took the data.)
#NPOINTS     : 4096     Number of data points in the spectrum (This can be zero for configuration only files)
#NCOLUMNS    : 2     Number of data columns in the spectrum (This can be zero for configuration only files)
#XUNITS      : eV
#YUNITS      : COUNTS
#DATATYPE    : YY
#XPERCHAN    : 7.862, 7.881   eV per channel (separate by commas if more than one detector)
#OFFSET      : 18.5, -22.4         eV of first channel  (separate by commas if more than one detector
#SIGNALTYPE  : XRF
#YP_TEMP     : 2.235
#LIVETIME    : 8.57134, 8.55922   seconds (separate by commas if more than one detector)
#REALTIME    : 10, 10.0   seconds (separate by commas if more than one detector)
#SPECTRUM    : start of spectrum data
0, 0
0, 0
0, 0
0, 0
0, 0
0, 0
0, 0
0, 0
0, 2
3, 1
3, 2
37, 42
32, 72
2, 6
8, 2
79, 106
346, 496
74, 97
4, 4
2, 4
14, 16
91, 116
25, 33
19, 15
55, 65
60, 59
21, 27
10, 10
5, 5
3, 2
0, 3
0, 2
4, 3
4, 9
10, 16
1, 81
4, 105
4, 19
5, 5
4, 4
3, 4
5, 10
12, 34
7, 24
5, 8
6, 4
7, 4
2, 5
4, 9
10, 16
7, 12
2, 10
9, 11
36, 42
59, 62
77, 26
98, 48
400, 664
1661, 2576
1209, 1567
140, 170
12, 35
15, 21
63, 137
263, 375
184, 207
32, 22
15, 4
12, 11
4, 12
1, 20
4, 31
3, 12
6, 9
11, 7
11, 8
2, 3
6, 3
4, 5
5, 12
2, 4
2, 2
2, 7
0, 3
5, 18
1, 8
5, 6
3, 5
18, 3
7, 0
5, 5
1, 5
1, 13
6, 4
3, 8
0, 7
3, 1
1, 2
3, 2
2, 4
2, 1
3, 0
3, 0
1, 2
3, 4
4, 2
1, 1
0, 2
1, 1
2, 1
4, 3
4, 3
4, 2
1, 5
1, 2
3, 1
3, 6
1, 2
2, 4
1, 4
0, 2
2, 0
2, 0
1, 0
0, 4
1, 2
3, 2
2, 1
0, 1
2, 1
2, 1
0, 3
0, 4
1, 1
2, 0
3, 1
1, 0
1, 1
0, 0
0, 0
0, 1
0, 0
0, 0
0, 0
0, 3
0, 1
0, 0
0, 2
0, 0
0, 0
1, 0
0, 0
1, 0
0, 0
0, 1
0, 0
0, 0
0, 2
0, 0
1, 0
1, 0
1, 1
0, 0
0, 0
2, 0
0, 0
0, 0
1, 0
1, 1
0, 1
0, 0
0, 0
0, 0
2, 0
0, 0
0, 0
0, 0
0, 0
0, 0
0, 0
0, 0
0, 0
0, 0
0, 0
0, 0
0, 0
0, 0
0, 0
0, 0
0, 0
0, 0
0, 0
0, 0
0, 0
0, 0
0, 0
0, 0
0, 0
0, 0
0, 0
0, 0
0, 0
0, 0
1, 0
0, 0
0, 1
0, 1
0, 0
0, 0
0, 0
0, 0
0, 0
0, 0
0, 0
0, 0
0, 0
0, 0
0, 0
0, 0
0, 0
0, 0
0, 0
0, 0
0, 0
0, 0
0, 0
0, 0
0, 0
0, 0
0, 0
0, 0
0, 0
0, 0
0, 0
0, 0
0, 0
0, 0
0, 0
0, 0
0, 0
0, 0
0, 0
0, 0
0, 0
0, 0
0, 0
0, 0
0, 0
0, 0
0, 0
0, 0
0, 0
0, 0
0, 0
0, 0
0, 0
0, 0
0, 0
0, 0
0, 0
0, 0
0, 0
0, 0
0, 0
0, 0
0, 0
0, 0
0, 0
0, 0
0, 0
0, 0
0, 0
0, 0
0, 0
0, 0
0, 0
0, 0
0, 0
0, 0
0, 0
0, 0
0, 0
0, 0
0, 0
0, 0
0, 0
0, 0
0, 0
0, 0
0, 0
0, 0
0, 0
0, 0
0, 0
#ENDOFDATA     end of spectrum data