File: host_upload/06-09-2024/ps_0852/dump3/ps__0852shot_2451.msa
#FORMAT      : EMSA/MAS spectral data file
#VERSION     : TC202v2.0 PIXL
#TITLE       : N/A
#DATE        :       Date in the format DD-MMM-YYYY, for example 07-JUL-2010
#TIME        :             The time of day at which the spectrum was recorded, in 24-hour format
#OWNER       : PIXL Flight Model       (PIXL will use this to indicate which instrument took the data.)
#NPOINTS     : 4096     Number of data points in the spectrum (This can be zero for configuration only files)
#NCOLUMNS    : 2     Number of data columns in the spectrum (This can be zero for configuration only files)
#XUNITS      : eV
#YUNITS      : COUNTS
#DATATYPE    : YY
#XPERCHAN    : 7.862, 7.881   eV per channel (separate by commas if more than one detector)
#OFFSET      : 18.5, -22.4         eV of first channel  (separate by commas if more than one detector
#SIGNALTYPE  : XRF
#YP_TEMP     : 2.267
#LIVETIME    : 8.56415, 8.55665   seconds (separate by commas if more than one detector)
#REALTIME    : 10, 10.0   seconds (separate by commas if more than one detector)
#SPECTRUM    : start of spectrum data
0, 0
0, 0
0, 0
0, 0
0, 0
0, 0
0, 0
0, 0
0, 0
5, 2
2, 3
43, 52
44, 44
9, 3
3, 3
83, 90
408, 465
103, 103
5, 5
2, 4
10, 16
75, 85
23, 25
12, 13
43, 32
37, 46
18, 27
13, 7
6, 5
3, 1
2, 2
1, 2
3, 0
5, 7
7, 19
0, 16
7, 27
26, 6
33, 9
6, 1
3, 6
10, 6
20, 7
20, 11
9, 14
2, 12
6, 5
7, 8
5, 2
8, 6
11, 11
4, 7
7, 5
33, 29
70, 72
47, 14
31, 44
469, 603
2247, 2216
1484, 1333
183, 142
15, 65
13, 60
97, 138
313, 361
234, 206
24, 24
7, 11
12, 13
13, 5
3, 3
7, 3
7, 8
4, 1
12, 5
17, 1
7, 7
4, 3
5, 12
3, 8
2, 2
1, 2
6, 4
6, 2
9, 4
9, 3
7, 3
7, 2
6, 4
1, 4
2, 21
1, 9
2, 3
5, 7
3, 2
5, 4
1, 1
4, 2
3, 3
7, 2
1, 3
5, 1
2, 1
2, 2
0, 2
0, 3
2, 4
1, 3
4, 2
1, 2
2, 1
3, 0
4, 1
5, 2
4, 1
2, 6
4, 6
2, 4
2, 1
4, 0
2, 0
2, 5
5, 4
0, 0
1, 1
1, 2
1, 3
1, 1
1, 1
3, 2
0, 2
1, 1
0, 0
0, 0
1, 1
0, 1
1, 1
1, 0
1, 2
0, 0
2, 1
1, 0
0, 1
0, 1
0, 1
1, 0
1, 0
1, 2
0, 0
1, 0
1, 1
0, 0
0, 1
0, 0
0, 0
1, 0
3, 0
1, 0
0, 0
0, 1
0, 1
0, 1
1, 0
0, 0
0, 0
0, 1
0, 0
0, 1
0, 1
0, 0
0, 1
0, 0
0, 0
0, 1
0, 0
0, 0
0, 0
0, 0
0, 0
0, 0
0, 0
0, 0
1, 0
0, 0
0, 0
0, 0
0, 0
0, 0
0, 0
0, 0
0, 0
1, 1
0, 0
0, 0
0, 0
0, 0
0, 0
0, 0
1, 0
0, 0
0, 0
0, 0
0, 0
0, 0
0, 0
0, 0
0, 0
0, 1
0, 0
0, 0
0, 0
0, 0
0, 0
0, 0
0, 0
0, 0
0, 0
0, 0
0, 0
0, 0
0, 0
0, 0
0, 0
0, 0
0, 0
0, 0
0, 0
0, 0
0, 0
0, 0
0, 0
0, 0
0, 0
0, 0
0, 0
0, 0
0, 0
0, 0
0, 0
0, 0
0, 0
0, 0
0, 0
0, 0
0, 0
0, 0
0, 0
0, 0
0, 0
0, 0
0, 0
0, 0
0, 0
0, 0
0, 0
0, 0
0, 0
0, 0
0, 0
0, 0
0, 0
0, 0
0, 0
0, 0
0, 0
0, 0
0, 0
0, 0
0, 0
0, 0
0, 0
0, 0
0, 0
0, 0
0, 0
0, 0
0, 0
0, 0
0, 0
0, 0
0, 0
0, 0
0, 0
0, 0
0, 0
0, 0
0, 0
0, 0
0, 0
0, 0
0, 0
0, 0
0, 0
0, 0
#ENDOFDATA     end of spectrum data