File: host_upload/06-09-2024/ps_0852/dump3/ps__0852shot_2496.msa
#FORMAT      : EMSA/MAS spectral data file
#VERSION     : TC202v2.0 PIXL
#TITLE       : N/A
#DATE        :       Date in the format DD-MMM-YYYY, for example 07-JUL-2010
#TIME        :             The time of day at which the spectrum was recorded, in 24-hour format
#OWNER       : PIXL Flight Model       (PIXL will use this to indicate which instrument took the data.)
#NPOINTS     : 4096     Number of data points in the spectrum (This can be zero for configuration only files)
#NCOLUMNS    : 2     Number of data columns in the spectrum (This can be zero for configuration only files)
#XUNITS      : eV
#YUNITS      : COUNTS
#DATATYPE    : YY
#XPERCHAN    : 7.862, 7.881   eV per channel (separate by commas if more than one detector)
#OFFSET      : 18.5, -22.4         eV of first channel  (separate by commas if more than one detector
#SIGNALTYPE  : XRF
#YP_TEMP     : 2.107
#LIVETIME    : 8.56679, 8.53996   seconds (separate by commas if more than one detector)
#REALTIME    : 10, 10.0   seconds (separate by commas if more than one detector)
#SPECTRUM    : start of spectrum data
0, 0
0, 0
0, 0
0, 0
0, 0
0, 0
0, 0
0, 0
3, 0
3, 1
1, 1
40, 43
40, 42
9, 7
4, 7
94, 105
409, 410
89, 93
5, 8
3, 4
4, 7
19, 20
4, 12
21, 25
59, 81
77, 55
30, 40
21, 18
7, 5
4, 3
2, 6
3, 2
8, 10
105, 163
220, 241
35, 70
24, 59
24, 34
20, 14
6, 5
11, 9
15, 19
17, 12
27, 13
11, 9
16, 9
6, 6
2, 12
15, 11
61, 59
48, 36
12, 16
22, 4
58, 57
74, 58
33, 24
36, 35
378, 529
1860, 2175
1355, 1321
156, 123
9, 20
25, 18
94, 118
293, 330
210, 159
33, 16
4, 3
10, 19
12, 15
9, 10
3, 9
4, 3
7, 4
13, 3
13, 5
4, 9
4, 4
3, 11
6, 4
1, 6
5, 2
3, 4
5, 6
12, 2
4, 9
3, 4
5, 2
4, 4
5, 3
3, 4
7, 4
7, 4
2, 5
2, 5
1, 4
3, 2
2, 0
4, 4
1, 3
2, 11
0, 5
4, 3
2, 2
3, 7
3, 5
2, 5
1, 0
1, 3
0, 3
1, 2
4, 0
1, 5
2, 3
1, 2
3, 5
2, 7
2, 5
1, 0
1, 0
3, 2
0, 0
4, 4
2, 2
2, 1
2, 2
1, 1
1, 0
0, 0
1, 1
0, 2
0, 2
1, 1
1, 2
1, 0
2, 1
0, 1
0, 0
1, 2
2, 0
2, 1
1, 2
0, 1
0, 2
0, 0
1, 1
0, 0
0, 1
0, 0
0, 0
0, 0
0, 0
1, 0
2, 0
0, 1
1, 0
1, 0
1, 0
0, 0
0, 0
0, 0
0, 2
0, 0
0, 0
1, 0
0, 0
0, 0
1, 0
0, 0
1, 0
0, 0
0, 0
0, 0
1, 0
0, 1
0, 0
0, 0
0, 0
0, 1
0, 1
0, 0
0, 1
0, 0
0, 0
0, 0
0, 0
0, 0
0, 0
0, 0
0, 0
0, 0
1, 0
0, 0
0, 0
0, 0
0, 0
0, 0
0, 0
0, 0
0, 0
0, 0
0, 0
0, 0
0, 0
0, 0
0, 0
0, 0
0, 0
0, 0
0, 0
0, 0
0, 0
0, 0
0, 0
0, 0
0, 0
0, 0
0, 0
0, 0
0, 0
0, 0
0, 0
0, 0
0, 0
0, 0
0, 0
0, 0
0, 0
0, 0
0, 0
0, 0
0, 0
0, 0
0, 0
0, 0
0, 0
0, 0
0, 0
0, 0
0, 0
0, 0
0, 0
0, 0
0, 0
0, 0
0, 0
0, 0
0, 0
0, 0
0, 0
0, 0
0, 0
0, 0
0, 0
0, 0
0, 0
0, 0
0, 0
0, 0
0, 0
0, 0
0, 0
0, 0
0, 0
0, 0
0, 0
0, 0
0, 0
0, 0
0, 0
0, 0
0, 0
0, 0
0, 0
0, 0
0, 0
0, 0
0, 0
0, 0
0, 0
0, 0
0, 0
0, 0
0, 0
0, 0
0, 0
0, 0
0, 0
0, 0
0, 0
0, 0
0, 0
0, 0
0, 0
#ENDOFDATA     end of spectrum data