File: host_upload/06-09-2024/ps_0852/dump3/ps__0852shot_2160.msa
#FORMAT      : EMSA/MAS spectral data file
#VERSION     : TC202v2.0 PIXL
#TITLE       : N/A
#DATE        :       Date in the format DD-MMM-YYYY, for example 07-JUL-2010
#TIME        :             The time of day at which the spectrum was recorded, in 24-hour format
#OWNER       : PIXL Flight Model       (PIXL will use this to indicate which instrument took the data.)
#NPOINTS     : 4096     Number of data points in the spectrum (This can be zero for configuration only files)
#NCOLUMNS    : 2     Number of data columns in the spectrum (This can be zero for configuration only files)
#XUNITS      : eV
#YUNITS      : COUNTS
#DATATYPE    : YY
#XPERCHAN    : 7.862, 7.881   eV per channel (separate by commas if more than one detector)
#OFFSET      : 18.5, -22.4         eV of first channel  (separate by commas if more than one detector
#SIGNALTYPE  : XRF
#YP_TEMP     : 2.428
#LIVETIME    : 8.55416, 8.55175   seconds (separate by commas if more than one detector)
#REALTIME    : 10, 10.0   seconds (separate by commas if more than one detector)
#SPECTRUM    : start of spectrum data
0, 0
0, 0
0, 0
0, 0
0, 0
0, 0
0, 0
0, 1
0, 0
1, 0
2, 1
44, 31
53, 52
8, 10
3, 8
77, 104
361, 407
94, 102
3, 9
2, 2
29, 35
145, 183
68, 69
29, 31
79, 94
52, 64
27, 23
17, 19
7, 13
2, 4
3, 2
2, 2
2, 2
4, 11
20, 13
4, 2
3, 2
5, 10
1, 16
3, 5
5, 7
9, 12
16, 9
13, 14
8, 5
1, 7
5, 11
8, 6
4, 11
21, 15
14, 25
19, 10
8, 19
34, 52
44, 83
19, 25
20, 32
449, 599
1971, 2369
1491, 1444
180, 141
18, 11
21, 26
98, 116
321, 377
228, 196
43, 29
8, 12
19, 10
24, 5
20, 5
11, 1
8, 6
2, 6
9, 12
8, 12
5, 21
1, 9
6, 3
10, 3
4, 7
7, 2
3, 3
3, 2
6, 5
5, 13
4, 2
8, 1
1, 3
3, 5
1, 7
6, 6
4, 1
6, 4
3, 3
1, 0
3, 4
0, 3
2, 5
2, 4
3, 5
2, 1
3, 5
2, 0
2, 4
4, 2
3, 2
1, 0
2, 4
7, 3
1, 4
3, 2
0, 0
1, 1
1, 4
2, 1
5, 6
3, 3
3, 4
3, 3
1, 0
2, 3
2, 2
1, 1
0, 1
0, 0
1, 1
2, 1
1, 1
1, 1
0, 0
0, 1
1, 2
1, 0
0, 1
1, 1
0, 0
1, 1
1, 0
3, 0
1, 0
1, 1
1, 1
0, 0
1, 0
1, 0
0, 0
0, 1
0, 0
0, 0
0, 0
0, 0
0, 1
0, 0
0, 0
1, 0
1, 0
1, 0
0, 0
0, 1
0, 0
0, 0
1, 0
1, 0
0, 0
0, 0
0, 0
0, 1
0, 0
0, 0
1, 0
0, 0
0, 0
0, 1
0, 0
0, 0
0, 0
0, 1
0, 0
0, 0
0, 0
0, 0
0, 0
0, 0
0, 0
0, 0
0, 0
0, 0
0, 0
0, 0
0, 0
0, 0
0, 1
0, 0
0, 0
0, 0
0, 0
0, 0
0, 0
0, 0
0, 0
0, 0
0, 0
0, 0
0, 1
0, 0
0, 0
0, 0
0, 0
0, 1
0, 0
0, 0
0, 0
0, 0
0, 0
0, 0
0, 0
0, 0
0, 0
0, 0
0, 0
0, 0
0, 0
0, 0
0, 0
0, 0
0, 0
0, 0
0, 0
0, 0
0, 0
0, 0
0, 0
0, 0
0, 0
0, 0
0, 0
0, 0
0, 0
0, 0
0, 0
0, 0
0, 0
0, 0
0, 0
0, 0
0, 0
0, 0
0, 0
0, 0
0, 0
0, 0
0, 0
0, 0
0, 0
0, 0
0, 0
0, 0
0, 0
0, 0
0, 0
0, 0
0, 0
0, 0
0, 0
0, 0
0, 0
0, 0
0, 0
0, 0
0, 0
0, 0
0, 0
0, 0
0, 0
0, 0
0, 0
0, 0
0, 0
0, 0
0, 0
0, 0
0, 0
0, 0
0, 0
0, 0
0, 0
0, 0
0, 0
0, 0
0, 0
0, 0
0, 0
0, 0
#ENDOFDATA     end of spectrum data