File: host_upload/06-09-2024/ps_0852/dump3/ps__0852shot_2072.msa
#FORMAT      : EMSA/MAS spectral data file
#VERSION     : TC202v2.0 PIXL
#TITLE       : N/A
#DATE        :       Date in the format DD-MMM-YYYY, for example 07-JUL-2010
#TIME        :             The time of day at which the spectrum was recorded, in 24-hour format
#OWNER       : PIXL Flight Model       (PIXL will use this to indicate which instrument took the data.)
#NPOINTS     : 4096     Number of data points in the spectrum (This can be zero for configuration only files)
#NCOLUMNS    : 2     Number of data columns in the spectrum (This can be zero for configuration only files)
#XUNITS      : eV
#YUNITS      : COUNTS
#DATATYPE    : YY
#XPERCHAN    : 7.862, 7.881   eV per channel (separate by commas if more than one detector)
#OFFSET      : 18.5, -22.4         eV of first channel  (separate by commas if more than one detector
#SIGNALTYPE  : XRF
#YP_TEMP     : 2.428
#LIVETIME    : 8.55999, 8.56337   seconds (separate by commas if more than one detector)
#REALTIME    : 10, 10.0   seconds (separate by commas if more than one detector)
#SPECTRUM    : start of spectrum data
0, 0
0, 0
0, 0
0, 0
0, 0
0, 0
0, 0
0, 0
1, 0
1, 2
4, 1
41, 44
66, 54
6, 5
3, 8
85, 94
412, 363
107, 110
9, 7
1, 2
3, 2
23, 17
7, 6
6, 13
43, 50
79, 60
40, 32
17, 21
4, 3
6, 4
3, 6
4, 6
12, 4
30, 25
49, 26
8, 10
7, 6
8, 12
13, 8
9, 6
5, 15
11, 40
18, 19
15, 9
7, 2
5, 6
10, 9
9, 8
8, 6
19, 20
21, 10
20, 13
18, 15
49, 43
63, 45
22, 29
38, 36
488, 582
2203, 2215
1606, 1326
222, 154
16, 26
31, 26
98, 130
312, 340
228, 195
32, 20
13, 8
18, 14
14, 10
4, 4
6, 2
9, 5
5, 5
7, 11
4, 9
10, 10
3, 5
6, 8
6, 2
3, 6
6, 4
9, 6
8, 4
5, 7
9, 4
6, 5
5, 0
3, 2
5, 3
3, 0
5, 2
2, 1
5, 2
2, 3
1, 4
1, 5
4, 2
3, 1
4, 4
4, 2
1, 2
2, 3
2, 0
1, 1
4, 1
4, 2
1, 2
2, 2
3, 5
4, 2
0, 1
2, 1
3, 3
4, 2
2, 0
7, 1
2, 6
3, 1
2, 1
3, 2
1, 4
1, 1
3, 2
2, 1
0, 0
2, 1
1, 1
2, 1
4, 2
3, 0
4, 1
2, 0
3, 1
2, 1
1, 0
1, 0
0, 0
0, 0
1, 0
2, 2
0, 0
1, 0
1, 0
1, 1
0, 1
0, 0
0, 0
0, 1
1, 0
0, 1
1, 0
0, 0
0, 1
3, 0
0, 0
0, 0
1, 1
0, 1
1, 0
0, 0
1, 1
0, 0
0, 0
0, 0
0, 0
0, 0
0, 0
0, 1
0, 0
0, 0
0, 0
0, 0
1, 0
0, 0
0, 0
0, 0
0, 0
0, 0
0, 0
0, 0
0, 0
0, 0
0, 0
0, 1
0, 0
0, 0
0, 0
0, 0
0, 0
0, 0
0, 0
1, 0
0, 0
0, 0
0, 0
0, 0
0, 0
0, 0
0, 0
0, 0
0, 0
0, 0
0, 0
0, 0
0, 0
0, 0
0, 0
0, 0
0, 0
0, 0
0, 0
0, 0
0, 0
0, 0
0, 0
1, 0
0, 0
0, 0
0, 0
0, 0
0, 1
0, 0
0, 0
0, 0
0, 0
0, 0
0, 0
0, 0
0, 0
0, 0
0, 0
0, 0
0, 0
0, 0
0, 0
0, 0
0, 0
0, 0
0, 0
0, 0
0, 0
0, 0
0, 0
0, 0
0, 0
0, 0
0, 0
0, 0
0, 0
0, 0
0, 0
0, 0
0, 0
0, 0
0, 0
0, 0
0, 0
0, 0
0, 0
0, 0
0, 0
0, 0
0, 0
0, 0
0, 0
0, 0
0, 0
0, 0
0, 0
0, 0
0, 0
0, 0
0, 0
0, 0
0, 0
0, 0
0, 0
0, 0
0, 0
0, 0
0, 0
0, 0
0, 0
0, 0
0, 0
0, 0
0, 0
0, 0
0, 0
0, 0
0, 0
0, 0
0, 0
#ENDOFDATA     end of spectrum data