File: host_upload/06-09-2024/ps_0852/dump3/ps__0852shot_2000.msa
#FORMAT      : EMSA/MAS spectral data file
#VERSION     : TC202v2.0 PIXL
#TITLE       : N/A
#DATE        :       Date in the format DD-MMM-YYYY, for example 07-JUL-2010
#TIME        :             The time of day at which the spectrum was recorded, in 24-hour format
#OWNER       : PIXL Flight Model       (PIXL will use this to indicate which instrument took the data.)
#NPOINTS     : 4096     Number of data points in the spectrum (This can be zero for configuration only files)
#NCOLUMNS    : 2     Number of data columns in the spectrum (This can be zero for configuration only files)
#XUNITS      : eV
#YUNITS      : COUNTS
#DATATYPE    : YY
#XPERCHAN    : 7.862, 7.881   eV per channel (separate by commas if more than one detector)
#OFFSET      : 18.5, -22.4         eV of first channel  (separate by commas if more than one detector
#SIGNALTYPE  : XRF
#YP_TEMP     : 2.396
#LIVETIME    : 8.54756, 8.35674   seconds (separate by commas if more than one detector)
#REALTIME    : 10, 10.0   seconds (separate by commas if more than one detector)
#SPECTRUM    : start of spectrum data
0, 0
0, 0
0, 0
0, 0
0, 0
0, 0
0, 0
0, 0
1, 1
0, 2
1, 4
34, 45
56, 50
9, 4
2, 4
66, 92
325, 411
95, 96
8, 4
1, 0
7, 6
24, 30
16, 14
5, 10
17, 47
35, 77
23, 17
10, 14
7, 6
2, 7
1, 5
0, 4
4, 9
11, 15
12, 12
12, 7
6, 8
7, 7
6, 13
5, 8
4, 8
7, 23
11, 13
4, 19
8, 37
5, 22
9, 4
10, 8
12, 11
18, 21
17, 12
10, 13
5, 8
34, 45
49, 64
28, 28
34, 53
366, 640
1677, 2361
1244, 1425
165, 151
17, 17
17, 16
81, 138
248, 375
177, 206
29, 19
3, 15
7, 25
6, 9
3, 8
4, 7
5, 5
4, 10
3, 15
2, 7
6, 10
2, 7
5, 7
6, 4
4, 6
4, 2
2, 4
4, 3
3, 3
5, 5
6, 7
7, 5
3, 2
3, 3
5, 4
5, 5
6, 4
5, 2
2, 13
5, 12
2, 4
2, 6
2, 1
1, 3
1, 1
0, 3
0, 2
2, 3
3, 0
1, 3
3, 0
1, 3
2, 2
2, 3
2, 1
1, 0
1, 3
1, 2
5, 2
3, 4
1, 5
1, 2
1, 2
1, 0
0, 2
0, 2
0, 1
0, 1
2, 0
0, 3
3, 1
1, 2
0, 1
1, 2
1, 0
1, 3
0, 1
0, 0
4, 0
1, 1
1, 3
2, 0
0, 0
1, 0
1, 0
0, 0
1, 0
0, 0
0, 0
0, 0
0, 0
0, 1
0, 0
0, 0
1, 1
0, 0
0, 0
1, 0
0, 0
0, 0
0, 1
0, 0
0, 0
1, 0
0, 0
2, 0
2, 0
0, 0
0, 1
0, 1
0, 0
0, 0
0, 2
0, 0
0, 0
0, 0
0, 0
1, 0
0, 0
0, 0
0, 0
0, 1
0, 0
0, 0
0, 0
0, 0
0, 0
1, 0
0, 0
0, 0
0, 0
0, 0
0, 0
2, 0
0, 0
0, 0
0, 0
0, 0
0, 0
0, 0
0, 0
1, 0
0, 0
0, 0
0, 0
0, 0
0, 0
0, 0
0, 1
0, 0
0, 0
0, 0
0, 0
1, 0
0, 0
0, 0
0, 0
0, 0
0, 0
0, 0
0, 0
0, 0
0, 0
0, 0
0, 0
0, 0
0, 0
0, 0
0, 0
0, 0
0, 0
0, 0
0, 0
0, 0
0, 0
0, 0
0, 0
0, 0
0, 0
0, 0
0, 0
0, 0
0, 0
0, 0
0, 0
0, 0
0, 0
0, 0
0, 0
0, 0
0, 0
0, 0
0, 0
0, 0
0, 0
0, 0
0, 0
0, 0
0, 0
0, 0
0, 0
0, 0
0, 0
0, 0
0, 0
0, 0
0, 0
0, 0
0, 0
0, 0
0, 0
0, 0
0, 0
0, 0
0, 0
0, 0
0, 0
0, 0
0, 0
0, 0
0, 0
0, 0
0, 0
0, 0
0, 0
0, 0
0, 0
0, 0
0, 0
0, 0
0, 0
0, 0
0, 0
0, 0
0, 0
0, 0
0, 0
0, 0
#ENDOFDATA     end of spectrum data