File: host_upload/06-09-2024/ps_0852/dump3/ps__0852shot_2239.msa
#FORMAT      : EMSA/MAS spectral data file
#VERSION     : TC202v2.0 PIXL
#TITLE       : N/A
#DATE        :       Date in the format DD-MMM-YYYY, for example 07-JUL-2010
#TIME        :             The time of day at which the spectrum was recorded, in 24-hour format
#OWNER       : PIXL Flight Model       (PIXL will use this to indicate which instrument took the data.)
#NPOINTS     : 4096     Number of data points in the spectrum (This can be zero for configuration only files)
#NCOLUMNS    : 2     Number of data columns in the spectrum (This can be zero for configuration only files)
#XUNITS      : eV
#YUNITS      : COUNTS
#DATATYPE    : YY
#XPERCHAN    : 7.862, 7.881   eV per channel (separate by commas if more than one detector)
#OFFSET      : 18.5, -22.4         eV of first channel  (separate by commas if more than one detector
#SIGNALTYPE  : XRF
#YP_TEMP     : 2.332
#LIVETIME    : 8.56289, 8.52623   seconds (separate by commas if more than one detector)
#REALTIME    : 10, 10.0   seconds (separate by commas if more than one detector)
#SPECTRUM    : start of spectrum data
0, 0
0, 0
0, 0
0, 0
0, 0
0, 0
0, 0
0, 0
0, 0
1, 1
3, 3
59, 43
63, 58
4, 5
5, 2
96, 84
470, 377
126, 82
7, 5
1, 0
0, 2
1, 1
3, 4
4, 2
24, 15
33, 22
21, 15
16, 14
5, 2
1, 2
3, 2
1, 7
1, 15
12, 50
17, 13
4, 0
5, 4
9, 1
4, 3
8, 1
18, 3
24, 8
18, 10
22, 9
12, 8
6, 8
3, 15
0, 4
10, 11
15, 21
13, 23
8, 11
33, 12
65, 36
89, 48
31, 14
76, 37
540, 527
2282, 2176
1705, 1194
195, 124
12, 22
21, 23
120, 106
332, 350
237, 179
46, 18
24, 12
33, 13
10, 10
6, 2
8, 5
3, 1
4, 1
3, 4
4, 2
4, 3
5, 5
6, 4
9, 3
7, 5
9, 5
2, 2
4, 5
5, 1
5, 3
8, 4
3, 4
3, 2
6, 3
4, 3
3, 1
6, 9
5, 6
7, 6
4, 1
3, 0
3, 3
2, 3
2, 2
2, 3
2, 2
2, 2
5, 0
3, 1
2, 2
2, 1
4, 5
5, 0
2, 0
3, 1
3, 4
7, 5
2, 3
0, 0
4, 3
1, 5
4, 2
6, 2
4, 2
2, 1
0, 2
1, 1
2, 0
1, 1
1, 1
2, 3
3, 0
0, 0
0, 0
2, 1
0, 0
1, 1
0, 2
1, 0
1, 1
1, 1
3, 0
1, 3
0, 1
1, 1
1, 0
0, 0
0, 0
0, 0
0, 1
1, 0
2, 1
0, 1
0, 0
0, 1
0, 0
0, 0
1, 0
0, 1
1, 0
0, 0
1, 1
1, 0
0, 0
1, 1
0, 0
0, 2
0, 0
0, 0
0, 0
1, 0
0, 1
0, 0
0, 0
1, 1
0, 2
0, 0
0, 0
0, 1
0, 1
0, 0
0, 0
0, 0
0, 0
0, 0
0, 0
0, 0
0, 0
0, 1
0, 0
0, 0
0, 0
0, 0
1, 0
0, 0
0, 1
0, 0
0, 0
0, 0
0, 0
0, 0
0, 0
0, 0
0, 0
0, 0
0, 0
0, 0
0, 0
0, 0
0, 0
0, 0
0, 0
0, 0
0, 0
0, 0
0, 0
0, 0
0, 0
0, 0
0, 0
0, 0
0, 0
0, 0
0, 0
0, 0
0, 0
0, 0
0, 0
0, 0
0, 0
0, 0
0, 0
0, 0
0, 0
0, 0
0, 0
0, 0
0, 0
0, 0
0, 0
0, 0
0, 0
0, 0
0, 0
0, 0
0, 0
0, 0
0, 0
0, 0
0, 0
0, 0
0, 0
0, 0
0, 0
0, 0
0, 0
0, 0
0, 0
0, 0
0, 0
0, 0
0, 0
0, 0
0, 0
0, 0
0, 0
0, 0
0, 0
0, 0
0, 0
0, 0
0, 0
0, 0
0, 0
0, 0
0, 0
0, 0
0, 0
0, 0
0, 0
0, 0
0, 0
0, 0
0, 0
0, 0
0, 0
0, 0
0, 0
0, 0
0, 0
0, 0
0, 0
0, 0
0, 0
0, 0
0, 0
0, 0
0, 0
#ENDOFDATA     end of spectrum data