File: host_upload/06-09-2024/ps_0852/dump3/ps__0852shot_2364.msa
#FORMAT      : EMSA/MAS spectral data file
#VERSION     : TC202v2.0 PIXL
#TITLE       : N/A
#DATE        :       Date in the format DD-MMM-YYYY, for example 07-JUL-2010
#TIME        :             The time of day at which the spectrum was recorded, in 24-hour format
#OWNER       : PIXL Flight Model       (PIXL will use this to indicate which instrument took the data.)
#NPOINTS     : 4096     Number of data points in the spectrum (This can be zero for configuration only files)
#NCOLUMNS    : 2     Number of data columns in the spectrum (This can be zero for configuration only files)
#XUNITS      : eV
#YUNITS      : COUNTS
#DATATYPE    : YY
#XPERCHAN    : 7.862, 7.881   eV per channel (separate by commas if more than one detector)
#OFFSET      : 18.5, -22.4         eV of first channel  (separate by commas if more than one detector
#SIGNALTYPE  : XRF
#YP_TEMP     : 2.396
#LIVETIME    : 8.53365, 8.55596   seconds (separate by commas if more than one detector)
#REALTIME    : 10, 10.0   seconds (separate by commas if more than one detector)
#SPECTRUM    : start of spectrum data
0, 0
0, 0
0, 0
0, 0
0, 0
0, 0
0, 0
0, 0
0, 3
1, 9
2, 4
44, 41
51, 70
9, 3
4, 7
90, 111
423, 422
83, 116
4, 8
1, 1
2, 1
2, 2
4, 1
7, 23
54, 357
75, 506
27, 69
14, 11
4, 4
5, 3
1, 1
2, 1
2, 2
15, 6
12, 17
2, 7
8, 20
15, 12
17, 8
3, 7
3, 5
6, 6
15, 14
14, 52
3, 42
4, 16
6, 9
5, 4
7, 14
10, 7
28, 11
28, 8
14, 11
29, 53
56, 53
23, 25
31, 61
457, 633
2250, 2478
1539, 1518
176, 186
36, 28
29, 21
122, 139
325, 373
210, 221
32, 16
1, 8
11, 9
8, 8
6, 3
5, 4
4, 6
11, 8
14, 7
35, 9
28, 8
10, 1
10, 3
2, 5
4, 2
6, 4
6, 4
2, 10
2, 3
2, 3
2, 4
1, 4
1, 7
2, 7
6, 6
2, 4
1, 2
2, 6
6, 8
2, 4
0, 1
5, 3
1, 5
5, 5
4, 5
3, 4
4, 1
1, 1
1, 2
3, 2
0, 2
1, 2
2, 2
0, 3
1, 1
2, 1
1, 3
0, 2
4, 1
4, 1
5, 4
1, 4
0, 4
2, 3
4, 3
2, 2
1, 2
2, 1
1, 0
1, 1
0, 0
1, 0
0, 0
2, 3
0, 2
1, 1
0, 2
3, 1
0, 2
1, 0
2, 3
0, 1
0, 1
0, 0
0, 0
1, 1
0, 0
0, 0
1, 1
0, 0
0, 1
2, 0
0, 0
0, 0
0, 0
0, 1
1, 1
0, 0
0, 0
1, 1
0, 0
0, 0
0, 0
0, 0
1, 0
0, 0
0, 0
0, 1
0, 1
0, 0
0, 0
0, 1
0, 0
0, 0
0, 1
0, 0
0, 1
0, 0
0, 0
0, 0
0, 0
0, 0
1, 1
0, 0
0, 0
0, 0
0, 0
1, 0
0, 1
0, 0
0, 0
0, 0
0, 0
0, 0
0, 0
0, 0
0, 0
0, 0
0, 0
0, 0
0, 0
0, 0
0, 0
0, 0
0, 0
0, 0
0, 1
0, 0
0, 0
0, 0
0, 0
0, 0
0, 0
0, 0
0, 0
0, 0
0, 0
0, 0
0, 0
0, 0
0, 0
0, 0
0, 0
0, 0
0, 0
0, 0
0, 0
0, 0
0, 0
0, 0
0, 0
0, 0
0, 0
0, 0
0, 0
0, 0
0, 0
0, 0
0, 0
0, 0
0, 0
0, 0
0, 0
0, 0
0, 0
0, 0
0, 0
0, 0
0, 0
0, 0
0, 0
0, 0
0, 0
0, 0
0, 0
0, 0
0, 0
0, 0
0, 0
0, 0
0, 0
0, 0
0, 0
0, 0
0, 0
0, 0
0, 0
0, 0
0, 0
0, 0
0, 0
0, 0
0, 0
0, 0
0, 0
0, 0
0, 0
0, 0
0, 0
0, 0
0, 0
0, 0
0, 0
0, 0
0, 0
0, 0
0, 0
0, 0
0, 0
0, 0
0, 0
0, 0
0, 0
0, 0
0, 0
0, 0
0, 0
0, 0
#ENDOFDATA     end of spectrum data