File: host_upload/06-09-2024/ps_0852/dump3/ps__0852shot_2027.msa
#FORMAT      : EMSA/MAS spectral data file
#VERSION     : TC202v2.0 PIXL
#TITLE       : N/A
#DATE        :       Date in the format DD-MMM-YYYY, for example 07-JUL-2010
#TIME        :             The time of day at which the spectrum was recorded, in 24-hour format
#OWNER       : PIXL Flight Model       (PIXL will use this to indicate which instrument took the data.)
#NPOINTS     : 4096     Number of data points in the spectrum (This can be zero for configuration only files)
#NCOLUMNS    : 2     Number of data columns in the spectrum (This can be zero for configuration only files)
#XUNITS      : eV
#YUNITS      : COUNTS
#DATATYPE    : YY
#XPERCHAN    : 7.862, 7.881   eV per channel (separate by commas if more than one detector)
#OFFSET      : 18.5, -22.4         eV of first channel  (separate by commas if more than one detector
#SIGNALTYPE  : XRF
#YP_TEMP     : 2.3
#LIVETIME    : 8.55362, 8.56715   seconds (separate by commas if more than one detector)
#REALTIME    : 10, 10.0   seconds (separate by commas if more than one detector)
#SPECTRUM    : start of spectrum data
0, 0
0, 0
0, 0
0, 0
0, 0
0, 0
0, 0
0, 0
1, 0
2, 1
3, 2
25, 34
57, 67
10, 4
6, 5
87, 95
412, 491
103, 132
11, 10
0, 1
9, 7
32, 28
14, 14
22, 10
35, 31
40, 37
27, 26
14, 6
6, 3
1, 0
1, 3
2, 4
7, 11
53, 105
125, 163
20, 40
12, 20
15, 28
8, 12
9, 3
10, 8
10, 17
18, 23
14, 13
2, 2
6, 4
3, 7
7, 4
10, 9
22, 22
13, 13
15, 5
33, 17
48, 47
55, 64
22, 22
32, 38
416, 616
1797, 2324
1394, 1391
205, 154
21, 17
18, 26
78, 93
267, 320
202, 177
29, 26
2, 8
11, 10
6, 8
3, 5
5, 1
3, 10
5, 30
6, 50
6, 35
7, 6
1, 2
3, 4
8, 3
5, 4
7, 5
5, 0
36, 2
18, 4
10, 4
2, 7
10, 5
8, 1
7, 4
2, 5
2, 4
1, 3
1, 1
3, 1
1, 3
2, 3
2, 1
3, 0
3, 1
4, 1
4, 3
5, 3
5, 4
2, 3
7, 4
4, 4
2, 3
3, 9
4, 6
1, 1
5, 3
0, 5
1, 2
0, 2
4, 1
1, 3
3, 2
0, 2
0, 1
0, 4
0, 4
3, 1
1, 3
2, 0
2, 0
2, 0
0, 1
0, 1
0, 1
1, 0
0, 1
1, 1
0, 0
0, 1
2, 0
1, 0
0, 0
0, 1
4, 0
2, 0
2, 1
0, 0
0, 0
0, 0
0, 0
0, 1
1, 1
1, 0
0, 0
0, 0
1, 0
0, 0
2, 0
0, 1
0, 1
0, 1
0, 0
0, 0
0, 0
0, 0
0, 0
0, 0
0, 0
0, 0
0, 0
0, 1
0, 0
0, 0
0, 0
0, 0
1, 0
0, 0
0, 0
0, 0
0, 0
1, 0
1, 0
0, 0
0, 0
1, 1
0, 0
0, 1
0, 0
0, 0
0, 0
1, 0
0, 1
0, 0
0, 0
0, 0
0, 0
0, 0
0, 0
0, 0
0, 0
0, 0
0, 0
0, 0
0, 0
0, 0
0, 0
0, 0
0, 0
0, 0
0, 0
0, 0
0, 0
0, 0
0, 0
0, 0
0, 0
0, 0
0, 0
0, 0
0, 0
0, 0
0, 0
0, 0
0, 0
1, 0
0, 0
0, 0
0, 0
0, 0
0, 0
0, 0
0, 0
0, 0
0, 0
0, 0
0, 0
0, 0
0, 0
0, 0
0, 0
0, 0
0, 0
0, 0
0, 0
0, 0
0, 0
0, 0
0, 0
0, 0
0, 0
0, 0
0, 0
0, 0
0, 0
0, 0
0, 0
0, 0
0, 0
0, 0
0, 0
0, 0
0, 0
0, 0
0, 0
0, 0
0, 0
0, 0
0, 0
0, 0
0, 0
0, 0
0, 0
0, 0
0, 0
0, 0
0, 0
0, 0
0, 0
0, 0
0, 0
0, 0
0, 0
0, 0
0, 0
0, 0
0, 0
0, 0
0, 0
0, 0
0, 0
0, 0
0, 0
0, 0
0, 0
0, 0
0, 0
0, 0
0, 0
#ENDOFDATA     end of spectrum data