File: host_upload/06-09-2024/ps_0852/dump3/ps__0852shot_2222.msa
#FORMAT      : EMSA/MAS spectral data file
#VERSION     : TC202v2.0 PIXL
#TITLE       : N/A
#DATE        :       Date in the format DD-MMM-YYYY, for example 07-JUL-2010
#TIME        :             The time of day at which the spectrum was recorded, in 24-hour format
#OWNER       : PIXL Flight Model       (PIXL will use this to indicate which instrument took the data.)
#NPOINTS     : 4096     Number of data points in the spectrum (This can be zero for configuration only files)
#NCOLUMNS    : 2     Number of data columns in the spectrum (This can be zero for configuration only files)
#XUNITS      : eV
#YUNITS      : COUNTS
#DATATYPE    : YY
#XPERCHAN    : 7.862, 7.881   eV per channel (separate by commas if more than one detector)
#OFFSET      : 18.5, -22.4         eV of first channel  (separate by commas if more than one detector
#SIGNALTYPE  : XRF
#YP_TEMP     : 2.588
#LIVETIME    : 8.54274, 8.58088   seconds (separate by commas if more than one detector)
#REALTIME    : 10, 10.0   seconds (separate by commas if more than one detector)
#SPECTRUM    : start of spectrum data
0, 0
0, 0
0, 0
0, 0
0, 0
0, 0
0, 0
0, 0
0, 13
1, 65
1, 15
50, 56
67, 61
10, 11
5, 5
87, 121
475, 446
119, 109
3, 5
0, 0
1, 2
1, 6
1, 13
2, 97
23, 2231
17, 3296
16, 302
8, 19
6, 1
2, 1
1, 4
1, 5
1, 2
9, 6
13, 10
9, 4
7, 0
7, 8
8, 14
4, 14
1, 14
7, 9
17, 12
13, 14
22, 18
8, 15
7, 8
4, 6
5, 27
9, 59
6, 32
8, 10
6, 21
40, 43
66, 63
23, 23
32, 50
467, 543
2211, 2300
1598, 1370
192, 128
18, 17
27, 37
110, 130
323, 356
201, 207
28, 55
8, 35
7, 15
9, 6
4, 7
3, 4
5, 12
4, 36
7, 39
5, 27
6, 14
4, 2
4, 4
8, 4
5, 6
3, 8
3, 12
1, 10
2, 0
1, 6
6, 8
10, 13
4, 6
1, 7
2, 4
1, 5
1, 1
7, 2
7, 1
11, 4
5, 6
8, 3
3, 3
2, 0
2, 4
1, 3
2, 1
1, 1
4, 3
3, 3
3, 2
3, 1
1, 1
0, 2
1, 3
4, 3
1, 2
3, 1
1, 1
1, 4
0, 3
0, 2
4, 4
1, 2
1, 2
1, 2
2, 1
4, 2
0, 4
1, 1
1, 2
0, 1
0, 1
0, 0
1, 1
1, 1
1, 1
1, 1
0, 1
1, 1
0, 0
0, 1
0, 1
0, 0
0, 2
0, 1
0, 3
1, 1
0, 1
1, 0
0, 0
1, 0
0, 0
0, 0
0, 1
1, 1
0, 0
1, 0
0, 0
1, 0
0, 1
1, 0
0, 1
1, 0
0, 0
0, 1
0, 0
0, 1
0, 0
0, 0
0, 1
0, 0
0, 0
1, 0
0, 0
1, 1
0, 0
0, 0
0, 0
0, 0
0, 0
1, 0
0, 0
0, 0
1, 0
0, 0
0, 0
2, 1
0, 0
0, 0
0, 0
0, 0
0, 0
0, 0
0, 0
0, 0
0, 0
0, 0
0, 0
0, 0
0, 0
0, 0
0, 0
0, 0
0, 0
0, 0
0, 0
0, 0
0, 0
0, 0
0, 0
0, 0
0, 0
0, 0
0, 0
0, 0
0, 0
0, 0
0, 0
0, 0
0, 1
0, 1
0, 0
0, 0
0, 0
0, 0
0, 0
0, 0
0, 0
0, 0
0, 0
0, 0
0, 0
0, 0
0, 0
0, 0
0, 0
0, 0
0, 0
0, 0
0, 0
0, 0
0, 0
0, 0
0, 0
0, 0
0, 0
0, 0
0, 0
0, 0
0, 0
0, 0
0, 0
0, 0
0, 0
0, 0
0, 0
0, 0
0, 0
0, 0
0, 0
0, 0
0, 0
0, 0
0, 0
0, 0
0, 0
0, 0
0, 0
0, 0
0, 0
0, 0
0, 0
0, 0
0, 0
0, 0
0, 0
0, 0
0, 0
0, 0
0, 0
0, 0
0, 0
0, 0
0, 0
0, 0
0, 0
0, 0
0, 0
0, 0
0, 0
0, 0
0, 0
0, 0
0, 0
0, 0
0, 0
0, 0
#ENDOFDATA     end of spectrum data