File: host_upload/06-09-2024/ps_0852/dump3/ps__0852shot_2334.msa
#FORMAT      : EMSA/MAS spectral data file
#VERSION     : TC202v2.0 PIXL
#TITLE       : N/A
#DATE        :       Date in the format DD-MMM-YYYY, for example 07-JUL-2010
#TIME        :             The time of day at which the spectrum was recorded, in 24-hour format
#OWNER       : PIXL Flight Model       (PIXL will use this to indicate which instrument took the data.)
#NPOINTS     : 4096     Number of data points in the spectrum (This can be zero for configuration only files)
#NCOLUMNS    : 2     Number of data columns in the spectrum (This can be zero for configuration only files)
#XUNITS      : eV
#YUNITS      : COUNTS
#DATATYPE    : YY
#XPERCHAN    : 7.862, 7.881   eV per channel (separate by commas if more than one detector)
#OFFSET      : 18.5, -22.4         eV of first channel  (separate by commas if more than one detector
#SIGNALTYPE  : XRF
#YP_TEMP     : 2.364
#LIVETIME    : 8.52701, 8.56506   seconds (separate by commas if more than one detector)
#REALTIME    : 10, 10.0   seconds (separate by commas if more than one detector)
#SPECTRUM    : start of spectrum data
0, 0
0, 0
0, 0
0, 0
0, 0
0, 0
0, 0
0, 0
3, 0
1, 1
5, 1
50, 44
61, 63
5, 5
2, 3
78, 100
459, 437
107, 95
3, 4
1, 1
6, 6
42, 36
20, 22
8, 11
34, 28
33, 40
27, 32
10, 15
6, 2
3, 2
0, 4
2, 1
7, 2
9, 5
8, 10
3, 6
6, 5
3, 4
3, 13
6, 4
6, 6
13, 6
17, 28
9, 52
9, 42
8, 19
7, 6
10, 5
5, 9
16, 14
15, 13
15, 10
16, 21
39, 43
69, 59
93, 24
215, 36
562, 661
2124, 2469
1629, 1457
219, 176
17, 20
13, 21
108, 117
364, 376
215, 199
39, 29
15, 3
13, 19
14, 11
8, 8
8, 6
11, 4
5, 5
6, 10
7, 7
19, 6
30, 1
9, 5
7, 3
2, 4
7, 3
2, 5
1, 4
5, 8
5, 4
3, 5
5, 6
3, 5
5, 5
1, 3
0, 3
2, 7
3, 5
3, 1
2, 0
3, 3
5, 0
3, 2
4, 2
4, 4
1, 4
2, 1
4, 2
3, 4
5, 2
1, 5
2, 4
2, 4
1, 6
3, 5
1, 4
5, 0
0, 0
1, 6
3, 6
3, 9
2, 4
4, 5
1, 0
1, 1
1, 1
1, 3
0, 2
1, 1
2, 2
2, 2
0, 0
0, 1
4, 1
2, 1
0, 0
0, 0
1, 1
1, 0
0, 1
1, 1
0, 0
1, 2
0, 1
0, 0
0, 1
0, 0
0, 1
1, 1
1, 0
0, 0
1, 1
0, 0
0, 4
1, 0
0, 0
0, 0
0, 0
1, 0
1, 0
1, 0
0, 0
0, 0
0, 1
0, 0
0, 0
0, 0
0, 0
0, 0
0, 1
1, 0
0, 0
0, 0
1, 0
1, 0
1, 0
0, 1
1, 0
0, 0
0, 0
1, 0
0, 0
0, 0
0, 0
1, 0
0, 1
0, 0
0, 0
0, 0
0, 0
0, 0
0, 0
0, 0
0, 0
0, 0
0, 0
0, 0
0, 1
0, 0
0, 0
0, 0
0, 0
0, 0
0, 0
0, 0
0, 0
0, 0
0, 0
0, 0
0, 0
0, 0
0, 0
0, 0
0, 0
0, 0
0, 0
0, 0
0, 0
0, 0
0, 0
0, 0
0, 0
0, 0
0, 0
0, 0
0, 0
0, 0
0, 0
0, 0
0, 0
0, 0
0, 0
0, 0
0, 0
0, 0
0, 0
0, 0
0, 0
0, 0
0, 0
0, 0
0, 0
0, 0
0, 0
0, 0
0, 0
0, 0
0, 0
0, 0
0, 0
0, 0
0, 0
0, 0
0, 0
0, 0
0, 0
0, 0
0, 0
0, 0
0, 0
0, 0
0, 0
0, 0
0, 0
0, 0
0, 0
0, 0
0, 0
0, 0
0, 0
0, 0
0, 0
0, 0
0, 0
0, 0
0, 0
0, 0
0, 0
0, 0
0, 0
0, 0
0, 0
0, 0
0, 0
0, 0
0, 0
0, 0
0, 0
0, 0
0, 0
0, 0
0, 0
0, 0
0, 0
0, 0
0, 0
0, 0
0, 0
#ENDOFDATA     end of spectrum data