File: host_upload/06-09-2024/ps_0852/dump3/ps__0852shot_2296.msa
#FORMAT      : EMSA/MAS spectral data file
#VERSION     : TC202v2.0 PIXL
#TITLE       : N/A
#DATE        :       Date in the format DD-MMM-YYYY, for example 07-JUL-2010
#TIME        :             The time of day at which the spectrum was recorded, in 24-hour format
#OWNER       : PIXL Flight Model       (PIXL will use this to indicate which instrument took the data.)
#NPOINTS     : 4096     Number of data points in the spectrum (This can be zero for configuration only files)
#NCOLUMNS    : 2     Number of data columns in the spectrum (This can be zero for configuration only files)
#XUNITS      : eV
#YUNITS      : COUNTS
#DATATYPE    : YY
#XPERCHAN    : 7.862, 7.881   eV per channel (separate by commas if more than one detector)
#OFFSET      : 18.5, -22.4         eV of first channel  (separate by commas if more than one detector
#SIGNALTYPE  : XRF
#YP_TEMP     : 2.3
#LIVETIME    : 8.53407, 8.52504   seconds (separate by commas if more than one detector)
#REALTIME    : 10, 10.0   seconds (separate by commas if more than one detector)
#SPECTRUM    : start of spectrum data
0, 0
0, 0
0, 0
0, 0
0, 0
0, 0
0, 0
0, 0
0, 1
2, 1
2, 1
50, 40
66, 60
10, 7
7, 4
88, 93
436, 407
119, 81
3, 4
3, 2
4, 3
28, 26
11, 20
8, 9
21, 32
46, 46
24, 25
9, 8
5, 4
2, 2
1, 6
2, 1
4, 2
13, 11
22, 27
6, 7
5, 2
11, 8
8, 13
4, 7
5, 8
13, 17
13, 30
15, 25
3, 8
7, 2
8, 4
10, 5
16, 6
46, 21
40, 14
24, 17
17, 15
34, 44
48, 46
26, 18
36, 42
514, 591
2239, 2188
1580, 1403
237, 143
54, 14
55, 23
127, 119
321, 356
240, 202
38, 27
6, 16
18, 15
10, 7
3, 5
6, 7
1, 5
7, 2
4, 5
5, 9
7, 6
6, 3
4, 7
4, 9
3, 3
4, 3
9, 7
3, 9
5, 9
4, 17
4, 4
6, 3
1, 3
13, 4
8, 1
6, 3
1, 2
11, 2
5, 5
2, 4
2, 4
2, 4
6, 3
2, 1
6, 0
3, 2
3, 3
2, 0
0, 1
6, 3
2, 2
0, 3
2, 1
4, 3
4, 0
4, 2
2, 1
2, 2
2, 0
2, 6
5, 5
5, 4
0, 0
2, 1
1, 2
1, 0
1, 3
1, 2
0, 1
1, 0
0, 1
0, 3
1, 0
1, 2
1, 0
3, 1
0, 0
0, 2
2, 1
0, 2
1, 0
2, 1
2, 1
0, 0
1, 0
0, 1
1, 0
1, 0
0, 1
1, 0
1, 0
1, 0
0, 1
0, 0
0, 0
0, 0
0, 0
0, 0
0, 0
1, 0
1, 1
0, 0
0, 0
0, 0
0, 0
0, 0
1, 1
0, 0
0, 0
0, 0
1, 0
1, 0
0, 0
0, 2
1, 0
0, 0
0, 0
0, 0
0, 0
0, 0
0, 0
0, 0
0, 0
2, 0
0, 0
0, 0
0, 0
0, 0
1, 0
0, 1
1, 0
0, 0
0, 0
0, 0
0, 0
0, 0
0, 0
0, 0
0, 0
0, 0
0, 0
0, 0
0, 0
0, 0
0, 0
0, 0
0, 0
0, 0
0, 0
0, 0
0, 0
0, 0
0, 0
0, 0
0, 0
0, 0
0, 0
0, 0
0, 0
0, 0
0, 0
0, 0
0, 0
0, 0
0, 0
0, 0
0, 0
0, 0
0, 0
0, 0
0, 0
0, 0
0, 0
0, 0
0, 0
0, 0
0, 0
0, 0
0, 0
0, 0
0, 0
0, 0
0, 0
0, 0
0, 0
0, 0
0, 0
0, 0
0, 0
0, 0
0, 0
0, 0
0, 0
0, 0
0, 0
0, 0
0, 0
0, 0
0, 0
0, 0
0, 0
0, 0
0, 0
0, 0
0, 0
0, 0
0, 0
0, 0
0, 0
0, 0
0, 0
0, 0
0, 0
0, 0
0, 0
0, 0
0, 0
0, 0
0, 0
0, 0
0, 0
0, 0
0, 0
0, 0
0, 0
0, 0
0, 0
0, 0
0, 0
0, 0
0, 0
0, 0
0, 0
0, 0
0, 0
0, 0
0, 0
0, 0
#ENDOFDATA     end of spectrum data