File: host_upload/06-09-2024/ps_0852/dump3/ps__0852shot_2263.msa
#FORMAT      : EMSA/MAS spectral data file
#VERSION     : TC202v2.0 PIXL
#TITLE       : N/A
#DATE        :       Date in the format DD-MMM-YYYY, for example 07-JUL-2010
#TIME        :             The time of day at which the spectrum was recorded, in 24-hour format
#OWNER       : PIXL Flight Model       (PIXL will use this to indicate which instrument took the data.)
#NPOINTS     : 4096     Number of data points in the spectrum (This can be zero for configuration only files)
#NCOLUMNS    : 2     Number of data columns in the spectrum (This can be zero for configuration only files)
#XUNITS      : eV
#YUNITS      : COUNTS
#DATATYPE    : YY
#XPERCHAN    : 7.862, 7.881   eV per channel (separate by commas if more than one detector)
#OFFSET      : 18.5, -22.4         eV of first channel  (separate by commas if more than one detector
#SIGNALTYPE  : XRF
#YP_TEMP     : 2.235
#LIVETIME    : 8.56608, 8.57301   seconds (separate by commas if more than one detector)
#REALTIME    : 10, 10.0   seconds (separate by commas if more than one detector)
#SPECTRUM    : start of spectrum data
0, 0
0, 0
0, 0
0, 0
0, 0
0, 0
0, 0
0, 1
0, 1
2, 4
1, 1
36, 50
72, 75
2, 6
3, 4
88, 119
407, 496
92, 93
10, 6
1, 0
1, 0
4, 2
6, 7
7, 9
47, 123
77, 238
32, 40
18, 22
10, 8
2, 4
1, 0
0, 3
5, 4
9, 9
13, 15
6, 1
9, 8
19, 11
34, 4
15, 5
5, 6
5, 5
6, 15
16, 87
5, 88
6, 12
2, 7
4, 11
4, 9
20, 9
27, 11
40, 10
19, 7
40, 48
60, 65
22, 30
29, 73
466, 634
2087, 2475
1518, 1463
176, 203
21, 27
42, 32
124, 130
318, 337
248, 202
24, 20
9, 11
9, 21
9, 5
3, 1
0, 2
2, 5
4, 3
13, 4
44, 5
48, 4
14, 6
2, 5
4, 3
1, 5
3, 2
3, 4
10, 2
5, 5
3, 5
2, 13
1, 5
3, 7
2, 2
1, 3
4, 8
3, 4
1, 3
3, 4
2, 5
2, 3
3, 2
1, 4
3, 4
1, 4
2, 3
2, 1
3, 3
2, 4
2, 0
1, 6
0, 2
1, 1
0, 2
2, 2
1, 1
0, 2
1, 0
3, 0
4, 4
5, 5
2, 7
0, 4
3, 1
2, 0
3, 1
1, 3
2, 2
0, 1
1, 1
0, 2
0, 1
2, 1
1, 1
1, 3
2, 0
0, 2
1, 0
1, 0
1, 1
1, 1
0, 0
0, 0
0, 0
0, 0
2, 0
0, 1
0, 0
1, 3
0, 0
1, 0
0, 0
1, 0
0, 2
0, 0
0, 0
0, 0
0, 1
0, 0
0, 0
1, 1
1, 0
0, 0
0, 0
0, 0
0, 0
1, 2
0, 0
0, 1
0, 1
1, 0
0, 0
0, 0
1, 0
0, 0
0, 0
0, 1
0, 0
1, 1
0, 0
0, 0
0, 0
0, 0
0, 0
0, 0
0, 0
0, 0
0, 0
0, 0
0, 0
0, 0
0, 0
0, 0
0, 0
0, 0
0, 0
0, 0
0, 1
1, 0
0, 0
1, 0
0, 0
0, 0
0, 0
0, 0
0, 0
0, 0
0, 0
0, 0
0, 0
0, 0
0, 0
0, 0
0, 0
0, 0
0, 0
0, 0
0, 0
0, 0
0, 0
0, 0
0, 0
0, 0
0, 0
0, 0
0, 0
0, 0
0, 0
0, 0
0, 0
0, 0
0, 0
0, 0
0, 0
0, 0
0, 0
0, 0
0, 0
0, 0
0, 0
0, 0
0, 0
0, 0
0, 0
0, 0
0, 0
0, 0
0, 0
0, 0
0, 0
0, 0
0, 0
0, 0
0, 0
0, 0
0, 0
0, 0
0, 0
0, 0
0, 0
0, 0
0, 0
0, 0
0, 0
0, 0
0, 0
0, 0
0, 0
0, 0
0, 0
0, 0
0, 0
0, 0
0, 0
0, 0
0, 0
0, 0
0, 0
0, 0
0, 0
0, 0
0, 0
0, 0
0, 0
0, 0
0, 0
0, 0
0, 0
0, 0
0, 0
0, 0
0, 0
0, 0
0, 0
0, 0
0, 0
0, 0
0, 0
#ENDOFDATA     end of spectrum data