File: host_upload/06-09-2024/ps_0852/dump3/ps__0852shot_2559.msa
#FORMAT      : EMSA/MAS spectral data file
#VERSION     : TC202v2.0 PIXL
#TITLE       : N/A
#DATE        :       Date in the format DD-MMM-YYYY, for example 07-JUL-2010
#TIME        :             The time of day at which the spectrum was recorded, in 24-hour format
#OWNER       : PIXL Flight Model       (PIXL will use this to indicate which instrument took the data.)
#NPOINTS     : 4096     Number of data points in the spectrum (This can be zero for configuration only files)
#NCOLUMNS    : 2     Number of data columns in the spectrum (This can be zero for configuration only files)
#XUNITS      : eV
#YUNITS      : COUNTS
#DATATYPE    : YY
#XPERCHAN    : 7.862, 7.881   eV per channel (separate by commas if more than one detector)
#OFFSET      : 18.5, -22.4         eV of first channel  (separate by commas if more than one detector
#SIGNALTYPE  : XRF
#YP_TEMP     : 2.011
#LIVETIME    : 8.55554, 8.54542   seconds (separate by commas if more than one detector)
#REALTIME    : 10, 10.0   seconds (separate by commas if more than one detector)
#SPECTRUM    : start of spectrum data
0, 0
0, 0
0, 0
0, 0
0, 0
0, 0
0, 0
0, 0
2, 1
3, 0
2, 0
51, 37
80, 59
6, 7
6, 4
106, 97
456, 428
118, 100
9, 5
1, 0
2, 0
4, 3
3, 0
4, 6
136, 20
148, 30
39, 23
17, 17
6, 1
0, 0
3, 6
3, 1
7, 4
21, 9
34, 11
31, 3
12, 2
5, 5
7, 3
5, 5
0, 8
15, 13
14, 26
14, 14
4, 5
9, 5
6, 4
7, 8
25, 10
29, 11
15, 9
10, 42
11, 88
34, 87
70, 61
29, 22
43, 33
534, 520
2392, 2132
1705, 1348
200, 105
30, 13
33, 24
110, 136
311, 350
238, 179
27, 37
11, 20
14, 15
14, 11
2, 3
9, 7
9, 11
12, 4
12, 4
8, 8
5, 4
3, 9
3, 12
5, 5
2, 2
2, 6
3, 3
5, 2
17, 3
18, 5
5, 5
10, 7
8, 0
4, 0
6, 5
4, 3
1, 6
4, 8
4, 9
8, 3
7, 4
5, 2
5, 1
0, 4
4, 2
5, 6
4, 1
0, 3
4, 1
5, 7
1, 4
5, 3
3, 0
3, 1
1, 1
1, 3
4, 3
1, 1
1, 4
1, 3
1, 3
4, 0
1, 5
3, 1
4, 0
2, 2
0, 0
2, 0
1, 1
1, 0
1, 1
2, 1
0, 1
2, 2
1, 0
3, 0
2, 2
0, 0
0, 3
0, 1
2, 2
1, 1
0, 1
0, 0
0, 0
0, 0
1, 0
2, 0
2, 0
0, 0
0, 0
1, 0
0, 1
0, 0
0, 0
0, 0
1, 1
1, 0
0, 0
0, 1
0, 2
0, 0
0, 0
2, 0
2, 1
0, 0
0, 0
0, 0
0, 0
0, 0
0, 2
0, 1
0, 0
0, 1
1, 1
1, 0
0, 0
0, 1
0, 0
0, 0
0, 0
0, 0
0, 0
0, 0
0, 0
0, 0
0, 0
0, 0
0, 0
0, 0
0, 0
0, 0
0, 0
0, 0
0, 0
0, 0
0, 0
0, 0
0, 1
0, 1
0, 0
0, 0
0, 0
0, 1
0, 0
0, 0
0, 0
0, 0
0, 0
0, 0
1, 0
0, 0
0, 0
0, 0
0, 0
0, 0
0, 0
0, 0
0, 0
0, 0
0, 0
0, 0
0, 0
0, 0
0, 0
0, 0
0, 0
0, 0
0, 0
0, 0
0, 0
0, 0
0, 0
0, 0
0, 0
0, 0
0, 0
0, 0
0, 0
0, 0
0, 0
0, 0
0, 0
0, 0
0, 0
0, 0
0, 0
0, 0
0, 0
0, 1
0, 0
0, 0
0, 0
0, 0
0, 0
0, 0
0, 0
0, 0
0, 0
0, 0
0, 0
0, 0
0, 0
0, 0
0, 0
0, 0
0, 0
0, 0
0, 0
0, 0
0, 0
0, 0
0, 0
0, 0
0, 0
0, 0
0, 0
0, 0
0, 0
0, 0
0, 0
0, 0
0, 0
0, 0
0, 0
0, 0
0, 0
0, 0
0, 0
0, 0
0, 0
0, 0
0, 0
0, 0
0, 0
0, 0
0, 0
0, 0
#ENDOFDATA     end of spectrum data