File: host_upload/06-09-2024/ps_0852/dump3/ps__0852shot_2356.msa
#FORMAT      : EMSA/MAS spectral data file
#VERSION     : TC202v2.0 PIXL
#TITLE       : N/A
#DATE        :       Date in the format DD-MMM-YYYY, for example 07-JUL-2010
#TIME        :             The time of day at which the spectrum was recorded, in 24-hour format
#OWNER       : PIXL Flight Model       (PIXL will use this to indicate which instrument took the data.)
#NPOINTS     : 4096     Number of data points in the spectrum (This can be zero for configuration only files)
#NCOLUMNS    : 2     Number of data columns in the spectrum (This can be zero for configuration only files)
#XUNITS      : eV
#YUNITS      : COUNTS
#DATATYPE    : YY
#XPERCHAN    : 7.862, 7.881   eV per channel (separate by commas if more than one detector)
#OFFSET      : 18.5, -22.4         eV of first channel  (separate by commas if more than one detector
#SIGNALTYPE  : XRF
#YP_TEMP     : 2.62
#LIVETIME    : 8.5558, 8.56158   seconds (separate by commas if more than one detector)
#REALTIME    : 10, 10.0   seconds (separate by commas if more than one detector)
#SPECTRUM    : start of spectrum data
0, 0
0, 0
0, 0
0, 0
0, 0
0, 0
0, 0
0, 0
2, 1
2, 0
1, 2
49, 35
57, 46
8, 9
4, 3
102, 87
478, 373
132, 91
5, 3
2, 2
4, 2
13, 15
8, 10
8, 4
42, 31
42, 40
22, 21
18, 15
8, 2
2, 4
1, 3
2, 1
0, 1
11, 8
21, 6
10, 7
4, 4
3, 4
10, 10
3, 7
4, 7
9, 8
16, 11
13, 14
6, 18
6, 15
6, 3
12, 4
14, 5
16, 9
17, 12
6, 2
11, 9
40, 39
64, 64
30, 65
59, 171
490, 620
2217, 2186
1553, 1242
217, 120
24, 14
22, 22
103, 130
367, 328
239, 180
39, 21
14, 7
17, 10
13, 7
3, 5
3, 3
3, 6
7, 5
10, 6
7, 3
4, 3
12, 6
8, 4
6, 3
4, 2
4, 2
1, 2
1, 3
4, 4
2, 6
5, 2
5, 5
7, 5
4, 1
5, 4
5, 5
2, 5
3, 4
1, 6
4, 3
3, 2
3, 4
4, 3
1, 6
2, 1
4, 2
5, 2
2, 3
2, 2
1, 4
0, 3
2, 2
2, 1
0, 1
6, 3
1, 3
1, 2
2, 2
1, 2
2, 3
1, 3
6, 4
1, 0
1, 0
2, 0
1, 0
2, 0
5, 1
1, 0
0, 1
1, 0
2, 0
0, 0
1, 1
3, 2
0, 1
0, 0
2, 1
2, 1
1, 0
1, 1
0, 0
1, 0
0, 0
0, 0
0, 1
0, 1
0, 1
2, 1
0, 1
0, 0
2, 0
0, 0
2, 0
0, 1
2, 1
0, 0
0, 0
0, 1
0, 0
1, 1
0, 0
0, 0
1, 1
0, 0
0, 1
0, 1
2, 0
2, 0
0, 1
0, 1
0, 0
0, 1
2, 1
0, 1
1, 0
0, 0
0, 0
0, 0
0, 0
0, 1
0, 0
1, 0
0, 0
0, 0
0, 0
1, 1
0, 1
1, 0
0, 0
0, 0
0, 0
0, 0
0, 0
0, 0
0, 0
0, 0
1, 0
0, 1
0, 0
1, 1
0, 0
0, 0
0, 0
0, 0
0, 1
0, 0
0, 0
0, 0
0, 0
0, 1
0, 0
0, 0
0, 0
0, 0
0, 0
0, 0
0, 0
0, 0
0, 0
0, 0
0, 0
0, 0
0, 0
0, 0
0, 0
0, 0
0, 0
0, 0
0, 0
0, 0
0, 0
0, 0
0, 0
0, 0
0, 0
0, 0
0, 0
0, 0
0, 0
0, 0
0, 0
0, 0
0, 0
0, 0
0, 0
0, 0
0, 0
0, 0
0, 0
0, 0
0, 0
0, 0
0, 0
0, 0
0, 0
0, 0
0, 0
0, 0
0, 0
0, 0
0, 0
0, 0
0, 0
0, 0
0, 0
0, 0
0, 0
0, 0
0, 0
0, 0
0, 0
0, 0
0, 0
0, 0
0, 0
0, 0
0, 0
0, 0
0, 0
0, 0
0, 0
0, 0
0, 0
0, 0
0, 0
0, 0
0, 0
0, 0
0, 0
0, 0
0, 0
0, 0
0, 0
0, 0
0, 0
0, 0
0, 0
#ENDOFDATA     end of spectrum data