File: host_upload/06-09-2024/ps_0852/dump3/ps__0852shot_2001.msa
#FORMAT      : EMSA/MAS spectral data file
#VERSION     : TC202v2.0 PIXL
#TITLE       : N/A
#DATE        :       Date in the format DD-MMM-YYYY, for example 07-JUL-2010
#TIME        :             The time of day at which the spectrum was recorded, in 24-hour format
#OWNER       : PIXL Flight Model       (PIXL will use this to indicate which instrument took the data.)
#NPOINTS     : 4096     Number of data points in the spectrum (This can be zero for configuration only files)
#NCOLUMNS    : 2     Number of data columns in the spectrum (This can be zero for configuration only files)
#XUNITS      : eV
#YUNITS      : COUNTS
#DATATYPE    : YY
#XPERCHAN    : 7.862, 7.881   eV per channel (separate by commas if more than one detector)
#OFFSET      : 18.5, -22.4         eV of first channel  (separate by commas if more than one detector
#SIGNALTYPE  : XRF
#YP_TEMP     : 2.396
#LIVETIME    : 8.55877, 8.56066   seconds (separate by commas if more than one detector)
#REALTIME    : 10, 10.0   seconds (separate by commas if more than one detector)
#SPECTRUM    : start of spectrum data
0, 0
0, 0
0, 0
0, 0
0, 0
0, 0
0, 0
1, 0
0, 2
2, 0
3, 4
39, 57
45, 45
4, 6
6, 3
65, 114
363, 422
70, 90
6, 4
3, 2
2, 2
9, 6
1, 8
2, 5
16, 21
33, 36
20, 25
12, 16
3, 7
2, 5
1, 5
1, 3
2, 0
17, 5
20, 25
5, 6
4, 6
9, 2
5, 8
6, 4
3, 4
7, 10
12, 15
13, 23
4, 52
7, 29
12, 4
5, 7
11, 12
18, 14
9, 9
7, 9
13, 17
34, 45
50, 58
14, 24
38, 42
404, 650
1708, 2374
1298, 1442
191, 132
14, 20
16, 19
91, 124
268, 364
189, 203
26, 18
6, 9
10, 18
8, 11
2, 5
3, 2
3, 5
2, 15
2, 14
5, 9
9, 7
4, 4
5, 3
5, 4
4, 3
2, 6
3, 3
1, 1
2, 2
5, 1
4, 2
4, 2
1, 4
4, 3
2, 4
2, 5
8, 3
7, 5
3, 7
4, 5
3, 4
2, 1
3, 1
2, 0
1, 4
1, 3
5, 0
2, 4
1, 2
2, 5
0, 1
0, 2
0, 3
1, 1
1, 3
5, 2
2, 0
4, 3
0, 3
4, 7
6, 8
2, 3
0, 2
1, 2
1, 1
0, 1
2, 2
2, 2
0, 1
1, 1
1, 1
2, 0
0, 4
0, 1
1, 1
0, 0
2, 0
0, 2
0, 1
0, 0
0, 0
1, 1
0, 0
1, 0
0, 1
1, 0
0, 0
0, 2
0, 0
1, 1
1, 0
0, 2
0, 1
0, 0
0, 1
0, 0
0, 0
0, 0
0, 0
1, 1
0, 1
0, 0
1, 0
1, 1
0, 0
0, 1
0, 1
0, 1
1, 0
0, 0
1, 1
1, 0
0, 1
0, 1
0, 0
1, 0
1, 0
0, 0
0, 0
0, 0
0, 1
0, 0
0, 0
0, 0
0, 0
0, 0
0, 0
0, 1
0, 0
0, 0
0, 0
0, 0
0, 0
0, 0
0, 0
0, 1
0, 1
0, 0
0, 0
0, 0
0, 0
0, 0
0, 0
0, 0
0, 0
0, 0
0, 0
0, 0
0, 0
0, 1
0, 0
0, 0
0, 0
1, 0
0, 0
0, 0
0, 0
0, 0
0, 0
0, 0
0, 0
0, 0
0, 0
0, 0
0, 0
0, 0
0, 0
0, 0
0, 0
0, 0
0, 0
0, 0
0, 0
0, 0
0, 0
0, 0
0, 0
0, 0
0, 0
0, 0
0, 0
0, 0
0, 0
0, 0
0, 0
0, 0
0, 0
0, 0
0, 0
0, 0
0, 0
0, 0
0, 0
0, 0
0, 0
0, 0
0, 0
0, 0
0, 0
0, 0
0, 0
0, 0
0, 0
0, 0
0, 0
0, 0
0, 0
0, 0
0, 0
0, 0
0, 0
0, 0
0, 0
0, 0
0, 0
0, 0
0, 0
0, 0
0, 0
0, 0
0, 0
0, 0
0, 0
0, 0
0, 0
0, 0
0, 0
0, 0
0, 0
0, 0
0, 0
0, 0
0, 0
0, 0
0, 0
0, 0
0, 0
0, 0
#ENDOFDATA     end of spectrum data