File: host_upload/06-09-2024/ps_0852/dump3/ps__0852shot_2276.msa
#FORMAT      : EMSA/MAS spectral data file
#VERSION     : TC202v2.0 PIXL
#TITLE       : N/A
#DATE        :       Date in the format DD-MMM-YYYY, for example 07-JUL-2010
#TIME        :             The time of day at which the spectrum was recorded, in 24-hour format
#OWNER       : PIXL Flight Model       (PIXL will use this to indicate which instrument took the data.)
#NPOINTS     : 4096     Number of data points in the spectrum (This can be zero for configuration only files)
#NCOLUMNS    : 2     Number of data columns in the spectrum (This can be zero for configuration only files)
#XUNITS      : eV
#YUNITS      : COUNTS
#DATATYPE    : YY
#XPERCHAN    : 7.862, 7.881   eV per channel (separate by commas if more than one detector)
#OFFSET      : 18.5, -22.4         eV of first channel  (separate by commas if more than one detector
#SIGNALTYPE  : XRF
#YP_TEMP     : 2.171
#LIVETIME    : 8.57055, 8.36591   seconds (separate by commas if more than one detector)
#REALTIME    : 10, 10.0   seconds (separate by commas if more than one detector)
#SPECTRUM    : start of spectrum data
0, 0
0, 0
0, 0
0, 0
0, 0
0, 0
0, 0
1, 0
0, 0
2, 0
0, 2
42, 38
41, 56
9, 5
1, 6
86, 79
365, 415
102, 97
4, 3
0, 1
10, 9
26, 41
14, 19
7, 16
48, 40
43, 39
18, 23
9, 10
1, 1
3, 1
2, 2
1, 5
4, 0
7, 11
17, 19
7, 4
3, 7
6, 8
3, 5
4, 3
18, 4
36, 3
19, 13
20, 6
7, 7
8, 6
8, 4
7, 6
11, 16
8, 34
10, 20
13, 17
10, 25
34, 58
51, 76
24, 25
30, 40
439, 590
2022, 2280
1470, 1372
157, 151
14, 27
16, 33
79, 139
319, 346
219, 202
23, 21
5, 10
14, 13
14, 10
4, 9
4, 3
1, 1
7, 3
2, 3
7, 10
5, 3
2, 6
5, 1
2, 8
3, 1
6, 1
10, 6
14, 3
9, 6
8, 5
3, 2
3, 5
4, 4
5, 4
3, 9
3, 7
11, 6
6, 3
10, 3
4, 4
1, 2
4, 4
4, 3
1, 9
1, 4
3, 2
2, 1
1, 5
2, 2
1, 2
1, 6
2, 5
0, 3
4, 2
2, 2
2, 1
3, 4
4, 2
2, 0
3, 2
9, 6
5, 7
3, 5
2, 2
1, 0
1, 1
1, 2
2, 2
3, 0
0, 4
0, 1
4, 0
1, 1
1, 0
1, 1
0, 2
1, 2
0, 1
0, 0
3, 4
0, 0
0, 1
0, 0
0, 0
1, 0
0, 1
0, 2
1, 0
1, 1
1, 1
0, 0
0, 1
0, 0
0, 0
1, 0
0, 1
0, 0
0, 0
0, 0
0, 0
0, 0
0, 0
0, 0
0, 0
0, 0
2, 0
0, 0
0, 2
0, 0
0, 0
0, 1
0, 0
0, 0
0, 0
0, 0
0, 0
0, 0
0, 0
1, 0
0, 0
0, 0
0, 0
0, 0
0, 0
0, 0
0, 1
0, 0
0, 0
0, 0
1, 0
0, 0
0, 0
0, 0
0, 0
1, 0
1, 0
0, 0
0, 0
0, 0
0, 0
0, 0
0, 0
0, 0
0, 0
0, 0
0, 0
0, 0
0, 0
0, 0
0, 0
0, 0
0, 0
1, 0
0, 0
0, 0
0, 0
0, 0
0, 0
0, 0
0, 0
0, 0
0, 0
0, 0
0, 0
0, 0
0, 0
0, 0
0, 0
0, 0
0, 0
0, 0
0, 0
0, 0
0, 0
0, 0
0, 0
0, 0
0, 0
0, 0
0, 0
0, 0
0, 0
0, 0
0, 0
0, 0
0, 0
0, 0
0, 0
0, 0
0, 0
0, 0
0, 0
0, 0
0, 0
0, 0
0, 0
0, 0
0, 0
0, 0
0, 0
0, 0
0, 0
0, 0
0, 0
0, 0
0, 0
0, 0
0, 0
0, 0
0, 0
0, 0
0, 0
0, 0
0, 0
0, 0
0, 0
0, 0
0, 0
0, 0
0, 0
0, 0
0, 0
0, 0
0, 0
0, 0
0, 0
0, 0
0, 0
0, 0
0, 0
0, 0
0, 0
0, 0
0, 0
0, 0
0, 0
0, 0
0, 0
#ENDOFDATA     end of spectrum data