File: host_upload/06-09-2024/ps_0852/dump3/ps__0852shot_2208.msa
#FORMAT      : EMSA/MAS spectral data file
#VERSION     : TC202v2.0 PIXL
#TITLE       : N/A
#DATE        :       Date in the format DD-MMM-YYYY, for example 07-JUL-2010
#TIME        :             The time of day at which the spectrum was recorded, in 24-hour format
#OWNER       : PIXL Flight Model       (PIXL will use this to indicate which instrument took the data.)
#NPOINTS     : 4096     Number of data points in the spectrum (This can be zero for configuration only files)
#NCOLUMNS    : 2     Number of data columns in the spectrum (This can be zero for configuration only files)
#XUNITS      : eV
#YUNITS      : COUNTS
#DATATYPE    : YY
#XPERCHAN    : 7.862, 7.881   eV per channel (separate by commas if more than one detector)
#OFFSET      : 18.5, -22.4         eV of first channel  (separate by commas if more than one detector
#SIGNALTYPE  : XRF
#YP_TEMP     : 2.139
#LIVETIME    : 8.55188, 8.58082   seconds (separate by commas if more than one detector)
#REALTIME    : 10, 10.0   seconds (separate by commas if more than one detector)
#SPECTRUM    : start of spectrum data
0, 0
0, 0
0, 0
0, 0
0, 0
0, 0
0, 0
0, 0
1, 0
0, 3
2, 3
46, 37
84, 41
6, 12
10, 5
105, 83
445, 429
117, 97
9, 9
4, 4
8, 1
20, 2
6, 1
8, 11
39, 43
55, 31
24, 19
19, 3
5, 4
4, 0
3, 4
4, 0
1, 5
16, 28
28, 26
9, 5
5, 7
5, 10
8, 8
10, 0
15, 3
13, 9
17, 9
9, 10
12, 5
46, 14
37, 11
9, 8
7, 11
17, 48
10, 36
8, 10
22, 12
61, 40
68, 49
23, 16
26, 53
486, 649
2266, 2363
1617, 1416
217, 152
17, 17
32, 12
91, 103
341, 322
224, 177
38, 20
19, 8
35, 14
41, 8
8, 3
4, 5
7, 5
4, 1
4, 6
6, 4
5, 2
3, 4
3, 7
3, 6
3, 5
4, 9
4, 7
6, 5
9, 3
3, 5
7, 4
0, 5
3, 5
7, 7
5, 4
6, 2
7, 2
3, 5
4, 2
2, 2
2, 3
3, 3
3, 8
2, 4
2, 3
2, 1
4, 2
1, 1
3, 0
1, 1
3, 1
2, 3
0, 2
3, 1
4, 2
2, 0
3, 0
3, 2
0, 1
2, 2
1, 3
7, 2
1, 6
2, 2
3, 0
2, 4
2, 1
1, 2
1, 1
2, 1
1, 2
2, 1
1, 0
0, 0
0, 0
1, 0
1, 1
1, 1
0, 3
1, 0
0, 1
2, 1
0, 0
2, 0
0, 1
0, 1
0, 0
0, 0
0, 0
1, 1
0, 1
0, 0
0, 0
0, 0
0, 1
0, 1
2, 0
0, 2
0, 0
0, 1
1, 0
1, 1
0, 0
1, 0
0, 0
0, 0
0, 0
1, 1
0, 0
1, 0
0, 0
0, 1
0, 1
1, 0
2, 0
0, 0
0, 0
0, 0
0, 0
0, 0
0, 0
0, 0
0, 1
0, 0
0, 0
1, 0
0, 0
0, 0
0, 1
1, 0
1, 0
0, 0
0, 1
1, 0
0, 0
0, 0
0, 0
0, 0
0, 0
0, 0
0, 0
0, 0
0, 0
0, 1
0, 0
0, 0
0, 0
0, 0
0, 0
0, 0
1, 0
0, 0
0, 0
0, 0
0, 0
0, 0
0, 0
0, 0
0, 0
0, 0
0, 0
0, 0
0, 0
0, 0
0, 0
0, 0
0, 0
0, 0
0, 0
0, 0
0, 0
0, 0
0, 0
0, 0
0, 0
0, 0
0, 0
0, 0
0, 0
0, 0
0, 0
0, 0
0, 0
0, 0
0, 0
0, 0
0, 0
0, 0
0, 0
0, 0
0, 0
0, 0
0, 0
0, 0
0, 0
0, 0
0, 0
0, 0
0, 0
0, 0
0, 0
0, 0
0, 0
0, 0
0, 0
0, 0
0, 0
0, 0
0, 0
0, 0
0, 0
0, 0
0, 0
0, 0
0, 0
0, 0
0, 0
0, 0
0, 0
0, 0
0, 0
0, 0
0, 0
0, 0
0, 0
0, 0
0, 0
0, 0
0, 0
0, 0
0, 0
0, 0
0, 0
0, 0
0, 0
0, 0
0, 0
0, 0
#ENDOFDATA     end of spectrum data