File: host_upload/06-09-2024/ps_0852/dump3/ps__0852shot_2483.msa
#FORMAT      : EMSA/MAS spectral data file
#VERSION     : TC202v2.0 PIXL
#TITLE       : N/A
#DATE        :       Date in the format DD-MMM-YYYY, for example 07-JUL-2010
#TIME        :             The time of day at which the spectrum was recorded, in 24-hour format
#OWNER       : PIXL Flight Model       (PIXL will use this to indicate which instrument took the data.)
#NPOINTS     : 4096     Number of data points in the spectrum (This can be zero for configuration only files)
#NCOLUMNS    : 2     Number of data columns in the spectrum (This can be zero for configuration only files)
#XUNITS      : eV
#YUNITS      : COUNTS
#DATATYPE    : YY
#XPERCHAN    : 7.862, 7.881   eV per channel (separate by commas if more than one detector)
#OFFSET      : 18.5, -22.4         eV of first channel  (separate by commas if more than one detector
#SIGNALTYPE  : XRF
#YP_TEMP     : 2.364
#LIVETIME    : 8.60352, 8.55793   seconds (separate by commas if more than one detector)
#REALTIME    : 10, 10.0   seconds (separate by commas if more than one detector)
#SPECTRUM    : start of spectrum data
0, 0
0, 0
0, 0
0, 0
0, 0
0, 0
0, 0
0, 0
0, 1
0, 0
3, 2
46, 44
65, 39
2, 9
3, 7
96, 110
436, 391
90, 89
2, 0
0, 1
1, 1
5, 1
0, 2
12, 6
28, 23
50, 24
36, 22
10, 13
5, 2
1, 1
2, 1
1, 3
3, 10
38, 34
59, 51
18, 16
23, 10
13, 9
1, 13
3, 4
4, 6
12, 10
13, 13
11, 17
10, 11
13, 4
5, 8
6, 5
13, 15
26, 43
39, 38
30, 9
15, 20
39, 63
64, 94
32, 48
37, 49
450, 521
2061, 2221
1506, 1284
185, 127
23, 20
16, 43
89, 119
317, 347
203, 215
33, 20
7, 4
8, 13
12, 14
6, 5
8, 2
8, 4
8, 1
12, 5
10, 8
6, 11
3, 3
1, 3
4, 2
4, 4
8, 1
1, 3
7, 3
3, 4
4, 2
3, 1
1, 1
1, 5
5, 5
3, 9
4, 4
3, 2
4, 5
2, 5
1, 4
0, 2
3, 1
0, 1
2, 3
3, 8
4, 2
2, 4
2, 1
3, 3
5, 3
1, 0
1, 5
3, 2
3, 4
4, 2
5, 2
1, 3
1, 2
0, 2
1, 2
6, 7
4, 3
3, 3
1, 3
0, 3
2, 3
2, 2
4, 1
0, 2
0, 1
0, 0
1, 2
0, 0
0, 0
0, 0
2, 0
1, 0
1, 1
0, 1
1, 2
0, 1
0, 0
2, 2
0, 2
2, 0
0, 0
1, 0
0, 0
2, 0
0, 2
1, 1
2, 1
0, 0
0, 1
0, 0
0, 0
0, 0
0, 0
1, 0
0, 0
0, 0
0, 1
0, 0
1, 1
0, 0
0, 0
0, 0
0, 0
0, 0
0, 0
0, 0
0, 0
1, 0
1, 0
0, 1
0, 0
0, 0
0, 0
0, 1
0, 0
0, 0
1, 0
0, 0
0, 0
0, 0
0, 0
0, 0
0, 0
0, 0
1, 0
0, 0
0, 0
0, 0
0, 0
0, 0
0, 0
0, 0
1, 0
0, 1
0, 0
0, 0
0, 0
0, 0
0, 0
0, 0
0, 0
0, 0
0, 0
0, 0
0, 0
0, 0
0, 0
0, 0
0, 0
0, 0
0, 0
0, 0
0, 0
0, 0
0, 0
0, 0
0, 0
0, 0
0, 0
0, 0
0, 0
0, 0
0, 0
0, 0
0, 0
0, 0
0, 0
0, 0
0, 0
0, 0
0, 0
0, 0
0, 0
0, 0
0, 0
0, 0
0, 0
0, 0
0, 0
0, 0
0, 0
0, 0
0, 0
0, 0
0, 0
0, 0
0, 0
0, 0
0, 0
0, 0
0, 0
0, 0
0, 0
0, 0
0, 0
0, 0
0, 0
0, 0
0, 0
0, 0
0, 0
0, 0
0, 0
0, 0
0, 0
0, 0
0, 0
0, 0
0, 0
0, 0
0, 0
0, 0
0, 0
0, 0
0, 0
0, 0
0, 0
0, 0
0, 0
0, 0
0, 0
0, 0
0, 0
0, 0
0, 0
0, 0
0, 0
0, 0
0, 0
0, 0
0, 0
0, 0
0, 0
#ENDOFDATA     end of spectrum data