File: host_upload/06-09-2024/ps_0852/dump3/ps__0852shot_2070.msa
#FORMAT      : EMSA/MAS spectral data file
#VERSION     : TC202v2.0 PIXL
#TITLE       : N/A
#DATE        :       Date in the format DD-MMM-YYYY, for example 07-JUL-2010
#TIME        :             The time of day at which the spectrum was recorded, in 24-hour format
#OWNER       : PIXL Flight Model       (PIXL will use this to indicate which instrument took the data.)
#NPOINTS     : 4096     Number of data points in the spectrum (This can be zero for configuration only files)
#NCOLUMNS    : 2     Number of data columns in the spectrum (This can be zero for configuration only files)
#XUNITS      : eV
#YUNITS      : COUNTS
#DATATYPE    : YY
#XPERCHAN    : 7.862, 7.881   eV per channel (separate by commas if more than one detector)
#OFFSET      : 18.5, -22.4         eV of first channel  (separate by commas if more than one detector
#SIGNALTYPE  : XRF
#YP_TEMP     : 2.716
#LIVETIME    : 8.56011, 8.5654   seconds (separate by commas if more than one detector)
#REALTIME    : 10, 10.0   seconds (separate by commas if more than one detector)
#SPECTRUM    : start of spectrum data
0, 0
0, 0
0, 0
0, 0
0, 0
0, 0
0, 0
0, 0
0, 0
0, 2
4, 4
61, 47
53, 62
9, 3
6, 5
96, 91
430, 443
101, 84
5, 5
2, 3
2, 2
3, 8
4, 2
8, 8
33, 37
48, 55
26, 24
15, 8
4, 8
0, 2
5, 4
2, 2
3, 0
17, 16
21, 14
6, 11
28, 12
19, 7
8, 3
7, 6
5, 7
17, 13
17, 18
17, 16
12, 9
8, 14
6, 13
1, 16
9, 12
18, 15
17, 11
9, 10
8, 10
34, 53
59, 66
31, 30
31, 57
479, 604
2268, 2383
1620, 1450
218, 152
23, 22
24, 20
96, 117
324, 337
203, 211
48, 31
18, 14
18, 19
15, 13
5, 7
5, 3
1, 4
6, 2
6, 5
3, 6
3, 3
7, 1
6, 3
7, 5
12, 3
4, 6
2, 3
4, 5
1, 3
7, 5
2, 2
3, 2
3, 2
6, 4
4, 5
0, 3
3, 3
3, 3
4, 5
3, 3
3, 4
4, 2
2, 3
2, 1
4, 5
4, 1
2, 2
1, 8
2, 1
2, 3
5, 2
4, 0
4, 1
3, 2
1, 3
2, 2
5, 3
3, 1
2, 2
3, 5
3, 4
3, 1
5, 0
2, 1
5, 2
2, 2
5, 1
0, 0
1, 1
1, 1
0, 0
0, 2
1, 2
0, 0
0, 0
1, 0
2, 1
0, 2
1, 0
0, 1
1, 0
3, 2
0, 2
0, 1
2, 0
1, 1
1, 2
0, 0
1, 0
0, 1
0, 0
0, 0
0, 0
0, 0
2, 1
0, 1
0, 0
1, 0
0, 1
0, 1
0, 0
0, 0
0, 0
0, 1
0, 1
0, 0
0, 0
0, 2
0, 0
0, 0
0, 0
0, 1
1, 0
0, 0
2, 1
0, 0
3, 0
1, 0
0, 0
0, 0
0, 0
0, 0
0, 0
0, 0
0, 0
1, 0
0, 0
0, 0
0, 0
0, 0
0, 0
0, 0
0, 0
0, 0
0, 0
0, 0
0, 0
0, 0
1, 0
0, 0
0, 0
1, 0
0, 0
1, 0
0, 0
0, 0
0, 0
0, 0
0, 0
0, 0
0, 0
0, 0
0, 0
1, 0
0, 0
0, 0
0, 0
0, 0
0, 0
0, 0
0, 0
0, 0
0, 0
0, 0
0, 0
0, 0
0, 0
0, 0
0, 0
0, 0
0, 0
0, 0
0, 0
0, 0
0, 0
0, 0
0, 0
0, 0
0, 0
0, 0
0, 0
0, 0
0, 0
0, 0
0, 0
0, 0
0, 0
0, 0
0, 0
0, 0
0, 0
0, 0
0, 0
0, 0
0, 0
0, 0
0, 0
0, 0
0, 0
0, 0
0, 0
0, 0
0, 0
0, 0
0, 0
0, 0
0, 0
0, 0
0, 0
0, 0
0, 0
0, 0
0, 0
0, 0
0, 0
0, 0
0, 0
0, 0
0, 0
0, 0
0, 0
0, 0
0, 0
0, 0
0, 0
0, 0
0, 0
0, 0
0, 0
0, 0
0, 0
0, 0
0, 0
0, 0
0, 0
0, 0
0, 0
0, 0
#ENDOFDATA     end of spectrum data