File: host_upload/06-09-2024/ps_0852/dump3/ps__0852shot_2419.msa
#FORMAT      : EMSA/MAS spectral data file
#VERSION     : TC202v2.0 PIXL
#TITLE       : N/A
#DATE        :       Date in the format DD-MMM-YYYY, for example 07-JUL-2010
#TIME        :             The time of day at which the spectrum was recorded, in 24-hour format
#OWNER       : PIXL Flight Model       (PIXL will use this to indicate which instrument took the data.)
#NPOINTS     : 4096     Number of data points in the spectrum (This can be zero for configuration only files)
#NCOLUMNS    : 2     Number of data columns in the spectrum (This can be zero for configuration only files)
#XUNITS      : eV
#YUNITS      : COUNTS
#DATATYPE    : YY
#XPERCHAN    : 7.862, 7.881   eV per channel (separate by commas if more than one detector)
#OFFSET      : 18.5, -22.4         eV of first channel  (separate by commas if more than one detector
#SIGNALTYPE  : XRF
#YP_TEMP     : 2.428
#LIVETIME    : 8.57878, 8.58105   seconds (separate by commas if more than one detector)
#REALTIME    : 10, 10.0   seconds (separate by commas if more than one detector)
#SPECTRUM    : start of spectrum data
0, 0
0, 0
0, 0
0, 0
0, 0
0, 0
0, 0
0, 1
0, 0
2, 3
3, 0
52, 48
71, 55
7, 4
9, 7
86, 109
417, 422
103, 96
5, 4
1, 1
3, 3
6, 6
1, 4
6, 7
23, 27
29, 26
30, 18
24, 9
8, 3
3, 0
6, 2
1, 4
2, 3
20, 12
12, 12
8, 5
6, 1
7, 2
7, 3
50, 4
108, 5
37, 6
15, 9
18, 15
9, 3
6, 4
6, 16
3, 10
2, 9
8, 14
11, 12
35, 8
69, 7
161, 35
117, 56
27, 30
40, 42
471, 567
2247, 2414
1573, 1385
188, 155
13, 19
18, 32
104, 116
357, 348
278, 185
29, 24
20, 8
17, 7
5, 8
6, 4
1, 2
3, 2
2, 0
7, 4
7, 6
3, 11
5, 17
10, 15
24, 12
11, 15
6, 20
5, 11
1, 3
3, 4
3, 3
5, 4
2, 1
1, 3
2, 6
3, 2
8, 9
6, 7
13, 27
2, 11
3, 5
4, 4
2, 5
3, 1
4, 2
1, 1
4, 3
6, 3
4, 3
2, 4
3, 5
5, 1
3, 4
3, 4
2, 4
1, 2
5, 2
2, 4
1, 5
3, 1
1, 5
4, 8
3, 1
0, 2
5, 2
1, 5
2, 2
2, 1
2, 3
4, 1
0, 1
0, 1
2, 0
1, 0
1, 1
3, 1
1, 1
0, 1
1, 1
0, 0
2, 0
1, 0
0, 0
0, 0
0, 0
0, 0
2, 0
0, 3
1, 1
0, 3
0, 1
1, 0
0, 0
0, 0
0, 0
0, 0
1, 0
0, 1
0, 0
0, 0
2, 0
0, 1
0, 0
0, 1
0, 0
0, 0
1, 0
0, 0
0, 1
1, 0
0, 0
0, 0
0, 2
0, 1
1, 0
0, 0
0, 0
0, 0
0, 0
0, 0
0, 0
0, 0
0, 0
0, 0
0, 0
0, 1
0, 0
0, 0
0, 0
2, 0
0, 0
0, 0
0, 0
0, 0
0, 0
1, 0
0, 0
0, 0
0, 0
0, 0
0, 0
1, 0
0, 0
0, 0
0, 0
0, 0
0, 0
0, 0
0, 0
1, 0
0, 0
0, 0
0, 0
0, 0
0, 0
0, 0
0, 0
0, 0
0, 0
0, 0
0, 0
0, 0
0, 0
0, 0
0, 0
0, 0
0, 0
0, 0
0, 1
0, 0
0, 0
0, 0
0, 0
0, 0
0, 0
0, 0
0, 0
0, 0
0, 0
0, 0
0, 0
0, 0
0, 0
0, 0
0, 0
0, 0
0, 0
0, 0
0, 0
0, 0
0, 0
0, 0
0, 0
0, 0
0, 0
0, 0
0, 0
0, 0
0, 0
0, 0
0, 0
0, 0
0, 0
0, 0
0, 0
0, 0
0, 0
0, 0
0, 0
0, 0
0, 0
0, 0
0, 0
0, 0
0, 0
0, 0
0, 0
0, 0
0, 0
0, 0
0, 0
0, 0
0, 0
0, 0
0, 0
0, 0
0, 0
0, 0
0, 0
0, 0
0, 0
0, 0
0, 0
0, 0
0, 0
0, 0
0, 0
0, 0
0, 0
#ENDOFDATA     end of spectrum data