File: host_upload/06-09-2024/ps_0852/dump3/ps__0852shot_2436.msa
#FORMAT      : EMSA/MAS spectral data file
#VERSION     : TC202v2.0 PIXL
#TITLE       : N/A
#DATE        :       Date in the format DD-MMM-YYYY, for example 07-JUL-2010
#TIME        :             The time of day at which the spectrum was recorded, in 24-hour format
#OWNER       : PIXL Flight Model       (PIXL will use this to indicate which instrument took the data.)
#NPOINTS     : 4096     Number of data points in the spectrum (This can be zero for configuration only files)
#NCOLUMNS    : 2     Number of data columns in the spectrum (This can be zero for configuration only files)
#XUNITS      : eV
#YUNITS      : COUNTS
#DATATYPE    : YY
#XPERCHAN    : 7.862, 7.881   eV per channel (separate by commas if more than one detector)
#OFFSET      : 18.5, -22.4         eV of first channel  (separate by commas if more than one detector
#SIGNALTYPE  : XRF
#YP_TEMP     : 2.3
#LIVETIME    : 8.55626, 8.54332   seconds (separate by commas if more than one detector)
#REALTIME    : 10, 10.0   seconds (separate by commas if more than one detector)
#SPECTRUM    : start of spectrum data
0, 0
0, 0
0, 0
0, 0
0, 0
0, 0
0, 1
0, 0
0, 1
3, 2
3, 6
32, 39
63, 34
7, 3
7, 4
129, 102
586, 448
122, 118
11, 11
1, 1
2, 0
6, 9
6, 12
11, 11
39, 52
48, 39
14, 22
10, 15
3, 6
4, 1
4, 3
1, 4
10, 13
127, 144
238, 225
47, 43
31, 24
51, 27
12, 7
8, 6
2, 5
15, 10
17, 17
12, 21
3, 29
9, 18
14, 3
11, 3
12, 12
34, 23
31, 17
25, 9
12, 13
44, 40
78, 52
90, 23
63, 32
418, 495
1807, 1951
1368, 1110
152, 109
6, 7
36, 26
100, 112
276, 279
184, 176
25, 24
15, 7
17, 21
12, 4
12, 4
5, 0
4, 2
2, 3
7, 5
14, 3
8, 3
4, 3
2, 4
8, 5
11, 4
6, 4
1, 4
4, 4
1, 2
3, 1
1, 7
9, 4
7, 5
3, 0
2, 5
3, 5
4, 8
4, 11
2, 5
4, 3
2, 0
2, 3
3, 1
4, 5
1, 2
8, 0
3, 4
2, 2
2, 5
2, 0
2, 2
1, 3
3, 0
1, 1
4, 3
4, 2
2, 1
0, 3
3, 1
2, 5
3, 5
1, 3
3, 1
2, 3
1, 3
2, 1
1, 1
0, 0
0, 1
1, 1
1, 2
2, 0
0, 0
0, 0
2, 2
3, 1
2, 2
3, 2
1, 0
1, 2
0, 1
0, 0
0, 1
0, 0
0, 0
0, 3
1, 2
0, 0
0, 0
0, 0
0, 0
0, 0
0, 0
1, 1
0, 0
0, 0
0, 0
0, 0
0, 0
0, 1
0, 3
0, 0
0, 0
0, 0
0, 1
0, 0
0, 0
1, 0
0, 0
0, 0
0, 0
0, 2
0, 0
0, 0
1, 0
0, 1
1, 0
1, 1
1, 0
0, 0
0, 1
0, 0
0, 0
0, 0
0, 0
1, 0
0, 0
0, 0
0, 0
1, 0
0, 0
0, 1
0, 0
0, 0
0, 0
0, 0
0, 0
0, 0
1, 1
0, 1
0, 0
0, 0
0, 0
0, 0
0, 0
0, 0
0, 0
0, 0
0, 0
0, 0
0, 0
0, 0
0, 0
0, 0
0, 0
0, 0
0, 0
0, 0
0, 0
0, 0
0, 0
0, 0
0, 0
0, 0
0, 0
0, 0
0, 0
0, 0
0, 0
0, 0
0, 0
0, 0
0, 0
0, 0
0, 0
0, 0
0, 0
0, 0
0, 0
0, 0
0, 0
0, 0
0, 0
0, 0
0, 0
0, 0
0, 0
0, 0
0, 0
0, 0
0, 0
0, 0
0, 0
0, 0
0, 0
0, 0
0, 0
0, 0
0, 0
0, 0
0, 0
0, 0
0, 0
0, 0
0, 0
0, 0
0, 0
0, 0
0, 0
0, 0
0, 0
0, 0
0, 0
0, 0
0, 0
0, 0
0, 0
0, 0
0, 0
0, 0
0, 0
0, 0
0, 0
0, 0
0, 0
0, 0
0, 0
0, 0
0, 0
0, 0
0, 0
0, 0
0, 0
0, 0
0, 0
0, 0
0, 0
0, 0
#ENDOFDATA     end of spectrum data