File: host_upload/06-09-2024/ps_0852/dump3/ps__0852shot_2224.msa
#FORMAT      : EMSA/MAS spectral data file
#VERSION     : TC202v2.0 PIXL
#TITLE       : N/A
#DATE        :       Date in the format DD-MMM-YYYY, for example 07-JUL-2010
#TIME        :             The time of day at which the spectrum was recorded, in 24-hour format
#OWNER       : PIXL Flight Model       (PIXL will use this to indicate which instrument took the data.)
#NPOINTS     : 4096     Number of data points in the spectrum (This can be zero for configuration only files)
#NCOLUMNS    : 2     Number of data columns in the spectrum (This can be zero for configuration only files)
#XUNITS      : eV
#YUNITS      : COUNTS
#DATATYPE    : YY
#XPERCHAN    : 7.862, 7.881   eV per channel (separate by commas if more than one detector)
#OFFSET      : 18.5, -22.4         eV of first channel  (separate by commas if more than one detector
#SIGNALTYPE  : XRF
#YP_TEMP     : 2.267
#LIVETIME    : 8.54651, 8.57987   seconds (separate by commas if more than one detector)
#REALTIME    : 10, 10.0   seconds (separate by commas if more than one detector)
#SPECTRUM    : start of spectrum data
0, 0
0, 0
0, 0
0, 0
0, 0
0, 0
0, 0
0, 0
0, 1
2, 0
1, 1
41, 38
64, 51
4, 4
3, 5
118, 92
450, 376
106, 85
6, 4
0, 2
3, 3
1, 4
1, 16
3, 6
12, 9
27, 19
14, 13
8, 19
8, 1
1, 0
2, 4
2, 1
2, 2
22, 10
20, 14
5, 5
1, 2
14, 5
71, 1
68, 5
7, 5
11, 4
12, 12
6, 18
6, 25
3, 21
2, 4
5, 5
8, 6
22, 10
15, 14
8, 6
8, 44
35, 70
60, 69
16, 16
25, 38
457, 591
2265, 2163
1718, 1296
245, 135
15, 22
11, 24
95, 116
352, 336
248, 200
34, 77
6, 45
8, 20
10, 3
3, 3
5, 6
3, 4
3, 4
11, 23
10, 25
16, 20
19, 6
7, 5
4, 4
3, 2
3, 4
8, 4
2, 6
1, 6
3, 2
10, 1
12, 3
7, 4
3, 5
6, 5
3, 3
1, 2
4, 1
4, 4
3, 3
11, 0
2, 1
2, 2
1, 2
2, 3
1, 1
0, 1
4, 2
1, 3
3, 7
4, 3
1, 3
3, 0
0, 2
1, 0
2, 2
0, 2
2, 1
2, 0
3, 0
5, 3
2, 3
0, 0
0, 3
0, 2
0, 2
2, 2
0, 4
3, 2
2, 1
1, 1
0, 2
1, 3
1, 1
0, 0
0, 1
1, 1
0, 1
0, 0
1, 1
0, 1
0, 0
0, 1
0, 1
0, 1
1, 0
0, 0
0, 0
1, 0
0, 0
0, 1
0, 1
0, 1
1, 0
1, 0
0, 0
0, 0
1, 0
1, 0
0, 1
0, 0
0, 1
1, 1
0, 0
0, 0
0, 0
1, 0
0, 0
0, 0
1, 0
0, 0
0, 0
0, 1
0, 0
0, 0
0, 0
0, 2
1, 0
0, 0
0, 0
0, 1
0, 0
0, 0
0, 0
0, 0
0, 0
0, 0
2, 0
0, 0
0, 0
0, 0
0, 0
0, 0
0, 0
0, 1
0, 0
0, 0
0, 0
0, 0
0, 0
0, 0
1, 0
0, 0
0, 0
0, 0
0, 0
0, 0
0, 0
0, 0
0, 0
0, 0
0, 0
0, 0
0, 0
0, 0
0, 0
0, 0
0, 0
0, 0
0, 0
0, 0
0, 0
0, 0
0, 0
0, 0
0, 0
0, 0
0, 0
0, 0
0, 0
0, 0
0, 0
0, 0
0, 0
0, 0
0, 0
0, 0
0, 0
0, 0
0, 0
0, 0
0, 0
0, 0
0, 0
0, 0
0, 0
0, 0
0, 0
0, 0
0, 0
0, 0
0, 0
0, 0
0, 0
0, 0
0, 0
0, 0
0, 0
0, 0
0, 0
0, 0
0, 0
0, 0
0, 0
0, 0
0, 0
0, 0
0, 0
0, 0
0, 0
0, 0
0, 0
0, 0
0, 0
0, 0
0, 0
0, 0
0, 0
0, 0
0, 0
0, 0
0, 0
0, 0
0, 0
0, 0
0, 0
0, 0
0, 0
0, 0
0, 0
0, 0
0, 0
0, 0
0, 0
0, 0
0, 0
0, 0
0, 0
#ENDOFDATA     end of spectrum data