File: host_upload/06-09-2024/ps_0852/dump3/ps__0852shot_2504.msa
#FORMAT      : EMSA/MAS spectral data file
#VERSION     : TC202v2.0 PIXL
#TITLE       : N/A
#DATE        :       Date in the format DD-MMM-YYYY, for example 07-JUL-2010
#TIME        :             The time of day at which the spectrum was recorded, in 24-hour format
#OWNER       : PIXL Flight Model       (PIXL will use this to indicate which instrument took the data.)
#NPOINTS     : 4096     Number of data points in the spectrum (This can be zero for configuration only files)
#NCOLUMNS    : 2     Number of data columns in the spectrum (This can be zero for configuration only files)
#XUNITS      : eV
#YUNITS      : COUNTS
#DATATYPE    : YY
#XPERCHAN    : 7.862, 7.881   eV per channel (separate by commas if more than one detector)
#OFFSET      : 18.5, -22.4         eV of first channel  (separate by commas if more than one detector
#SIGNALTYPE  : XRF
#YP_TEMP     : 2.235
#LIVETIME    : 8.57097, 8.54088   seconds (separate by commas if more than one detector)
#REALTIME    : 10, 10.0   seconds (separate by commas if more than one detector)
#SPECTRUM    : start of spectrum data
0, 0
0, 0
0, 0
0, 0
0, 0
0, 0
0, 0
0, 0
1, 0
0, 0
2, 2
58, 52
62, 66
4, 3
5, 5
96, 79
458, 403
104, 88
3, 4
3, 1
1, 2
1, 6
1, 6
9, 4
38, 19
53, 33
44, 17
15, 9
3, 7
3, 1
1, 0
2, 3
20, 2
37, 11
14, 12
5, 4
2, 4
7, 7
3, 3
2, 4
12, 6
20, 17
18, 19
13, 13
6, 10
10, 11
13, 15
3, 7
41, 32
192, 158
159, 104
33, 39
23, 44
66, 54
101, 83
37, 39
38, 39
453, 518
2164, 2192
1506, 1220
175, 125
16, 9
22, 19
101, 107
306, 309
230, 194
35, 22
7, 7
15, 11
10, 1
8, 3
3, 3
3, 1
6, 9
4, 7
5, 6
3, 3
4, 4
4, 1
9, 4
6, 4
5, 2
2, 4
1, 13
4, 13
6, 5
5, 6
4, 1
2, 4
1, 3
4, 6
6, 2
4, 3
5, 3
1, 1
4, 4
5, 2
3, 2
0, 2
2, 2
1, 2
4, 2
1, 3
4, 4
2, 5
1, 0
4, 5
2, 1
0, 2
2, 2
3, 1
2, 5
5, 3
1, 2
1, 1
2, 1
2, 6
3, 2
3, 0
0, 0
0, 1
4, 1
1, 3
0, 1
2, 2
1, 1
1, 0
0, 0
0, 1
1, 2
2, 2
0, 1
4, 1
1, 3
1, 0
0, 0
0, 0
1, 0
1, 0
0, 1
1, 0
1, 0
1, 2
2, 0
1, 1
1, 1
0, 1
0, 1
0, 1
0, 0
0, 0
0, 0
0, 0
0, 0
1, 0
1, 0
1, 0
0, 0
0, 0
0, 0
0, 0
0, 0
1, 0
0, 1
0, 1
1, 0
1, 1
0, 0
0, 0
0, 0
0, 0
0, 1
0, 0
1, 1
0, 0
0, 0
0, 0
0, 1
0, 0
0, 0
0, 0
0, 0
0, 0
1, 0
0, 0
0, 0
0, 0
0, 0
0, 1
0, 0
0, 0
0, 0
0, 0
0, 0
0, 0
0, 0
0, 0
0, 0
0, 0
0, 0
0, 0
0, 0
0, 0
0, 0
0, 0
0, 0
0, 0
0, 0
0, 0
0, 0
0, 0
0, 0
0, 0
0, 0
0, 0
0, 0
0, 0
1, 0
0, 0
0, 0
0, 0
0, 0
0, 0
0, 0
0, 0
0, 0
0, 0
0, 0
0, 0
0, 0
0, 0
0, 0
0, 0
0, 0
0, 0
0, 0
0, 0
0, 0
0, 0
0, 0
0, 0
0, 0
0, 0
0, 0
0, 0
0, 0
0, 0
0, 0
0, 0
0, 0
0, 0
0, 0
0, 0
0, 0
0, 0
0, 0
0, 0
0, 0
0, 0
0, 0
0, 0
0, 0
0, 0
0, 0
0, 0
0, 0
0, 0
0, 0
0, 0
0, 0
0, 0
0, 0
0, 0
0, 0
0, 0
0, 0
0, 0
0, 0
0, 0
0, 0
0, 0
0, 0
0, 0
0, 0
0, 0
0, 0
0, 0
0, 0
0, 0
0, 0
0, 0
0, 0
0, 0
0, 0
#ENDOFDATA     end of spectrum data