File: host_upload/06-09-2024/ps_0852/dump3/ps__0852shot_2039.msa
#FORMAT      : EMSA/MAS spectral data file
#VERSION     : TC202v2.0 PIXL
#TITLE       : N/A
#DATE        :       Date in the format DD-MMM-YYYY, for example 07-JUL-2010
#TIME        :             The time of day at which the spectrum was recorded, in 24-hour format
#OWNER       : PIXL Flight Model       (PIXL will use this to indicate which instrument took the data.)
#NPOINTS     : 4096     Number of data points in the spectrum (This can be zero for configuration only files)
#NCOLUMNS    : 2     Number of data columns in the spectrum (This can be zero for configuration only files)
#XUNITS      : eV
#YUNITS      : COUNTS
#DATATYPE    : YY
#XPERCHAN    : 7.862, 7.881   eV per channel (separate by commas if more than one detector)
#OFFSET      : 18.5, -22.4         eV of first channel  (separate by commas if more than one detector
#SIGNALTYPE  : XRF
#YP_TEMP     : 2.332
#LIVETIME    : 8.55754, 8.56715   seconds (separate by commas if more than one detector)
#REALTIME    : 10, 10.0   seconds (separate by commas if more than one detector)
#SPECTRUM    : start of spectrum data
0, 0
0, 0
0, 0
0, 0
0, 0
0, 0
0, 0
0, 0
0, 3
1, 1
4, 7
49, 42
38, 53
1, 4
9, 8
98, 89
403, 373
124, 98
7, 8
0, 1
2, 1
9, 7
8, 4
10, 21
60, 82
46, 100
19, 24
11, 13
4, 4
2, 3
1, 3
4, 5
5, 3
10, 17
18, 12
3, 8
5, 4
9, 5
3, 9
3, 2
4, 5
5, 13
13, 19
12, 14
4, 4
7, 14
7, 6
6, 9
9, 23
11, 24
14, 25
65, 2
79, 12
54, 38
48, 49
28, 27
42, 44
497, 563
2127, 2156
1631, 1322
231, 157
27, 22
19, 19
101, 129
361, 337
203, 174
34, 22
12, 4
15, 13
18, 7
25, 4
14, 1
5, 10
2, 5
6, 11
7, 6
3, 7
7, 5
2, 4
4, 3
3, 5
2, 7
6, 3
4, 6
6, 6
2, 5
2, 3
5, 3
1, 3
1, 6
6, 2
6, 3
4, 4
1, 1
6, 2
1, 1
4, 2
0, 3
2, 3
4, 1
1, 3
3, 3
2, 2
3, 1
0, 0
2, 1
1, 3
0, 2
2, 1
0, 3
2, 2
0, 2
4, 1
5, 2
2, 5
5, 1
5, 4
1, 1
2, 2
2, 2
0, 2
2, 1
4, 2
3, 2
0, 1
0, 2
1, 1
0, 0
1, 2
3, 0
4, 0
0, 0
2, 0
1, 1
1, 1
0, 0
0, 0
0, 1
2, 0
0, 0
1, 0
1, 1
0, 0
0, 0
0, 0
0, 2
1, 1
2, 2
1, 0
0, 1
0, 0
1, 0
0, 0
0, 0
1, 0
0, 0
0, 1
1, 0
0, 1
1, 0
0, 0
0, 0
0, 0
0, 0
0, 1
1, 0
1, 0
2, 0
0, 0
0, 0
0, 0
0, 0
0, 1
1, 0
0, 0
0, 0
1, 0
0, 0
1, 0
0, 0
0, 0
0, 0
1, 0
0, 0
2, 0
0, 0
0, 0
1, 0
0, 0
0, 0
0, 0
0, 0
0, 0
0, 0
0, 0
0, 0
0, 0
0, 0
0, 0
0, 1
0, 0
1, 0
0, 0
0, 0
0, 0
0, 0
0, 0
0, 0
0, 1
0, 0
0, 0
0, 0
0, 0
0, 0
0, 0
0, 0
0, 0
0, 0
0, 0
0, 0
0, 0
0, 0
0, 0
0, 0
0, 0
0, 0
0, 0
0, 0
0, 0
0, 0
0, 0
0, 0
0, 0
0, 0
0, 0
0, 0
0, 0
0, 0
0, 0
0, 0
0, 0
0, 0
0, 0
0, 0
0, 0
0, 0
0, 0
0, 0
0, 0
0, 0
0, 0
0, 0
0, 0
0, 0
0, 0
0, 0
0, 0
0, 0
0, 0
0, 0
0, 0
0, 0
0, 0
0, 0
0, 0
0, 0
0, 0
0, 0
0, 0
0, 0
0, 0
0, 0
0, 0
0, 0
0, 0
0, 0
0, 0
0, 0
0, 0
0, 0
0, 0
0, 0
0, 0
0, 0
0, 0
0, 0
0, 0
0, 0
0, 0
0, 0
0, 0
0, 0
0, 0
0, 0
#ENDOFDATA     end of spectrum data