File: host_upload/06-09-2024/ps_0852/dump3/ps__0852shot_2034.msa
#FORMAT      : EMSA/MAS spectral data file
#VERSION     : TC202v2.0 PIXL
#TITLE       : N/A
#DATE        :       Date in the format DD-MMM-YYYY, for example 07-JUL-2010
#TIME        :             The time of day at which the spectrum was recorded, in 24-hour format
#OWNER       : PIXL Flight Model       (PIXL will use this to indicate which instrument took the data.)
#NPOINTS     : 4096     Number of data points in the spectrum (This can be zero for configuration only files)
#NCOLUMNS    : 2     Number of data columns in the spectrum (This can be zero for configuration only files)
#XUNITS      : eV
#YUNITS      : COUNTS
#DATATYPE    : YY
#XPERCHAN    : 7.862, 7.881   eV per channel (separate by commas if more than one detector)
#OFFSET      : 18.5, -22.4         eV of first channel  (separate by commas if more than one detector
#SIGNALTYPE  : XRF
#YP_TEMP     : 2.46
#LIVETIME    : 8.5934, 8.60051   seconds (separate by commas if more than one detector)
#REALTIME    : 10, 10.0   seconds (separate by commas if more than one detector)
#SPECTRUM    : start of spectrum data
0, 0
0, 0
0, 0
0, 0
0, 0
0, 0
0, 0
0, 0
1, 0
1, 4
3, 0
50, 27
58, 46
12, 10
5, 6
86, 98
408, 380
105, 76
10, 13
6, 4
7, 2
1, 3
5, 2
14, 11
43, 49
54, 49
31, 21
19, 14
8, 7
0, 0
1, 4
1, 4
1, 11
15, 47
24, 29
6, 0
3, 3
4, 4
7, 11
8, 5
6, 6
14, 7
17, 16
8, 9
8, 5
6, 9
6, 6
6, 15
10, 10
18, 15
19, 12
30, 10
54, 15
73, 45
66, 63
26, 18
28, 45
448, 584
2025, 2258
1496, 1418
179, 159
11, 21
24, 30
101, 118
315, 358
215, 227
45, 27
8, 4
10, 15
4, 11
6, 7
1, 9
2, 5
1, 7
5, 4
3, 6
2, 6
4, 10
7, 8
4, 7
2, 6
8, 4
11, 2
7, 4
4, 1
2, 3
4, 4
4, 6
4, 3
2, 0
2, 8
3, 2
2, 5
4, 11
3, 6
3, 5
1, 2
7, 3
3, 2
3, 2
2, 1
3, 2
5, 2
1, 1
2, 3
2, 0
2, 3
1, 3
1, 1
1, 2
3, 1
2, 1
3, 3
4, 0
4, 0
4, 3
4, 3
3, 4
1, 2
6, 1
4, 0
5, 3
1, 2
1, 1
2, 1
1, 0
1, 2
0, 4
1, 0
1, 1
2, 0
1, 2
0, 3
2, 1
2, 2
0, 0
0, 3
1, 0
0, 1
1, 1
0, 1
0, 0
0, 2
0, 0
1, 2
0, 0
0, 0
0, 0
1, 1
1, 0
0, 0
0, 0
1, 0
0, 1
0, 1
0, 2
0, 0
0, 0
0, 1
0, 0
0, 0
0, 1
0, 0
0, 0
0, 0
2, 0
0, 0
0, 0
0, 0
1, 0
0, 1
0, 0
0, 0
0, 1
0, 0
0, 0
0, 0
1, 1
0, 0
0, 1
0, 0
0, 0
0, 0
1, 0
0, 0
0, 0
0, 0
1, 0
0, 0
0, 0
0, 0
0, 0
0, 0
0, 0
0, 0
0, 0
0, 0
0, 0
0, 0
0, 0
0, 0
0, 0
0, 0
0, 0
0, 0
0, 0
0, 0
0, 0
0, 0
0, 0
0, 0
0, 0
0, 1
0, 0
0, 0
0, 0
0, 0
0, 0
0, 0
0, 0
0, 0
0, 0
0, 0
0, 0
0, 0
0, 0
0, 0
0, 0
0, 0
0, 0
0, 0
0, 0
0, 0
0, 0
0, 0
0, 0
0, 0
0, 0
0, 0
0, 0
0, 0
0, 0
0, 0
0, 0
0, 0
0, 0
0, 0
0, 0
0, 0
0, 0
0, 0
0, 0
0, 0
0, 0
0, 0
0, 0
0, 0
0, 0
0, 0
0, 0
0, 0
0, 0
0, 0
0, 0
0, 0
0, 0
0, 0
0, 0
0, 0
0, 0
0, 0
0, 0
0, 0
0, 0
0, 0
0, 0
0, 0
0, 0
0, 0
0, 0
0, 0
0, 0
0, 0
0, 0
0, 0
0, 0
0, 0
0, 0
0, 0
0, 0
0, 0
0, 0
0, 0
0, 0
#ENDOFDATA     end of spectrum data