File: host_upload/06-09-2024/ps_0852/dump3/ps__0852shot_2065.msa
#FORMAT      : EMSA/MAS spectral data file
#VERSION     : TC202v2.0 PIXL
#TITLE       : N/A
#DATE        :       Date in the format DD-MMM-YYYY, for example 07-JUL-2010
#TIME        :             The time of day at which the spectrum was recorded, in 24-hour format
#OWNER       : PIXL Flight Model       (PIXL will use this to indicate which instrument took the data.)
#NPOINTS     : 4096     Number of data points in the spectrum (This can be zero for configuration only files)
#NCOLUMNS    : 2     Number of data columns in the spectrum (This can be zero for configuration only files)
#XUNITS      : eV
#YUNITS      : COUNTS
#DATATYPE    : YY
#XPERCHAN    : 7.862, 7.881   eV per channel (separate by commas if more than one detector)
#OFFSET      : 18.5, -22.4         eV of first channel  (separate by commas if more than one detector
#SIGNALTYPE  : XRF
#YP_TEMP     : 2.556
#LIVETIME    : 8.55145, 8.54986   seconds (separate by commas if more than one detector)
#REALTIME    : 10, 10.0   seconds (separate by commas if more than one detector)
#SPECTRUM    : start of spectrum data
0, 0
0, 0
0, 0
0, 0
0, 0
0, 0
0, 0
0, 0
0, 1
0, 3
2, 2
42, 45
58, 56
3, 2
6, 5
104, 118
466, 456
102, 112
10, 7
5, 1
12, 2
11, 6
6, 3
5, 10
31, 39
22, 33
20, 17
15, 9
7, 3
3, 3
3, 2
2, 2
5, 13
98, 119
146, 200
30, 38
25, 29
36, 20
72, 8
51, 6
11, 8
13, 16
14, 10
11, 14
4, 7
7, 3
4, 10
4, 8
8, 8
27, 29
34, 24
8, 31
14, 95
39, 86
58, 41
21, 24
42, 42
430, 523
1919, 1994
1425, 1215
206, 129
19, 18
19, 17
82, 109
295, 303
198, 178
26, 18
9, 6
15, 16
12, 14
4, 8
4, 3
1, 7
9, 6
9, 4
9, 9
10, 11
11, 9
6, 4
2, 7
7, 1
3, 5
5, 6
3, 9
4, 5
3, 7
2, 4
3, 3
2, 5
6, 3
7, 4
3, 6
2, 4
2, 2
1, 4
2, 1
4, 2
4, 4
4, 1
5, 2
7, 2
0, 1
1, 5
3, 1
1, 4
0, 3
1, 5
3, 2
2, 0
3, 0
1, 3
1, 2
2, 0
1, 4
3, 3
4, 1
3, 4
2, 2
1, 1
1, 0
3, 4
1, 1
2, 2
3, 2
2, 0
2, 1
1, 0
0, 2
0, 2
1, 0
3, 2
2, 3
2, 0
1, 1
3, 0
4, 2
1, 0
1, 1
1, 0
0, 1
0, 0
0, 0
1, 0
0, 1
0, 0
0, 0
0, 0
0, 0
1, 0
0, 0
0, 0
0, 1
1, 1
1, 0
0, 1
1, 0
1, 1
1, 1
0, 0
2, 0
0, 0
0, 0
1, 0
0, 1
0, 0
0, 0
0, 1
1, 0
0, 0
0, 0
1, 0
0, 0
0, 0
0, 0
0, 0
0, 0
0, 0
0, 1
0, 0
0, 0
0, 1
0, 0
0, 1
0, 0
0, 0
0, 0
0, 0
0, 0
0, 0
0, 0
0, 0
0, 0
0, 0
0, 0
0, 1
0, 0
0, 0
0, 0
0, 0
0, 0
0, 0
0, 0
0, 0
0, 0
0, 0
0, 0
0, 0
0, 0
0, 0
0, 0
0, 0
0, 0
0, 0
0, 0
0, 0
0, 0
0, 0
0, 0
0, 0
0, 0
0, 0
0, 0
0, 0
0, 0
0, 0
0, 0
0, 0
0, 0
0, 0
0, 0
0, 0
0, 0
0, 0
0, 0
0, 0
0, 0
0, 0
0, 0
0, 0
0, 0
0, 0
0, 0
0, 0
0, 0
0, 0
0, 0
0, 0
0, 0
0, 0
0, 0
0, 0
0, 0
0, 0
0, 0
0, 0
0, 0
0, 0
0, 0
0, 0
0, 0
0, 0
0, 0
0, 0
0, 0
0, 0
0, 0
0, 0
0, 0
0, 0
0, 0
0, 0
0, 0
0, 0
0, 0
0, 0
0, 0
0, 0
0, 0
0, 0
0, 0
0, 0
0, 0
0, 0
0, 0
0, 0
0, 0
0, 0
0, 0
0, 0
0, 0
0, 0
0, 0
0, 0
0, 0
#ENDOFDATA     end of spectrum data