File: host_upload/06-09-2024/ps_0852/dump3/ps__0852shot_2315.msa
#FORMAT      : EMSA/MAS spectral data file
#VERSION     : TC202v2.0 PIXL
#TITLE       : N/A
#DATE        :       Date in the format DD-MMM-YYYY, for example 07-JUL-2010
#TIME        :             The time of day at which the spectrum was recorded, in 24-hour format
#OWNER       : PIXL Flight Model       (PIXL will use this to indicate which instrument took the data.)
#NPOINTS     : 4096     Number of data points in the spectrum (This can be zero for configuration only files)
#NCOLUMNS    : 2     Number of data columns in the spectrum (This can be zero for configuration only files)
#XUNITS      : eV
#YUNITS      : COUNTS
#DATATYPE    : YY
#XPERCHAN    : 7.862, 7.881   eV per channel (separate by commas if more than one detector)
#OFFSET      : 18.5, -22.4         eV of first channel  (separate by commas if more than one detector
#SIGNALTYPE  : XRF
#YP_TEMP     : 2.428
#LIVETIME    : 8.58143, 8.57525   seconds (separate by commas if more than one detector)
#REALTIME    : 10, 10.0   seconds (separate by commas if more than one detector)
#SPECTRUM    : start of spectrum data
0, 0
0, 0
0, 0
0, 0
0, 0
0, 0
0, 0
0, 0
0, 0
2, 0
5, 4
53, 36
43, 57
6, 3
3, 0
103, 90
392, 458
99, 94
6, 9
0, 1
3, 1
5, 4
0, 2
12, 7
67, 25
68, 32
129, 18
157, 19
14, 7
2, 3
2, 0
1, 2
4, 6
8, 18
12, 9
4, 4
3, 3
1, 4
1, 4
1, 7
11, 9
50, 7
102, 12
61, 10
8, 8
5, 10
4, 7
2, 6
4, 10
16, 18
11, 8
7, 8
30, 12
71, 71
76, 118
26, 109
33, 106
456, 589
2104, 2384
1529, 1328
194, 148
17, 13
18, 19
109, 130
342, 351
228, 190
27, 20
5, 10
13, 20
8, 3
7, 5
5, 3
2, 5
4, 6
4, 0
8, 5
4, 4
3, 7
4, 1
2, 5
7, 6
3, 5
4, 1
12, 4
16, 3
17, 2
9, 6
2, 8
0, 2
1, 2
3, 4
5, 2
8, 1
3, 1
7, 3
2, 2
2, 2
7, 6
3, 3
0, 1
2, 2
1, 3
3, 3
1, 4
1, 1
3, 3
1, 7
0, 5
0, 2
1, 3
0, 4
2, 5
0, 5
2, 3
4, 2
1, 3
3, 3
5, 3
1, 0
0, 0
2, 3
3, 1
4, 3
3, 4
4, 2
2, 1
1, 0
2, 1
0, 0
1, 0
0, 1
0, 1
2, 4
1, 1
0, 1
1, 0
0, 0
0, 0
0, 1
1, 2
0, 0
1, 0
1, 1
0, 0
1, 0
1, 0
0, 0
0, 1
1, 0
1, 1
1, 4
0, 0
0, 0
0, 0
1, 0
0, 0
0, 0
0, 0
0, 0
0, 0
0, 0
0, 0
0, 0
0, 0
1, 1
0, 0
0, 0
1, 0
0, 0
0, 1
0, 2
0, 1
0, 0
1, 0
0, 0
0, 0
0, 0
0, 0
0, 0
0, 0
0, 0
1, 0
0, 0
0, 0
0, 0
0, 0
0, 0
0, 0
0, 0
0, 1
0, 0
0, 0
0, 0
0, 0
0, 0
0, 0
0, 0
0, 0
0, 0
0, 0
0, 0
0, 0
0, 0
0, 0
0, 0
0, 0
0, 0
0, 0
0, 0
0, 0
0, 0
0, 0
0, 0
0, 0
0, 0
0, 0
0, 0
0, 0
0, 0
0, 0
0, 0
0, 0
0, 0
0, 0
0, 0
0, 0
0, 0
0, 0
0, 0
0, 0
0, 0
0, 0
0, 0
0, 0
0, 0
0, 0
0, 0
0, 0
0, 0
0, 0
0, 0
0, 0
0, 0
0, 0
0, 0
0, 0
0, 0
0, 0
0, 0
0, 0
0, 0
0, 0
0, 0
0, 0
0, 0
0, 0
0, 0
0, 0
0, 0
0, 0
0, 0
0, 0
0, 0
0, 0
0, 0
0, 0
0, 0
0, 0
0, 0
0, 0
0, 0
0, 0
0, 0
0, 0
0, 0
0, 0
0, 0
0, 0
0, 0
0, 0
0, 0
0, 0
0, 0
0, 0
0, 0
0, 0
0, 0
0, 0
0, 0
0, 0
0, 0
0, 0
0, 0
0, 0
#ENDOFDATA     end of spectrum data