File: host_upload/06-09-2024/ps_0852/dump3/ps__0852shot_2327.msa
#FORMAT      : EMSA/MAS spectral data file
#VERSION     : TC202v2.0 PIXL
#TITLE       : N/A
#DATE        :       Date in the format DD-MMM-YYYY, for example 07-JUL-2010
#TIME        :             The time of day at which the spectrum was recorded, in 24-hour format
#OWNER       : PIXL Flight Model       (PIXL will use this to indicate which instrument took the data.)
#NPOINTS     : 4096     Number of data points in the spectrum (This can be zero for configuration only files)
#NCOLUMNS    : 2     Number of data columns in the spectrum (This can be zero for configuration only files)
#XUNITS      : eV
#YUNITS      : COUNTS
#DATATYPE    : YY
#XPERCHAN    : 7.862, 7.881   eV per channel (separate by commas if more than one detector)
#OFFSET      : 18.5, -22.4         eV of first channel  (separate by commas if more than one detector
#SIGNALTYPE  : XRF
#YP_TEMP     : 2.332
#LIVETIME    : 8.57899, 8.5589   seconds (separate by commas if more than one detector)
#REALTIME    : 10, 10.0   seconds (separate by commas if more than one detector)
#SPECTRUM    : start of spectrum data
0, 0
0, 0
0, 0
0, 0
0, 0
0, 0
0, 0
0, 1
0, 1
1, 1
2, 1
48, 37
67, 55
9, 4
5, 4
104, 95
470, 449
118, 98
7, 5
2, 2
1, 1
6, 1
1, 3
6, 6
35, 14
29, 31
22, 19
9, 8
6, 5
4, 2
4, 1
0, 3
9, 3
24, 19
24, 10
7, 4
5, 5
4, 10
3, 7
4, 6
2, 4
12, 7
13, 16
11, 12
5, 11
5, 7
7, 13
7, 15
2, 11
20, 5
28, 20
24, 22
11, 29
52, 54
68, 52
27, 16
29, 37
474, 618
2173, 2256
1590, 1350
169, 150
15, 19
23, 18
101, 116
383, 329
226, 160
43, 12
10, 7
16, 13
7, 8
3, 2
2, 5
2, 4
3, 11
7, 6
7, 9
4, 3
2, 3
6, 1
4, 7
7, 3
8, 2
1, 5
6, 17
4, 18
0, 5
5, 5
3, 4
4, 6
6, 4
1, 4
0, 1
0, 3
1, 5
1, 0
5, 2
4, 2
2, 2
2, 2
5, 0
6, 2
2, 4
3, 4
2, 2
2, 2
0, 2
0, 2
3, 3
2, 2
0, 1
4, 3
2, 1
1, 4
4, 2
3, 1
3, 4
7, 7
7, 7
4, 1
0, 1
1, 0
1, 1
2, 4
2, 2
2, 1
0, 1
1, 3
0, 1
2, 0
5, 1
1, 3
1, 1
0, 0
1, 1
1, 1
0, 0
0, 0
1, 1
0, 2
0, 0
0, 0
0, 1
0, 0
1, 0
0, 0
2, 0
0, 0
1, 0
0, 0
1, 1
0, 0
1, 0
0, 0
0, 0
0, 0
1, 0
0, 0
0, 0
1, 0
0, 0
1, 2
0, 0
0, 0
1, 0
0, 0
0, 0
1, 0
0, 0
0, 0
1, 0
1, 1
0, 0
0, 1
0, 0
0, 0
1, 0
0, 0
1, 0
0, 0
1, 0
0, 1
0, 0
0, 0
1, 1
0, 0
0, 0
0, 0
0, 0
0, 0
0, 0
0, 0
0, 0
0, 1
0, 0
0, 0
1, 0
0, 0
0, 0
0, 0
0, 0
0, 0
0, 0
0, 0
0, 0
0, 0
0, 0
0, 0
0, 0
0, 0
0, 0
0, 0
0, 0
0, 0
0, 0
0, 0
0, 0
0, 0
0, 0
0, 0
0, 0
0, 0
0, 0
0, 0
0, 0
0, 0
0, 0
0, 0
0, 0
0, 0
0, 0
0, 0
0, 0
0, 0
0, 0
0, 0
0, 0
0, 0
0, 0
0, 0
0, 0
0, 0
0, 0
0, 0
0, 0
0, 0
0, 0
0, 0
0, 0
0, 0
0, 0
0, 0
0, 0
0, 0
0, 0
0, 0
0, 0
0, 0
0, 0
0, 0
0, 0
0, 0
0, 0
0, 0
0, 0
0, 0
0, 0
0, 0
0, 0
0, 0
0, 0
0, 0
0, 0
0, 0
0, 0
0, 0
0, 0
0, 0
0, 0
0, 0
0, 0
0, 0
0, 0
0, 0
0, 0
0, 0
0, 0
0, 0
0, 0
0, 0
0, 0
0, 0
0, 0
0, 0
0, 0
#ENDOFDATA     end of spectrum data