File: host_upload/06-09-2024/ps_0852/dump3/ps__0852shot_2465.msa
#FORMAT      : EMSA/MAS spectral data file
#VERSION     : TC202v2.0 PIXL
#TITLE       : N/A
#DATE        :       Date in the format DD-MMM-YYYY, for example 07-JUL-2010
#TIME        :             The time of day at which the spectrum was recorded, in 24-hour format
#OWNER       : PIXL Flight Model       (PIXL will use this to indicate which instrument took the data.)
#NPOINTS     : 4096     Number of data points in the spectrum (This can be zero for configuration only files)
#NCOLUMNS    : 2     Number of data columns in the spectrum (This can be zero for configuration only files)
#XUNITS      : eV
#YUNITS      : COUNTS
#DATATYPE    : YY
#XPERCHAN    : 7.862, 7.881   eV per channel (separate by commas if more than one detector)
#OFFSET      : 18.5, -22.4         eV of first channel  (separate by commas if more than one detector
#SIGNALTYPE  : XRF
#YP_TEMP     : 1.979
#LIVETIME    : 8.52379, 8.50248   seconds (separate by commas if more than one detector)
#REALTIME    : 10, 10.0   seconds (separate by commas if more than one detector)
#SPECTRUM    : start of spectrum data
0, 0
0, 0
0, 0
0, 0
0, 0
0, 0
0, 0
0, 0
2, 2
5, 2
3, 3
36, 48
63, 54
1, 0
4, 3
82, 57
275, 261
56, 75
10, 5
7, 7
83, 97
553, 628
237, 203
51, 57
67, 104
61, 55
34, 32
19, 17
4, 8
2, 7
12, 10
7, 7
5, 5
33, 42
51, 74
8, 6
8, 16
13, 20
38, 5
19, 5
11, 16
13, 6
13, 13
12, 9
4, 7
6, 12
10, 10
7, 9
14, 12
12, 39
25, 41
23, 26
11, 17
37, 40
52, 32
23, 20
30, 33
442, 571
1958, 2149
1448, 1244
175, 111
17, 15
17, 20
84, 117
294, 307
205, 200
35, 24
7, 6
10, 18
16, 14
15, 14
6, 6
6, 5
6, 5
7, 5
6, 10
9, 6
4, 4
4, 3
4, 6
5, 5
9, 8
4, 2
4, 9
6, 10
1, 5
5, 6
9, 3
5, 3
2, 7
2, 7
8, 7
7, 3
4, 4
3, 1
3, 5
5, 3
1, 4
1, 4
5, 1
3, 2
6, 3
3, 1
1, 0
1, 3
1, 2
2, 0
2, 3
3, 3
2, 1
4, 0
1, 2
1, 2
1, 2
0, 3
3, 6
4, 4
5, 6
0, 0
1, 3
0, 4
2, 1
3, 3
1, 5
3, 1
5, 0
2, 2
2, 1
0, 0
0, 1
1, 2
0, 0
1, 4
1, 1
0, 0
0, 2
0, 1
1, 4
1, 1
2, 0
1, 2
0, 1
0, 0
1, 2
1, 1
0, 1
0, 0
1, 0
0, 0
0, 1
2, 1
1, 0
0, 0
0, 0
0, 1
1, 0
0, 0
0, 0
0, 0
0, 1
1, 0
0, 0
0, 0
0, 0
0, 0
0, 0
1, 0
1, 0
0, 2
0, 1
0, 0
1, 0
1, 0
0, 0
0, 0
1, 0
0, 0
0, 0
1, 0
0, 0
0, 0
0, 0
0, 1
1, 0
0, 0
1, 0
0, 0
0, 0
0, 0
0, 0
0, 1
0, 0
0, 0
0, 0
0, 0
0, 0
0, 0
0, 1
0, 0
0, 0
0, 0
0, 0
0, 0
0, 0
0, 0
0, 0
0, 0
0, 0
0, 0
0, 0
0, 0
0, 0
0, 0
0, 0
0, 0
0, 0
0, 0
0, 0
0, 0
0, 0
0, 0
0, 0
0, 0
0, 0
0, 0
0, 0
0, 0
0, 0
0, 0
0, 0
0, 0
0, 0
0, 0
0, 0
0, 0
0, 0
0, 0
0, 0
0, 0
0, 0
0, 0
0, 0
0, 0
0, 0
0, 0
0, 0
0, 0
0, 0
0, 0
0, 0
0, 0
0, 0
0, 0
0, 0
0, 0
0, 0
0, 0
0, 0
0, 0
0, 0
0, 0
0, 0
0, 0
0, 0
0, 0
0, 0
0, 0
0, 0
0, 0
0, 0
0, 0
0, 0
0, 0
0, 0
0, 0
0, 0
0, 0
0, 0
0, 0
0, 0
0, 0
0, 0
0, 0
0, 0
0, 0
0, 0
0, 0
0, 0
0, 0
0, 0
0, 0
0, 0
0, 0
0, 0
#ENDOFDATA     end of spectrum data