File: host_upload/06-09-2024/ps_0852/dump3/ps__0852shot_2418.msa
#FORMAT      : EMSA/MAS spectral data file
#VERSION     : TC202v2.0 PIXL
#TITLE       : N/A
#DATE        :       Date in the format DD-MMM-YYYY, for example 07-JUL-2010
#TIME        :             The time of day at which the spectrum was recorded, in 24-hour format
#OWNER       : PIXL Flight Model       (PIXL will use this to indicate which instrument took the data.)
#NPOINTS     : 4096     Number of data points in the spectrum (This can be zero for configuration only files)
#NCOLUMNS    : 2     Number of data columns in the spectrum (This can be zero for configuration only files)
#XUNITS      : eV
#YUNITS      : COUNTS
#DATATYPE    : YY
#XPERCHAN    : 7.862, 7.881   eV per channel (separate by commas if more than one detector)
#OFFSET      : 18.5, -22.4         eV of first channel  (separate by commas if more than one detector
#SIGNALTYPE  : XRF
#YP_TEMP     : 2.428
#LIVETIME    : 8.58189, 8.57189   seconds (separate by commas if more than one detector)
#REALTIME    : 10, 10.0   seconds (separate by commas if more than one detector)
#SPECTRUM    : start of spectrum data
0, 0
0, 0
0, 0
0, 0
0, 0
0, 0
0, 1
0, 2
0, 0
3, 0
1, 3
52, 48
60, 84
7, 3
5, 2
110, 88
452, 421
112, 100
4, 2
1, 2
0, 1
0, 2
3, 0
5, 3
25, 20
33, 18
26, 12
23, 9
9, 3
0, 2
2, 0
1, 1
0, 3
9, 15
17, 12
3, 3
8, 4
7, 3
9, 4
55, 1
105, 8
20, 7
10, 19
7, 9
3, 4
3, 8
4, 6
5, 15
6, 10
24, 26
21, 21
41, 9
77, 9
157, 37
111, 65
25, 17
28, 45
446, 593
2183, 2327
1502, 1426
188, 158
16, 32
17, 32
101, 124
341, 384
246, 200
26, 16
11, 8
6, 16
8, 7
2, 3
2, 5
1, 2
3, 3
3, 4
6, 9
10, 11
6, 17
12, 22
9, 8
15, 11
3, 26
3, 7
1, 4
3, 2
7, 2
1, 3
3, 3
2, 0
0, 5
3, 3
7, 5
1, 10
7, 18
3, 10
2, 5
3, 5
1, 1
2, 6
1, 2
5, 3
2, 0
3, 3
2, 1
3, 4
4, 1
3, 2
5, 1
6, 2
1, 2
1, 3
5, 2
1, 5
0, 5
2, 1
7, 1
5, 6
5, 3
2, 2
3, 1
2, 3
2, 4
3, 3
0, 1
0, 1
1, 1
0, 1
0, 1
2, 0
1, 0
0, 3
0, 0
1, 0
1, 0
0, 1
0, 0
1, 0
0, 1
0, 1
0, 1
1, 1
2, 0
0, 0
1, 1
0, 3
1, 1
0, 0
0, 0
0, 0
0, 0
0, 1
0, 2
1, 0
0, 0
2, 2
0, 0
2, 2
0, 0
0, 0
0, 1
0, 0
0, 0
0, 0
1, 0
0, 0
0, 0
0, 1
0, 0
0, 0
0, 0
1, 2
0, 0
0, 2
0, 0
0, 0
0, 0
0, 0
1, 1
0, 0
0, 0
0, 0
0, 0
0, 0
1, 0
0, 0
0, 0
0, 0
0, 1
0, 0
0, 0
0, 0
0, 0
0, 0
0, 0
0, 0
0, 0
0, 0
0, 0
0, 0
0, 0
0, 0
1, 0
0, 0
0, 0
0, 0
0, 0
0, 0
0, 0
0, 0
0, 0
0, 0
0, 0
0, 0
0, 0
0, 0
0, 0
0, 0
0, 0
0, 0
0, 0
0, 0
0, 0
0, 0
0, 0
0, 0
0, 0
0, 0
0, 0
0, 0
0, 0
0, 0
0, 0
0, 0
0, 0
0, 0
0, 0
0, 0
0, 0
0, 0
0, 0
0, 0
0, 0
0, 0
0, 0
0, 0
0, 0
0, 0
0, 0
0, 0
0, 0
0, 0
0, 0
0, 0
0, 0
0, 0
0, 0
0, 0
0, 0
0, 0
0, 0
0, 0
0, 0
0, 0
0, 0
0, 0
0, 0
0, 0
0, 0
0, 0
0, 0
0, 0
0, 0
0, 0
0, 0
0, 0
0, 0
0, 0
0, 0
0, 0
0, 0
0, 0
0, 0
0, 0
0, 0
0, 0
0, 0
0, 0
0, 0
0, 0
0, 0
0, 0
0, 0
0, 0
0, 0
#ENDOFDATA     end of spectrum data