File: host_upload/06-09-2024/ps_0852/dump3/ps__0852shot_2309.msa
#FORMAT      : EMSA/MAS spectral data file
#VERSION     : TC202v2.0 PIXL
#TITLE       : N/A
#DATE        :       Date in the format DD-MMM-YYYY, for example 07-JUL-2010
#TIME        :             The time of day at which the spectrum was recorded, in 24-hour format
#OWNER       : PIXL Flight Model       (PIXL will use this to indicate which instrument took the data.)
#NPOINTS     : 4096     Number of data points in the spectrum (This can be zero for configuration only files)
#NCOLUMNS    : 2     Number of data columns in the spectrum (This can be zero for configuration only files)
#XUNITS      : eV
#YUNITS      : COUNTS
#DATATYPE    : YY
#XPERCHAN    : 7.862, 7.881   eV per channel (separate by commas if more than one detector)
#OFFSET      : 18.5, -22.4         eV of first channel  (separate by commas if more than one detector
#SIGNALTYPE  : XRF
#YP_TEMP     : 2.3
#LIVETIME    : 8.55904, 8.5526   seconds (separate by commas if more than one detector)
#REALTIME    : 10, 10.0   seconds (separate by commas if more than one detector)
#SPECTRUM    : start of spectrum data
0, 0
0, 0
0, 0
0, 0
0, 0
0, 0
0, 0
0, 0
0, 1
2, 2
6, 2
28, 24
49, 34
8, 5
6, 5
81, 79
416, 308
97, 73
12, 7
6, 5
42, 25
147, 130
57, 45
25, 20
91, 95
97, 89
36, 28
14, 28
10, 6
0, 4
4, 6
6, 1
13, 7
147, 119
185, 147
32, 24
24, 23
31, 22
6, 4
6, 7
11, 8
11, 14
18, 15
42, 9
73, 8
35, 10
13, 17
5, 17
6, 5
27, 16
20, 15
11, 4
18, 8
47, 47
67, 56
22, 27
30, 46
513, 543
2321, 2042
1683, 1228
213, 143
19, 29
29, 33
130, 126
360, 281
220, 160
42, 18
17, 7
19, 15
10, 5
2, 3
7, 2
7, 5
13, 4
6, 8
5, 7
5, 5
4, 9
4, 3
7, 2
7, 1
7, 4
8, 4
2, 1
4, 2
7, 4
6, 1
5, 2
7, 1
7, 10
3, 18
1, 14
9, 11
3, 5
1, 1
2, 2
4, 1
7, 3
1, 1
1, 2
0, 1
3, 2
3, 4
1, 1
0, 0
5, 2
3, 2
4, 0
1, 2
3, 1
6, 3
3, 2
3, 1
4, 0
2, 6
6, 2
6, 3
3, 3
2, 0
1, 2
1, 1
1, 1
2, 2
1, 0
3, 0
1, 1
1, 2
1, 0
1, 1
2, 0
2, 0
1, 1
0, 2
2, 2
1, 3
1, 1
1, 0
0, 1
1, 0
1, 0
1, 1
0, 0
1, 0
0, 3
0, 0
0, 0
1, 1
0, 1
0, 0
0, 1
0, 0
0, 0
1, 1
0, 0
0, 0
0, 1
0, 0
0, 1
0, 0
1, 0
0, 0
0, 1
0, 0
2, 0
0, 0
0, 0
1, 0
0, 0
1, 1
1, 0
0, 0
0, 0
0, 0
0, 0
1, 0
0, 0
0, 0
0, 0
0, 0
0, 0
0, 0
0, 1
0, 0
0, 0
0, 0
0, 1
0, 0
0, 0
0, 0
0, 1
0, 0
0, 0
0, 0
0, 0
0, 0
0, 0
0, 0
0, 0
0, 0
0, 0
0, 0
0, 0
0, 0
0, 0
0, 0
0, 0
0, 0
1, 0
0, 0
0, 0
0, 0
0, 0
0, 0
0, 0
0, 0
0, 0
0, 0
0, 0
0, 0
0, 0
0, 0
0, 0
0, 0
0, 0
0, 0
0, 0
0, 0
0, 0
0, 0
0, 0
0, 0
0, 0
0, 0
0, 0
0, 0
0, 0
0, 0
0, 0
0, 0
0, 0
0, 0
0, 0
0, 0
0, 0
0, 0
0, 0
0, 0
0, 0
0, 0
0, 0
0, 0
0, 0
0, 0
0, 0
0, 0
0, 0
0, 0
0, 0
0, 0
0, 0
0, 0
0, 0
0, 0
0, 0
0, 0
0, 0
0, 0
0, 0
0, 0
0, 0
0, 0
0, 0
0, 0
0, 0
0, 0
0, 0
0, 0
0, 0
0, 0
0, 0
0, 0
0, 0
0, 0
0, 0
0, 0
0, 0
0, 0
0, 0
0, 0
0, 0
0, 0
0, 0
0, 0
0, 0
#ENDOFDATA     end of spectrum data