File: host_upload/06-09-2024/ps_0852/dump3/ps__0852shot_2104.msa
#FORMAT      : EMSA/MAS spectral data file
#VERSION     : TC202v2.0 PIXL
#TITLE       : N/A
#DATE        :       Date in the format DD-MMM-YYYY, for example 07-JUL-2010
#TIME        :             The time of day at which the spectrum was recorded, in 24-hour format
#OWNER       : PIXL Flight Model       (PIXL will use this to indicate which instrument took the data.)
#NPOINTS     : 4096     Number of data points in the spectrum (This can be zero for configuration only files)
#NCOLUMNS    : 2     Number of data columns in the spectrum (This can be zero for configuration only files)
#XUNITS      : eV
#YUNITS      : COUNTS
#DATATYPE    : YY
#XPERCHAN    : 7.862, 7.881   eV per channel (separate by commas if more than one detector)
#OFFSET      : 18.5, -22.4         eV of first channel  (separate by commas if more than one detector
#SIGNALTYPE  : XRF
#YP_TEMP     : 2.396
#LIVETIME    : 8.56407, 8.53196   seconds (separate by commas if more than one detector)
#REALTIME    : 10, 10.0   seconds (separate by commas if more than one detector)
#SPECTRUM    : start of spectrum data
0, 0
0, 0
0, 0
0, 0
0, 0
0, 0
0, 0
0, 0
0, 0
0, 0
2, 5
36, 38
60, 70
4, 1
1, 3
102, 96
456, 456
114, 122
11, 3
1, 1
1, 4
7, 10
12, 5
31, 8
39, 16
39, 24
21, 17
20, 9
5, 5
2, 5
3, 1
1, 2
7, 4
37, 46
63, 61
11, 15
11, 9
8, 8
5, 2
0, 4
4, 10
7, 14
16, 13
14, 7
11, 9
18, 9
25, 9
9, 8
11, 8
53, 27
90, 15
35, 8
16, 10
39, 39
92, 44
50, 25
34, 31
464, 590
1956, 2051
1468, 1264
182, 136
11, 19
18, 22
85, 136
310, 335
230, 194
31, 28
13, 7
15, 13
16, 10
9, 6
1, 11
6, 6
4, 0
6, 6
5, 9
3, 6
4, 5
9, 3
5, 4
13, 8
18, 7
8, 5
5, 9
4, 4
5, 4
2, 6
1, 8
3, 2
3, 6
4, 4
4, 6
2, 1
2, 6
2, 4
2, 5
5, 5
3, 4
3, 4
6, 1
9, 3
3, 5
1, 2
0, 3
3, 2
4, 3
3, 3
1, 2
1, 1
2, 1
1, 0
6, 0
4, 3
2, 0
1, 2
2, 4
7, 2
4, 2
3, 1
0, 3
1, 0
1, 1
4, 0
1, 1
0, 0
0, 1
0, 0
0, 1
0, 2
0, 0
0, 0
0, 0
2, 0
0, 2
1, 0
1, 0
0, 0
1, 1
0, 1
0, 0
0, 2
0, 1
1, 0
2, 0
0, 0
0, 0
0, 2
1, 0
0, 0
0, 0
0, 0
0, 1
0, 0
0, 1
0, 0
0, 1
0, 0
0, 0
0, 0
0, 0
0, 0
2, 0
0, 0
0, 1
0, 0
0, 0
0, 1
0, 0
0, 0
1, 0
0, 0
0, 0
2, 0
0, 0
0, 0
0, 0
0, 0
0, 0
0, 0
0, 0
0, 0
0, 1
0, 0
0, 0
0, 0
0, 0
0, 0
0, 0
0, 0
0, 0
1, 0
0, 0
0, 0
0, 0
1, 0
0, 0
0, 0
0, 0
0, 0
0, 0
0, 0
0, 0
0, 0
1, 0
0, 0
0, 0
0, 0
0, 0
0, 0
0, 0
0, 0
0, 0
0, 0
0, 0
0, 0
0, 0
0, 0
0, 0
0, 0
0, 0
0, 0
0, 0
0, 0
0, 0
0, 0
0, 0
0, 0
0, 0
0, 0
0, 0
0, 0
0, 0
0, 0
0, 0
0, 0
0, 0
0, 0
0, 0
0, 0
0, 0
0, 0
0, 0
0, 0
0, 0
0, 0
0, 0
0, 0
0, 0
0, 0
0, 0
0, 0
0, 0
0, 0
0, 0
0, 0
0, 0
0, 0
0, 0
0, 0
0, 0
0, 0
0, 0
0, 0
0, 0
0, 0
0, 0
0, 0
0, 0
0, 0
0, 0
0, 0
0, 0
0, 0
0, 0
0, 0
0, 0
0, 0
0, 0
0, 0
0, 0
0, 0
0, 0
0, 0
0, 0
0, 0
0, 0
0, 0
0, 0
0, 0
0, 0
0, 0
0, 0
0, 0
0, 0
#ENDOFDATA     end of spectrum data