File: host_upload/06-09-2024/ps_0852/dump3/ps__0852shot_2393.msa
#FORMAT      : EMSA/MAS spectral data file
#VERSION     : TC202v2.0 PIXL
#TITLE       : N/A
#DATE        :       Date in the format DD-MMM-YYYY, for example 07-JUL-2010
#TIME        :             The time of day at which the spectrum was recorded, in 24-hour format
#OWNER       : PIXL Flight Model       (PIXL will use this to indicate which instrument took the data.)
#NPOINTS     : 4096     Number of data points in the spectrum (This can be zero for configuration only files)
#NCOLUMNS    : 2     Number of data columns in the spectrum (This can be zero for configuration only files)
#XUNITS      : eV
#YUNITS      : COUNTS
#DATATYPE    : YY
#XPERCHAN    : 7.862, 7.881   eV per channel (separate by commas if more than one detector)
#OFFSET      : 18.5, -22.4         eV of first channel  (separate by commas if more than one detector
#SIGNALTYPE  : XRF
#YP_TEMP     : 2.267
#LIVETIME    : 8.56884, 8.57375   seconds (separate by commas if more than one detector)
#REALTIME    : 10, 10.0   seconds (separate by commas if more than one detector)
#SPECTRUM    : start of spectrum data
0, 0
0, 0
0, 0
0, 0
0, 0
0, 0
0, 0
0, 0
0, 1
2, 1
2, 2
62, 42
75, 71
6, 5
2, 4
95, 95
482, 424
110, 105
11, 4
3, 0
1, 0
7, 3
2, 1
4, 8
41, 38
33, 28
27, 18
16, 12
2, 6
4, 0
3, 3
2, 4
2, 1
11, 9
20, 16
7, 2
3, 3
4, 3
6, 1
2, 5
4, 3
12, 4
16, 16
12, 11
6, 9
7, 40
2, 38
6, 18
5, 6
16, 14
18, 6
10, 8
6, 8
38, 38
54, 49
22, 18
30, 50
529, 609
2291, 2361
1669, 1363
224, 167
18, 19
28, 16
99, 119
390, 385
258, 196
45, 20
4, 28
18, 44
9, 42
8, 14
10, 0
13, 3
5, 4
5, 4
4, 8
6, 13
3, 4
8, 3
18, 5
9, 2
10, 1
3, 8
1, 4
4, 2
6, 4
1, 8
3, 13
10, 12
17, 3
6, 6
2, 4
0, 5
2, 2
2, 3
5, 4
2, 3
2, 1
6, 3
1, 2
1, 3
4, 3
2, 2
3, 4
3, 2
3, 4
5, 5
1, 3
3, 2
0, 1
2, 3
3, 1
1, 3
4, 2
1, 1
2, 3
2, 3
5, 4
1, 2
4, 2
1, 3
2, 3
3, 0
1, 3
4, 0
3, 1
1, 0
1, 1
0, 0
2, 0
1, 0
1, 0
0, 1
2, 0
1, 0
1, 1
0, 2
0, 0
0, 1
0, 0
1, 1
0, 0
0, 1
1, 0
1, 0
1, 0
1, 0
1, 0
0, 1
1, 0
1, 0
0, 0
0, 0
0, 0
0, 0
1, 0
0, 0
1, 0
0, 1
0, 0
0, 0
0, 0
0, 0
0, 0
0, 0
0, 0
0, 0
1, 0
0, 3
0, 1
0, 0
0, 0
0, 1
0, 0
0, 0
0, 0
0, 0
0, 0
0, 0
0, 0
0, 0
1, 2
0, 1
1, 0
0, 0
0, 0
0, 0
0, 0
0, 0
0, 0
0, 0
0, 0
0, 0
0, 0
0, 0
0, 0
0, 0
0, 0
0, 0
0, 0
0, 0
0, 0
0, 0
0, 0
0, 0
0, 0
0, 0
0, 0
0, 0
0, 0
0, 0
0, 0
0, 0
0, 0
0, 0
0, 0
0, 0
0, 0
0, 0
0, 0
0, 0
0, 0
0, 0
0, 0
0, 0
0, 0
0, 0
0, 0
0, 0
0, 0
0, 0
0, 0
0, 0
0, 0
0, 0
0, 0
0, 0
0, 0
0, 0
0, 0
0, 0
0, 0
0, 0
0, 0
0, 0
0, 0
0, 0
0, 0
0, 0
0, 0
0, 0
0, 0
0, 0
0, 0
0, 0
0, 0
0, 0
0, 0
0, 0
0, 0
0, 0
0, 0
0, 0
0, 0
0, 0
0, 0
0, 0
0, 0
0, 0
0, 0
0, 0
0, 0
0, 0
0, 0
0, 0
0, 0
0, 0
0, 0
0, 0
0, 0
0, 0
0, 0
0, 0
0, 0
0, 0
0, 0
0, 0
0, 0
0, 0
0, 0
0, 0
0, 0
0, 0
0, 0
#ENDOFDATA     end of spectrum data