File: host_upload/06-09-2024/ps_0852/dump3/ps__0852shot_2569.msa
#FORMAT      : EMSA/MAS spectral data file
#VERSION     : TC202v2.0 PIXL
#TITLE       : N/A
#DATE        :       Date in the format DD-MMM-YYYY, for example 07-JUL-2010
#TIME        :             The time of day at which the spectrum was recorded, in 24-hour format
#OWNER       : PIXL Flight Model       (PIXL will use this to indicate which instrument took the data.)
#NPOINTS     : 4096     Number of data points in the spectrum (This can be zero for configuration only files)
#NCOLUMNS    : 2     Number of data columns in the spectrum (This can be zero for configuration only files)
#XUNITS      : eV
#YUNITS      : COUNTS
#DATATYPE    : YY
#XPERCHAN    : 7.862, 7.881   eV per channel (separate by commas if more than one detector)
#OFFSET      : 18.5, -22.4         eV of first channel  (separate by commas if more than one detector
#SIGNALTYPE  : XRF
#YP_TEMP     : 2.46
#LIVETIME    : 8.54763, 8.54899   seconds (separate by commas if more than one detector)
#REALTIME    : 10, 10.0   seconds (separate by commas if more than one detector)
#SPECTRUM    : start of spectrum data
0, 0
0, 0
0, 0
0, 0
0, 0
0, 0
0, 0
1, 0
1, 0
3, 1
1, 3
56, 44
60, 50
9, 4
8, 5
90, 85
494, 396
92, 85
2, 2
2, 1
2, 0
10, 8
3, 4
10, 9
52, 20
47, 35
31, 21
18, 9
6, 2
3, 2
3, 4
1, 8
3, 5
6, 8
15, 15
2, 2
3, 2
6, 3
8, 4
36, 1
42, 2
16, 6
10, 18
12, 24
5, 15
6, 20
4, 5
8, 7
7, 10
12, 9
16, 8
25, 10
46, 8
100, 28
88, 47
21, 17
28, 39
493, 550
2409, 2187
1735, 1295
165, 130
22, 15
17, 34
100, 111
406, 331
266, 178
42, 20
10, 8
12, 15
12, 6
7, 2
7, 3
6, 3
3, 4
4, 7
2, 6
6, 11
7, 14
12, 6
14, 7
18, 7
4, 12
4, 11
6, 6
3, 5
4, 6
5, 19
3, 18
7, 13
15, 5
5, 3
2, 3
4, 6
7, 5
6, 6
2, 4
5, 3
4, 3
4, 1
2, 2
2, 3
6, 0
5, 1
3, 3
4, 0
1, 3
3, 1
1, 1
2, 3
1, 7
1, 1
4, 3
2, 3
2, 0
1, 2
6, 1
9, 3
9, 1
5, 2
2, 0
2, 2
2, 0
1, 1
3, 0
1, 0
0, 0
1, 0
1, 2
0, 0
1, 0
2, 0
0, 1
2, 0
2, 0
0, 0
1, 3
2, 2
2, 3
0, 2
0, 0
2, 0
0, 0
0, 0
0, 1
1, 0
0, 1
1, 1
0, 0
0, 0
0, 0
1, 1
2, 1
0, 2
0, 1
0, 1
0, 0
0, 0
0, 1
1, 0
1, 1
1, 1
0, 1
0, 0
0, 0
0, 0
0, 1
0, 0
1, 0
0, 0
1, 1
0, 0
0, 0
0, 0
0, 0
0, 0
1, 0
1, 0
0, 0
0, 0
0, 1
0, 0
0, 1
0, 0
2, 0
0, 0
0, 0
0, 0
0, 0
0, 0
0, 0
0, 1
0, 0
0, 0
0, 0
1, 0
1, 0
0, 0
0, 1
0, 0
0, 0
0, 0
0, 0
0, 0
0, 1
0, 0
0, 0
0, 0
0, 0
0, 0
0, 0
0, 0
0, 0
0, 0
0, 0
0, 0
0, 0
0, 0
0, 0
0, 0
0, 0
0, 0
0, 0
0, 0
0, 0
0, 0
0, 0
0, 0
0, 0
0, 0
0, 0
0, 0
0, 0
0, 0
0, 0
0, 0
0, 0
0, 0
0, 0
0, 0
0, 0
0, 0
0, 0
0, 0
0, 0
0, 0
0, 0
0, 0
0, 0
0, 0
0, 0
0, 0
0, 0
0, 0
0, 0
0, 0
0, 0
0, 0
0, 0
0, 0
0, 0
0, 0
0, 0
0, 0
0, 0
0, 0
0, 0
0, 0
0, 0
0, 0
0, 0
0, 0
0, 0
0, 0
0, 0
0, 0
0, 0
0, 0
0, 0
0, 0
0, 0
0, 0
0, 0
0, 0
0, 0
0, 0
0, 0
0, 0
0, 0
0, 0
0, 0
0, 0
0, 0
0, 0
0, 0
#ENDOFDATA     end of spectrum data