File: host_upload/06-09-2024/ps_0852/dump3/ps__0852shot_2318.msa
#FORMAT      : EMSA/MAS spectral data file
#VERSION     : TC202v2.0 PIXL
#TITLE       : N/A
#DATE        :       Date in the format DD-MMM-YYYY, for example 07-JUL-2010
#TIME        :             The time of day at which the spectrum was recorded, in 24-hour format
#OWNER       : PIXL Flight Model       (PIXL will use this to indicate which instrument took the data.)
#NPOINTS     : 4096     Number of data points in the spectrum (This can be zero for configuration only files)
#NCOLUMNS    : 2     Number of data columns in the spectrum (This can be zero for configuration only files)
#XUNITS      : eV
#YUNITS      : COUNTS
#DATATYPE    : YY
#XPERCHAN    : 7.862, 7.881   eV per channel (separate by commas if more than one detector)
#OFFSET      : 18.5, -22.4         eV of first channel  (separate by commas if more than one detector
#SIGNALTYPE  : XRF
#YP_TEMP     : 2.332
#LIVETIME    : 8.55424, 8.54517   seconds (separate by commas if more than one detector)
#REALTIME    : 10, 10.0   seconds (separate by commas if more than one detector)
#SPECTRUM    : start of spectrum data
0, 0
0, 0
0, 0
0, 0
0, 0
0, 0
0, 0
0, 0
0, 4
3, 0
2, 4
23, 29
38, 32
7, 4
6, 5
102, 100
416, 445
100, 97
5, 12
4, 9
14, 17
109, 102
49, 34
24, 35
87, 82
67, 77
31, 41
18, 14
10, 8
4, 5
5, 8
6, 8
10, 14
209, 248
371, 390
54, 69
33, 58
57, 56
8, 6
6, 2
6, 9
31, 20
18, 15
31, 7
58, 6
10, 9
5, 10
5, 6
13, 18
41, 49
48, 28
17, 9
9, 12
42, 58
80, 56
34, 25
22, 31
377, 503
1695, 1921
1224, 1120
145, 104
8, 9
31, 19
87, 107
270, 288
201, 154
29, 24
11, 5
11, 13
4, 5
3, 4
7, 4
0, 6
3, 7
6, 2
8, 7
7, 5
7, 5
9, 3
7, 7
6, 8
4, 4
7, 3
11, 8
5, 3
5, 3
3, 4
3, 5
7, 5
6, 6
3, 4
8, 8
2, 3
2, 3
3, 6
5, 4
4, 4
1, 3
3, 1
2, 5
2, 4
4, 4
1, 2
4, 3
2, 5
2, 3
8, 2
0, 2
1, 1
2, 3
1, 1
2, 3
2, 2
3, 0
0, 1
2, 3
3, 1
2, 2
3, 0
2, 0
1, 1
0, 3
0, 3
1, 3
1, 2
1, 1
0, 0
2, 0
0, 1
2, 2
0, 0
0, 0
1, 0
1, 1
2, 1
0, 2
1, 0
0, 1
2, 0
1, 1
0, 1
4, 0
0, 0
0, 1
0, 0
0, 1
0, 1
0, 0
1, 1
1, 0
1, 1
0, 0
1, 1
0, 1
0, 1
0, 0
0, 0
0, 0
0, 0
0, 0
0, 0
0, 0
0, 1
0, 0
0, 1
0, 0
0, 0
0, 1
0, 0
2, 0
0, 0
0, 1
0, 0
0, 0
0, 0
0, 0
0, 0
0, 0
0, 0
0, 0
0, 0
0, 0
1, 0
0, 0
0, 0
0, 0
0, 0
1, 0
0, 0
0, 0
1, 0
0, 0
0, 0
0, 0
0, 0
1, 0
0, 0
0, 0
0, 1
0, 0
0, 0
0, 0
0, 0
0, 0
0, 0
0, 0
0, 0
0, 0
0, 0
0, 0
0, 0
0, 0
0, 1
0, 0
0, 0
0, 0
0, 0
0, 0
0, 0
0, 0
0, 0
0, 0
0, 0
0, 0
0, 1
0, 0
0, 0
0, 0
0, 0
0, 0
0, 0
0, 0
0, 0
0, 0
0, 0
0, 0
0, 0
0, 0
0, 0
0, 0
0, 0
0, 0
0, 0
0, 0
0, 0
0, 0
0, 0
0, 0
0, 0
0, 0
0, 0
0, 0
0, 0
0, 0
0, 0
0, 0
0, 0
0, 0
0, 0
0, 0
0, 0
0, 0
0, 0
0, 0
0, 0
0, 0
0, 0
0, 0
0, 0
0, 0
0, 0
0, 0
0, 0
0, 0
0, 0
0, 0
0, 0
0, 0
0, 0
0, 0
0, 0
0, 0
0, 0
0, 0
0, 0
0, 0
0, 0
0, 0
0, 0
0, 0
0, 0
0, 0
0, 0
0, 0
#ENDOFDATA     end of spectrum data