File: host_upload/06-09-2024/ps_0852/dump3/ps__0852shot_2238.msa
#FORMAT      : EMSA/MAS spectral data file
#VERSION     : TC202v2.0 PIXL
#TITLE       : N/A
#DATE        :       Date in the format DD-MMM-YYYY, for example 07-JUL-2010
#TIME        :             The time of day at which the spectrum was recorded, in 24-hour format
#OWNER       : PIXL Flight Model       (PIXL will use this to indicate which instrument took the data.)
#NPOINTS     : 4096     Number of data points in the spectrum (This can be zero for configuration only files)
#NCOLUMNS    : 2     Number of data columns in the spectrum (This can be zero for configuration only files)
#XUNITS      : eV
#YUNITS      : COUNTS
#DATATYPE    : YY
#XPERCHAN    : 7.862, 7.881   eV per channel (separate by commas if more than one detector)
#OFFSET      : 18.5, -22.4         eV of first channel  (separate by commas if more than one detector
#SIGNALTYPE  : XRF
#YP_TEMP     : 2.267
#LIVETIME    : 8.56707, 8.51638   seconds (separate by commas if more than one detector)
#REALTIME    : 10, 10.0   seconds (separate by commas if more than one detector)
#SPECTRUM    : start of spectrum data
0, 0
0, 0
0, 0
0, 0
0, 0
0, 0
0, 0
0, 0
1, 1
4, 1
4, 4
53, 38
63, 78
8, 9
8, 12
98, 89
459, 416
113, 95
4, 3
1, 0
1, 0
4, 5
3, 2
6, 0
67, 21
110, 22
30, 16
13, 13
2, 7
3, 8
1, 5
4, 0
1, 9
12, 24
25, 20
2, 7
6, 4
10, 1
13, 2
15, 0
19, 4
14, 9
20, 23
13, 26
9, 8
3, 8
5, 17
4, 18
6, 6
11, 26
8, 21
13, 13
19, 9
68, 53
73, 54
27, 21
26, 39
468, 617
2094, 2368
1558, 1349
195, 159
18, 18
26, 36
118, 124
350, 355
234, 203
33, 26
15, 5
13, 14
13, 13
7, 7
4, 3
1, 3
6, 5
5, 6
10, 8
4, 9
1, 11
6, 11
10, 8
6, 8
4, 9
3, 10
2, 6
2, 3
4, 7
3, 3
3, 0
1, 3
2, 2
2, 3
3, 5
6, 6
6, 9
4, 8
6, 1
5, 6
2, 4
1, 5
1, 4
2, 1
1, 2
2, 1
4, 3
3, 1
3, 5
5, 3
3, 3
4, 2
1, 3
1, 2
4, 2
4, 1
3, 4
0, 1
0, 3
3, 3
1, 3
4, 1
1, 2
3, 2
4, 3
2, 2
0, 2
2, 5
0, 1
2, 2
3, 0
1, 1
1, 2
1, 3
0, 1
2, 1
0, 0
2, 2
2, 2
1, 2
0, 2
0, 2
1, 2
0, 2
0, 1
0, 1
1, 1
1, 0
2, 1
1, 0
2, 1
0, 0
0, 1
1, 0
1, 0
0, 0
0, 0
0, 0
2, 0
0, 0
0, 0
0, 0
1, 0
1, 0
0, 0
1, 0
0, 0
0, 0
0, 0
1, 0
0, 0
0, 0
0, 1
0, 1
0, 1
0, 0
0, 0
0, 2
0, 0
0, 0
0, 0
1, 1
0, 0
0, 0
0, 1
0, 0
0, 0
1, 0
0, 1
0, 0
0, 0
0, 0
0, 0
0, 0
0, 0
0, 0
0, 0
0, 0
0, 0
0, 0
0, 0
0, 0
0, 0
0, 0
0, 0
0, 0
0, 0
0, 0
0, 0
1, 0
0, 0
0, 0
0, 0
0, 0
0, 0
0, 0
0, 0
0, 0
0, 0
0, 0
0, 0
0, 0
0, 0
0, 0
0, 0
0, 0
0, 0
0, 0
0, 0
0, 0
0, 0
0, 0
0, 0
0, 0
0, 0
0, 0
0, 0
0, 0
0, 0
0, 0
0, 0
0, 0
0, 0
0, 0
0, 0
0, 0
0, 0
0, 0
0, 0
0, 0
0, 0
0, 0
0, 0
0, 0
0, 0
0, 0
0, 0
0, 0
0, 0
0, 0
0, 0
0, 0
0, 0
0, 0
0, 0
0, 0
0, 0
0, 0
0, 0
0, 0
0, 0
0, 0
0, 0
0, 0
0, 0
0, 0
0, 0
0, 0
0, 0
0, 0
0, 0
0, 0
0, 0
0, 0
0, 0
0, 0
0, 0
0, 0
0, 0
0, 0
0, 0
0, 0
0, 0
0, 0
0, 0
0, 0
0, 0
#ENDOFDATA     end of spectrum data