File: host_upload/06-09-2024/ps_0852/dump3/ps__0852shot_2045.msa
#FORMAT      : EMSA/MAS spectral data file
#VERSION     : TC202v2.0 PIXL
#TITLE       : N/A
#DATE        :       Date in the format DD-MMM-YYYY, for example 07-JUL-2010
#TIME        :             The time of day at which the spectrum was recorded, in 24-hour format
#OWNER       : PIXL Flight Model       (PIXL will use this to indicate which instrument took the data.)
#NPOINTS     : 4096     Number of data points in the spectrum (This can be zero for configuration only files)
#NCOLUMNS    : 2     Number of data columns in the spectrum (This can be zero for configuration only files)
#XUNITS      : eV
#YUNITS      : COUNTS
#DATATYPE    : YY
#XPERCHAN    : 7.862, 7.881   eV per channel (separate by commas if more than one detector)
#OFFSET      : 18.5, -22.4         eV of first channel  (separate by commas if more than one detector
#SIGNALTYPE  : XRF
#YP_TEMP     : 2.46
#LIVETIME    : 8.56281, 8.56666   seconds (separate by commas if more than one detector)
#REALTIME    : 10, 10.0   seconds (separate by commas if more than one detector)
#SPECTRUM    : start of spectrum data
0, 0
0, 0
0, 0
0, 0
0, 0
0, 0
0, 0
0, 0
1, 0
1, 0
1, 3
69, 49
74, 69
4, 9
2, 5
91, 85
427, 369
112, 84
7, 8
0, 1
2, 1
5, 7
2, 17
9, 14
17, 16
25, 34
28, 13
23, 7
5, 3
3, 6
2, 4
5, 1
3, 4
17, 16
20, 14
4, 8
2, 22
4, 25
11, 6
14, 2
18, 4
8, 11
15, 18
14, 8
8, 27
5, 27
8, 9
8, 7
33, 7
89, 19
45, 8
12, 4
12, 19
39, 55
56, 57
23, 9
29, 33
437, 556
2237, 2294
1686, 1306
228, 150
19, 19
17, 26
82, 131
348, 336
233, 211
40, 111
12, 75
11, 27
13, 7
10, 5
8, 7
5, 4
4, 7
10, 12
6, 18
6, 5
13, 6
11, 7
5, 4
4, 3
3, 8
1, 2
6, 2
4, 3
6, 6
6, 6
10, 7
2, 8
3, 2
1, 3
4, 3
1, 3
1, 6
4, 5
5, 7
5, 2
7, 2
6, 2
2, 4
3, 5
3, 5
1, 5
1, 3
5, 8
4, 2
7, 2
2, 2
2, 2
1, 1
1, 1
2, 0
3, 1
3, 4
1, 1
4, 4
5, 1
3, 2
3, 0
4, 1
0, 1
0, 3
5, 2
2, 1
0, 3
0, 0
3, 1
1, 0
0, 3
0, 0
1, 2
3, 1
0, 0
1, 1
1, 1
0, 2
2, 0
1, 0
0, 1
0, 3
0, 1
0, 1
0, 1
1, 0
1, 0
1, 0
2, 0
1, 1
0, 0
1, 1
0, 1
1, 0
0, 0
0, 0
1, 0
1, 0
0, 0
0, 0
0, 0
0, 0
2, 0
0, 1
0, 0
0, 1
0, 0
0, 0
0, 1
1, 0
0, 0
0, 1
0, 1
0, 0
0, 0
1, 0
0, 0
0, 0
0, 0
0, 0
0, 0
0, 0
0, 0
0, 0
2, 0
0, 0
0, 1
0, 0
1, 1
0, 0
0, 0
0, 0
0, 0
0, 0
0, 0
0, 0
0, 0
0, 0
0, 0
0, 0
0, 0
0, 0
0, 1
0, 0
0, 0
0, 0
0, 0
0, 0
0, 0
0, 0
0, 0
0, 0
0, 0
0, 0
0, 0
0, 0
0, 0
0, 0
0, 0
0, 0
0, 0
0, 0
0, 0
0, 0
0, 0
0, 0
0, 0
0, 0
0, 0
0, 0
0, 0
0, 0
0, 0
0, 0
0, 0
0, 0
0, 0
0, 0
0, 0
0, 0
0, 0
0, 0
0, 0
0, 0
0, 0
0, 0
0, 0
0, 0
0, 0
0, 0
0, 0
0, 0
0, 0
0, 0
0, 0
0, 0
0, 0
0, 0
0, 0
0, 0
0, 0
0, 0
0, 0
0, 0
0, 0
0, 0
0, 0
0, 0
0, 0
0, 0
0, 0
0, 0
0, 0
0, 0
0, 0
0, 0
0, 0
0, 0
0, 0
0, 0
0, 0
0, 0
0, 0
0, 0
0, 0
0, 0
0, 0
0, 0
0, 0
0, 0
0, 0
0, 0
0, 0
0, 0
0, 0
0, 0
#ENDOFDATA     end of spectrum data