File: host_upload/06-09-2024/ps_0852/dump3/ps__0852shot_2561.msa
#FORMAT      : EMSA/MAS spectral data file
#VERSION     : TC202v2.0 PIXL
#TITLE       : N/A
#DATE        :       Date in the format DD-MMM-YYYY, for example 07-JUL-2010
#TIME        :             The time of day at which the spectrum was recorded, in 24-hour format
#OWNER       : PIXL Flight Model       (PIXL will use this to indicate which instrument took the data.)
#NPOINTS     : 4096     Number of data points in the spectrum (This can be zero for configuration only files)
#NCOLUMNS    : 2     Number of data columns in the spectrum (This can be zero for configuration only files)
#XUNITS      : eV
#YUNITS      : COUNTS
#DATATYPE    : YY
#XPERCHAN    : 7.862, 7.881   eV per channel (separate by commas if more than one detector)
#OFFSET      : 18.5, -22.4         eV of first channel  (separate by commas if more than one detector
#SIGNALTYPE  : XRF
#YP_TEMP     : 2.075
#LIVETIME    : 8.54363, 8.56216   seconds (separate by commas if more than one detector)
#REALTIME    : 10, 10.0   seconds (separate by commas if more than one detector)
#SPECTRUM    : start of spectrum data
0, 0
0, 0
0, 0
0, 0
0, 0
0, 0
0, 0
0, 0
1, 0
1, 1
1, 3
34, 50
47, 50
4, 5
2, 7
96, 100
422, 481
109, 117
9, 8
5, 4
1, 4
3, 6
3, 16
11, 39
54, 52
40, 48
27, 17
13, 12
6, 6
4, 3
4, 2
3, 2
9, 2
12, 9
16, 14
4, 6
2, 2
5, 6
6, 4
3, 6
5, 7
8, 13
11, 15
30, 7
21, 7
8, 22
6, 16
4, 8
9, 9
15, 18
32, 10
19, 9
7, 6
32, 40
68, 61
22, 27
27, 64
429, 667
2182, 2412
1554, 1474
191, 143
23, 18
25, 23
96, 142
318, 389
224, 190
29, 17
8, 10
12, 11
18, 9
5, 5
1, 2
1, 5
6, 8
4, 8
2, 5
2, 5
3, 4
4, 4
3, 3
4, 7
8, 13
20, 6
15, 5
8, 3
3, 7
2, 3
8, 4
12, 6
7, 6
4, 4
3, 3
2, 5
2, 4
1, 4
3, 3
3, 2
1, 1
9, 1
6, 2
4, 2
3, 1
2, 4
2, 0
3, 2
1, 2
1, 2
5, 1
3, 4
3, 2
2, 2
1, 3
2, 2
3, 1
3, 1
2, 2
4, 6
6, 3
2, 3
1, 0
3, 1
0, 3
1, 0
1, 4
1, 0
3, 1
0, 1
0, 1
2, 1
1, 1
0, 1
1, 1
0, 1
0, 1
0, 1
0, 2
1, 0
1, 1
1, 2
0, 1
0, 2
0, 2
2, 0
1, 1
0, 1
0, 3
1, 0
1, 0
0, 0
1, 0
0, 0
0, 0
1, 0
1, 0
0, 0
1, 1
0, 1
1, 0
0, 0
0, 0
0, 0
0, 2
0, 0
0, 0
0, 0
0, 0
0, 0
0, 0
0, 0
0, 0
0, 0
1, 0
0, 0
0, 0
0, 1
0, 0
0, 0
0, 0
1, 0
0, 0
0, 0
0, 1
0, 0
1, 0
1, 0
0, 0
0, 0
0, 0
0, 0
0, 0
1, 0
0, 0
0, 0
0, 0
0, 0
0, 0
0, 0
0, 0
0, 0
0, 0
0, 0
0, 0
0, 0
0, 0
0, 0
0, 0
0, 0
0, 0
0, 0
0, 0
0, 0
0, 0
0, 0
0, 0
0, 0
0, 0
0, 0
0, 0
0, 0
0, 0
0, 0
0, 0
0, 0
0, 0
0, 0
0, 0
0, 0
0, 0
0, 0
0, 0
0, 0
0, 0
0, 0
0, 0
0, 0
0, 0
0, 0
0, 0
0, 0
0, 0
0, 0
0, 0
0, 0
0, 0
0, 0
0, 0
0, 0
0, 0
0, 0
0, 0
0, 0
0, 0
0, 0
0, 0
0, 0
0, 0
0, 0
0, 0
0, 0
0, 0
0, 0
0, 0
0, 0
0, 0
0, 0
0, 0
0, 0
0, 0
0, 0
0, 0
0, 0
0, 0
0, 0
0, 0
0, 0
0, 0
0, 0
0, 0
0, 0
0, 0
0, 0
0, 0
0, 0
0, 0
0, 0
0, 0
0, 0
0, 0
0, 0
0, 0
0, 0
0, 0
0, 0
0, 0
#ENDOFDATA     end of spectrum data