File: host_upload/06-09-2024/ps_0852/dump3/ps__0852shot_2227.msa
#FORMAT      : EMSA/MAS spectral data file
#VERSION     : TC202v2.0 PIXL
#TITLE       : N/A
#DATE        :       Date in the format DD-MMM-YYYY, for example 07-JUL-2010
#TIME        :             The time of day at which the spectrum was recorded, in 24-hour format
#OWNER       : PIXL Flight Model       (PIXL will use this to indicate which instrument took the data.)
#NPOINTS     : 4096     Number of data points in the spectrum (This can be zero for configuration only files)
#NCOLUMNS    : 2     Number of data columns in the spectrum (This can be zero for configuration only files)
#XUNITS      : eV
#YUNITS      : COUNTS
#DATATYPE    : YY
#XPERCHAN    : 7.862, 7.881   eV per channel (separate by commas if more than one detector)
#OFFSET      : 18.5, -22.4         eV of first channel  (separate by commas if more than one detector
#SIGNALTYPE  : XRF
#YP_TEMP     : 2.267
#LIVETIME    : 8.5422, 8.52919   seconds (separate by commas if more than one detector)
#REALTIME    : 10, 10.0   seconds (separate by commas if more than one detector)
#SPECTRUM    : start of spectrum data
0, 0
0, 0
0, 0
0, 0
0, 0
0, 0
0, 0
1, 0
1, 11
1, 52
2, 10
38, 57
68, 72
3, 6
4, 11
101, 86
456, 448
120, 108
4, 8
0, 5
3, 0
2, 9
7, 14
5, 75
23, 1680
26, 2442
16, 273
18, 15
1, 5
1, 1
3, 3
1, 1
4, 3
10, 8
13, 9
7, 3
37, 1
49, 9
22, 62
12, 113
7, 25
10, 14
14, 9
20, 8
19, 17
11, 11
4, 6
1, 5
5, 24
9, 32
13, 20
18, 12
15, 22
34, 58
52, 68
18, 25
31, 33
456, 629
2139, 2379
1588, 1425
194, 135
18, 17
18, 48
92, 141
325, 326
228, 196
35, 46
7, 58
23, 24
9, 9
1, 4
3, 3
5, 6
7, 38
3, 38
7, 21
2, 11
8, 8
5, 7
4, 1
2, 6
3, 3
6, 8
3, 12
1, 3
3, 5
3, 3
7, 3
8, 6
8, 5
2, 8
1, 2
3, 4
3, 7
11, 4
13, 3
8, 2
5, 4
6, 7
3, 4
1, 7
0, 0
2, 2
2, 4
4, 0
1, 7
2, 5
1, 2
4, 1
3, 2
4, 3
2, 3
1, 5
1, 5
0, 2
3, 4
4, 3
4, 5
1, 0
1, 3
2, 1
1, 4
1, 6
3, 4
0, 1
0, 0
0, 1
0, 1
1, 2
0, 2
0, 2
0, 1
1, 0
0, 2
1, 1
1, 2
2, 3
0, 1
0, 1
0, 2
0, 1
2, 0
0, 1
0, 0
0, 3
0, 0
0, 1
2, 0
0, 0
0, 0
1, 0
1, 0
1, 0
0, 1
0, 1
0, 1
0, 1
1, 1
0, 0
0, 0
0, 0
0, 0
0, 0
0, 0
0, 0
0, 0
1, 0
1, 0
0, 1
0, 1
0, 1
0, 0
0, 0
0, 0
0, 1
0, 0
0, 0
0, 0
0, 0
1, 0
0, 0
0, 0
0, 0
0, 0
0, 0
0, 0
0, 0
0, 0
0, 0
0, 0
0, 0
0, 0
0, 0
0, 0
0, 0
0, 0
0, 0
0, 0
0, 0
0, 0
0, 0
0, 0
0, 0
0, 0
0, 0
0, 0
0, 0
0, 0
0, 0
0, 0
0, 0
0, 0
0, 0
0, 0
0, 0
0, 0
0, 0
0, 0
0, 0
0, 0
0, 0
0, 0
0, 0
0, 0
0, 0
0, 0
0, 0
0, 0
0, 0
0, 0
0, 0
0, 0
1, 0
0, 0
0, 0
0, 0
0, 0
0, 0
0, 0
0, 0
0, 0
0, 0
0, 0
0, 0
0, 0
0, 0
0, 0
0, 0
0, 0
0, 0
0, 0
0, 0
0, 0
0, 0
0, 0
0, 0
0, 0
0, 0
0, 0
0, 0
0, 0
0, 0
0, 0
0, 0
0, 0
0, 0
0, 0
0, 0
0, 0
0, 0
0, 0
0, 0
0, 0
0, 0
0, 0
0, 0
0, 0
0, 0
0, 0
0, 0
0, 0
0, 0
0, 0
0, 0
0, 0
0, 0
0, 0
0, 0
0, 0
0, 0
0, 0
0, 0
0, 0
0, 0
#ENDOFDATA     end of spectrum data