File: host_upload/06-09-2024/ps_0852/dump3/ps__0852shot_2071.msa
#FORMAT      : EMSA/MAS spectral data file
#VERSION     : TC202v2.0 PIXL
#TITLE       : N/A
#DATE        :       Date in the format DD-MMM-YYYY, for example 07-JUL-2010
#TIME        :             The time of day at which the spectrum was recorded, in 24-hour format
#OWNER       : PIXL Flight Model       (PIXL will use this to indicate which instrument took the data.)
#NPOINTS     : 4096     Number of data points in the spectrum (This can be zero for configuration only files)
#NCOLUMNS    : 2     Number of data columns in the spectrum (This can be zero for configuration only files)
#XUNITS      : eV
#YUNITS      : COUNTS
#DATATYPE    : YY
#XPERCHAN    : 7.862, 7.881   eV per channel (separate by commas if more than one detector)
#OFFSET      : 18.5, -22.4         eV of first channel  (separate by commas if more than one detector
#SIGNALTYPE  : XRF
#YP_TEMP     : 2.428
#LIVETIME    : 8.56215, 8.35712   seconds (separate by commas if more than one detector)
#REALTIME    : 10, 10.0   seconds (separate by commas if more than one detector)
#SPECTRUM    : start of spectrum data
0, 0
0, 0
0, 0
0, 0
0, 0
0, 0
0, 0
2, 0
1, 1
1, 0
1, 5
39, 35
73, 48
5, 5
4, 3
93, 104
435, 391
108, 87
1, 3
0, 0
9, 1
7, 2
4, 4
4, 11
50, 42
49, 52
44, 25
14, 20
4, 8
1, 2
4, 3
1, 3
2, 7
17, 12
29, 18
7, 7
11, 13
9, 6
7, 16
7, 11
7, 9
14, 26
14, 20
15, 16
9, 6
13, 14
7, 5
7, 5
9, 17
19, 15
22, 14
18, 13
15, 12
50, 42
67, 57
30, 31
37, 43
523, 593
2243, 2198
1739, 1409
240, 114
10, 24
22, 37
124, 123
353, 345
245, 192
39, 19
14, 5
17, 14
9, 4
8, 3
2, 3
4, 6
1, 4
5, 15
7, 12
6, 7
5, 5
7, 10
7, 5
9, 5
1, 8
4, 4
8, 5
5, 8
5, 4
1, 2
5, 4
7, 6
4, 2
4, 3
1, 2
1, 4
5, 5
4, 3
5, 4
2, 1
2, 3
4, 3
4, 5
4, 2
6, 3
3, 5
2, 1
0, 1
2, 3
2, 2
4, 0
0, 2
2, 0
0, 0
1, 2
1, 0
4, 1
4, 1
0, 1
6, 1
2, 2
1, 1
1, 2
3, 2
4, 3
4, 0
1, 0
1, 1
0, 1
0, 0
1, 1
0, 1
1, 0
0, 2
2, 2
2, 0
0, 2
2, 1
0, 0
1, 0
1, 0
0, 0
0, 0
1, 0
1, 0
0, 0
1, 1
0, 0
0, 1
0, 1
2, 1
1, 1
0, 0
0, 0
1, 0
1, 1
0, 0
1, 0
0, 0
0, 0
1, 0
0, 0
0, 0
0, 1
1, 0
0, 1
0, 1
1, 0
1, 0
0, 0
0, 0
0, 0
0, 1
0, 0
1, 1
0, 1
0, 0
0, 0
0, 0
0, 0
0, 0
0, 0
0, 0
0, 0
0, 0
0, 0
0, 0
1, 0
0, 0
0, 0
0, 0
0, 0
0, 1
0, 0
0, 0
0, 0
1, 0
0, 0
0, 0
0, 0
0, 0
0, 0
0, 0
0, 0
0, 0
0, 0
0, 0
0, 0
0, 0
0, 0
0, 0
0, 1
0, 0
0, 0
0, 0
0, 0
0, 0
0, 0
0, 0
0, 0
0, 0
0, 0
0, 0
0, 0
0, 0
0, 0
0, 0
0, 0
0, 0
0, 0
0, 0
0, 0
0, 0
0, 0
0, 0
0, 0
0, 0
0, 0
0, 0
0, 0
0, 0
0, 0
0, 0
0, 0
0, 0
0, 0
0, 0
0, 0
0, 0
0, 0
0, 0
0, 0
0, 0
0, 0
0, 0
0, 0
0, 0
0, 0
0, 0
0, 0
0, 0
0, 0
0, 0
0, 0
0, 0
0, 0
0, 0
0, 0
0, 0
0, 0
0, 0
0, 0
0, 0
0, 0
0, 0
0, 0
0, 0
0, 0
0, 0
0, 0
0, 0
0, 0
0, 0
0, 0
0, 0
0, 0
0, 0
0, 0
0, 0
0, 0
0, 0
0, 0
0, 0
0, 0
0, 0
0, 0
0, 0
#ENDOFDATA     end of spectrum data