File: host_upload/06-09-2024/ps_0852/dump3/ps__0852shot_2097.msa
#FORMAT      : EMSA/MAS spectral data file
#VERSION     : TC202v2.0 PIXL
#TITLE       : N/A
#DATE        :       Date in the format DD-MMM-YYYY, for example 07-JUL-2010
#TIME        :             The time of day at which the spectrum was recorded, in 24-hour format
#OWNER       : PIXL Flight Model       (PIXL will use this to indicate which instrument took the data.)
#NPOINTS     : 4096     Number of data points in the spectrum (This can be zero for configuration only files)
#NCOLUMNS    : 2     Number of data columns in the spectrum (This can be zero for configuration only files)
#XUNITS      : eV
#YUNITS      : COUNTS
#DATATYPE    : YY
#XPERCHAN    : 7.862, 7.881   eV per channel (separate by commas if more than one detector)
#OFFSET      : 18.5, -22.4         eV of first channel  (separate by commas if more than one detector
#SIGNALTYPE  : XRF
#YP_TEMP     : 2.524
#LIVETIME    : 8.5608, 8.35233   seconds (separate by commas if more than one detector)
#REALTIME    : 10, 10.0   seconds (separate by commas if more than one detector)
#SPECTRUM    : start of spectrum data
0, 0
0, 0
0, 0
0, 0
0, 0
0, 0
0, 0
0, 1
0, 1
2, 4
1, 3
32, 32
49, 33
4, 2
5, 5
82, 71
350, 364
86, 84
11, 6
4, 1
40, 53
269, 317
114, 135
21, 29
45, 58
41, 31
32, 21
18, 12
6, 5
5, 2
1, 1
0, 4
3, 5
8, 10
13, 12
4, 10
1, 8
3, 6
4, 2
4, 5
38, 4
106, 4
59, 17
41, 16
22, 5
6, 9
7, 6
4, 6
7, 3
6, 18
7, 14
5, 8
12, 25
34, 81
40, 73
18, 16
39, 36
427, 599
2017, 2179
1477, 1299
211, 139
15, 21
20, 20
105, 123
326, 335
202, 196
31, 21
4, 9
12, 14
26, 6
10, 7
1, 4
4, 4
4, 3
7, 7
5, 7
8, 3
6, 2
1, 7
3, 3
2, 4
6, 4
3, 3
13, 2
18, 4
17, 10
7, 8
2, 3
3, 0
1, 4
3, 0
4, 3
3, 4
1, 4
3, 1
3, 4
4, 3
5, 3
4, 2
1, 2
3, 1
4, 1
3, 1
5, 1
2, 4
4, 5
2, 4
3, 8
0, 2
5, 2
3, 0
0, 1
2, 2
4, 2
2, 1
2, 2
4, 7
3, 2
3, 2
2, 5
1, 3
1, 1
0, 2
2, 1
0, 2
0, 0
0, 0
0, 0
1, 1
0, 2
1, 0
2, 0
0, 0
0, 0
2, 1
0, 0
1, 2
0, 4
0, 1
0, 0
0, 0
0, 1
1, 0
1, 1
1, 0
3, 2
0, 0
0, 1
0, 1
0, 0
0, 1
0, 1
0, 0
0, 0
0, 1
0, 0
0, 0
0, 1
1, 1
0, 1
1, 0
1, 0
0, 0
0, 0
0, 0
0, 0
0, 0
0, 1
0, 0
0, 0
0, 0
0, 0
1, 0
0, 0
0, 0
0, 0
0, 1
0, 0
0, 0
0, 0
0, 0
0, 1
0, 0
0, 0
0, 0
0, 0
0, 0
0, 0
0, 1
0, 0
0, 0
0, 0
0, 0
1, 0
0, 0
0, 0
0, 0
0, 0
0, 0
0, 0
0, 0
0, 0
0, 0
0, 0
0, 0
0, 0
0, 0
0, 0
0, 0
0, 0
0, 0
0, 0
0, 0
0, 0
0, 0
0, 0
0, 0
0, 0
0, 0
0, 0
0, 0
0, 0
0, 0
0, 0
0, 0
0, 0
0, 0
0, 0
0, 0
0, 0
0, 0
0, 0
0, 0
0, 0
0, 0
0, 0
0, 0
0, 0
0, 0
0, 0
0, 0
0, 0
0, 0
0, 0
0, 0
0, 0
0, 0
0, 0
0, 0
0, 0
0, 0
0, 0
0, 0
0, 0
0, 0
0, 0
0, 0
0, 0
0, 0
0, 0
0, 0
0, 0
0, 0
0, 0
0, 0
0, 0
0, 0
0, 0
0, 0
0, 0
0, 0
0, 0
0, 0
0, 0
0, 0
0, 0
0, 0
0, 0
0, 0
0, 0
0, 0
0, 0
0, 0
0, 0
0, 0
0, 0
0, 0
0, 0
0, 0
0, 0
0, 0
0, 0
0, 0
0, 0
#ENDOFDATA     end of spectrum data