File: host_upload/06-09-2024/ps_0852/dump3/ps__0852shot_2152.msa
#FORMAT      : EMSA/MAS spectral data file
#VERSION     : TC202v2.0 PIXL
#TITLE       : N/A
#DATE        :       Date in the format DD-MMM-YYYY, for example 07-JUL-2010
#TIME        :             The time of day at which the spectrum was recorded, in 24-hour format
#OWNER       : PIXL Flight Model       (PIXL will use this to indicate which instrument took the data.)
#NPOINTS     : 4096     Number of data points in the spectrum (This can be zero for configuration only files)
#NCOLUMNS    : 2     Number of data columns in the spectrum (This can be zero for configuration only files)
#XUNITS      : eV
#YUNITS      : COUNTS
#DATATYPE    : YY
#XPERCHAN    : 7.862, 7.881   eV per channel (separate by commas if more than one detector)
#OFFSET      : 18.5, -22.4         eV of first channel  (separate by commas if more than one detector
#SIGNALTYPE  : XRF
#YP_TEMP     : 2.556
#LIVETIME    : 8.5693, 8.54591   seconds (separate by commas if more than one detector)
#REALTIME    : 10, 10.0   seconds (separate by commas if more than one detector)
#SPECTRUM    : start of spectrum data
0, 0
0, 0
0, 0
0, 0
0, 0
0, 0
0, 0
0, 0
1, 1
2, 0
5, 1
40, 32
64, 38
5, 2
2, 8
105, 98
439, 392
114, 91
6, 3
2, 0
1, 2
14, 11
6, 14
10, 20
32, 41
59, 37
27, 21
14, 12
5, 4
3, 1
1, 4
7, 1
2, 1
24, 13
16, 18
2, 9
7, 7
3, 9
7, 22
9, 14
6, 3
9, 15
23, 15
16, 12
8, 7
7, 6
13, 9
17, 2
13, 12
47, 9
60, 12
30, 9
19, 12
35, 43
57, 56
28, 37
44, 40
486, 586
2219, 2049
1768, 1253
247, 147
51, 28
48, 14
103, 137
322, 366
264, 200
40, 19
10, 9
9, 10
8, 3
8, 7
0, 2
4, 3
6, 5
7, 4
3, 8
6, 12
4, 6
8, 11
7, 1
2, 4
5, 3
3, 4
4, 10
4, 7
1, 13
3, 6
2, 3
5, 3
3, 2
7, 5
6, 2
5, 2
6, 4
10, 0
3, 1
1, 3
3, 1
2, 1
1, 3
3, 5
2, 2
3, 2
3, 2
2, 3
0, 4
1, 3
3, 3
5, 4
3, 2
2, 2
0, 2
2, 1
3, 1
1, 3
2, 6
4, 2
3, 3
2, 0
4, 1
3, 1
1, 1
5, 2
2, 3
2, 3
1, 2
3, 1
1, 4
4, 0
1, 1
0, 0
2, 1
1, 1
0, 1
0, 1
2, 2
1, 2
0, 0
1, 4
1, 0
3, 0
1, 1
0, 1
0, 0
0, 0
0, 0
0, 0
0, 1
1, 2
1, 0
1, 1
1, 1
0, 0
1, 0
0, 0
0, 0
1, 0
0, 1
0, 0
0, 0
0, 1
1, 0
0, 1
0, 0
2, 0
0, 0
0, 0
0, 1
0, 0
0, 1
0, 1
0, 1
0, 0
0, 0
0, 0
0, 1
1, 0
0, 0
0, 0
0, 0
0, 0
0, 1
0, 0
2, 0
0, 0
0, 0
0, 0
0, 0
0, 0
0, 0
0, 0
0, 0
0, 0
1, 0
0, 0
0, 0
0, 0
0, 0
0, 0
0, 0
0, 0
0, 0
0, 0
0, 0
0, 0
0, 0
0, 0
0, 0
0, 0
0, 0
0, 0
0, 0
0, 0
0, 0
0, 0
0, 0
0, 0
0, 0
0, 0
0, 0
0, 0
0, 0
0, 0
0, 1
0, 0
0, 0
0, 0
0, 0
0, 0
0, 0
0, 0
0, 0
0, 0
0, 0
0, 0
0, 0
0, 0
0, 0
0, 0
0, 0
0, 0
0, 0
0, 0
0, 0
0, 0
0, 0
0, 0
0, 0
0, 0
0, 0
0, 0
0, 0
0, 0
0, 0
0, 0
0, 0
0, 0
0, 0
0, 0
0, 0
0, 0
0, 0
0, 0
0, 0
0, 0
0, 0
0, 0
0, 0
0, 0
0, 0
0, 0
0, 0
0, 0
0, 0
0, 0
0, 0
0, 0
0, 0
0, 0
0, 0
0, 0
0, 0
0, 0
0, 0
0, 0
0, 0
0, 0
0, 0
0, 0
0, 0
0, 0
0, 0
0, 0
0, 0
#ENDOFDATA     end of spectrum data