File: host_upload/06-09-2024/ps_0852/dump3/ps__0852shot_2348.msa
#FORMAT      : EMSA/MAS spectral data file
#VERSION     : TC202v2.0 PIXL
#TITLE       : N/A
#DATE        :       Date in the format DD-MMM-YYYY, for example 07-JUL-2010
#TIME        :             The time of day at which the spectrum was recorded, in 24-hour format
#OWNER       : PIXL Flight Model       (PIXL will use this to indicate which instrument took the data.)
#NPOINTS     : 4096     Number of data points in the spectrum (This can be zero for configuration only files)
#NCOLUMNS    : 2     Number of data columns in the spectrum (This can be zero for configuration only files)
#XUNITS      : eV
#YUNITS      : COUNTS
#DATATYPE    : YY
#XPERCHAN    : 7.862, 7.881   eV per channel (separate by commas if more than one detector)
#OFFSET      : 18.5, -22.4         eV of first channel  (separate by commas if more than one detector
#SIGNALTYPE  : XRF
#YP_TEMP     : 2.46
#LIVETIME    : 8.55963, 8.56994   seconds (separate by commas if more than one detector)
#REALTIME    : 10, 10.0   seconds (separate by commas if more than one detector)
#SPECTRUM    : start of spectrum data
0, 0
0, 0
0, 0
0, 0
0, 0
0, 0
0, 0
0, 0
0, 0
1, 2
0, 7
38, 44
65, 58
16, 6
5, 6
83, 90
420, 452
104, 82
4, 5
1, 2
1, 7
15, 16
9, 10
5, 6
26, 20
23, 29
12, 18
9, 6
1, 4
3, 1
3, 1
3, 2
3, 1
8, 12
16, 22
4, 9
4, 12
3, 4
5, 3
3, 5
7, 3
13, 8
6, 9
5, 6
5, 6
9, 8
3, 14
7, 10
8, 6
46, 17
84, 17
33, 7
14, 7
51, 43
97, 56
47, 25
26, 35
482, 558
2173, 2244
1595, 1296
192, 136
18, 11
19, 25
135, 113
359, 375
214, 179
27, 12
5, 3
15, 13
5, 8
9, 4
2, 12
7, 5
7, 4
11, 5
4, 1
8, 2
10, 6
12, 3
13, 2
9, 1
20, 4
7, 6
8, 8
5, 5
7, 6
10, 11
6, 3
3, 8
2, 3
3, 1
1, 4
3, 6
2, 2
4, 1
2, 1
4, 6
3, 4
5, 2
6, 4
10, 4
2, 2
4, 1
2, 0
2, 1
1, 3
4, 3
3, 4
0, 2
0, 1
2, 1
3, 1
0, 3
1, 1
2, 3
2, 4
7, 3
3, 3
1, 1
0, 3
3, 1
2, 1
1, 3
3, 1
1, 2
2, 0
0, 2
1, 0
1, 0
1, 2
0, 0
0, 2
3, 2
2, 0
0, 0
1, 1
1, 0
3, 2
1, 0
1, 1
0, 0
1, 0
0, 0
0, 1
0, 0
2, 1
0, 0
0, 2
0, 1
0, 0
0, 0
0, 0
0, 0
1, 0
0, 0
0, 0
0, 0
0, 1
1, 0
2, 0
0, 0
0, 0
1, 1
0, 0
0, 1
0, 0
0, 0
0, 0
0, 1
1, 1
0, 0
0, 0
0, 0
1, 1
0, 1
0, 0
0, 0
0, 0
0, 0
0, 0
0, 0
0, 0
0, 1
0, 0
0, 0
2, 0
0, 0
0, 0
0, 0
0, 0
0, 0
0, 0
0, 0
0, 0
0, 0
0, 0
0, 0
0, 0
0, 0
0, 0
0, 0
0, 0
0, 0
0, 0
0, 0
0, 0
0, 1
0, 0
0, 0
0, 0
0, 0
0, 0
0, 0
0, 0
0, 0
0, 1
0, 0
0, 0
0, 0
0, 0
0, 0
0, 0
0, 0
0, 0
0, 0
0, 0
0, 0
0, 0
0, 0
0, 0
0, 0
0, 0
0, 0
0, 0
0, 0
0, 0
0, 0
0, 0
0, 0
0, 0
0, 0
0, 0
0, 0
0, 0
0, 0
0, 0
0, 0
0, 0
0, 0
0, 0
0, 0
0, 0
0, 0
0, 0
0, 0
0, 0
0, 0
0, 0
0, 0
0, 0
0, 0
0, 0
0, 0
0, 0
0, 0
0, 0
0, 0
0, 0
0, 0
0, 0
0, 0
0, 0
0, 0
0, 0
0, 0
0, 0
0, 0
0, 0
0, 0
0, 0
0, 0
0, 0
0, 0
0, 0
0, 0
0, 0
0, 0
0, 0
0, 0
0, 0
0, 0
0, 0
0, 0
0, 0
#ENDOFDATA     end of spectrum data