File: host_upload/06-09-2024/ps_0852/dump3/ps__0852shot_2002.msa
#FORMAT      : EMSA/MAS spectral data file
#VERSION     : TC202v2.0 PIXL
#TITLE       : N/A
#DATE        :       Date in the format DD-MMM-YYYY, for example 07-JUL-2010
#TIME        :             The time of day at which the spectrum was recorded, in 24-hour format
#OWNER       : PIXL Flight Model       (PIXL will use this to indicate which instrument took the data.)
#NPOINTS     : 4096     Number of data points in the spectrum (This can be zero for configuration only files)
#NCOLUMNS    : 2     Number of data columns in the spectrum (This can be zero for configuration only files)
#XUNITS      : eV
#YUNITS      : COUNTS
#DATATYPE    : YY
#XPERCHAN    : 7.862, 7.881   eV per channel (separate by commas if more than one detector)
#OFFSET      : 18.5, -22.4         eV of first channel  (separate by commas if more than one detector
#SIGNALTYPE  : XRF
#YP_TEMP     : 2.364
#LIVETIME    : 8.57503, 8.55323   seconds (separate by commas if more than one detector)
#REALTIME    : 10, 10.0   seconds (separate by commas if more than one detector)
#SPECTRUM    : start of spectrum data
0, 0
0, 0
0, 0
0, 0
0, 0
0, 0
0, 0
0, 0
2, 1
0, 1
1, 4
34, 52
58, 60
4, 3
5, 5
78, 90
374, 425
110, 100
1, 1
2, 0
2, 1
1, 7
0, 5
5, 3
20, 18
16, 36
20, 29
15, 12
7, 8
2, 9
3, 6
1, 4
2, 1
10, 13
17, 19
4, 3
5, 5
5, 7
3, 4
1, 3
3, 3
9, 10
12, 10
8, 43
7, 114
8, 61
22, 6
13, 4
11, 6
13, 14
14, 11
8, 13
12, 12
43, 55
43, 66
23, 13
42, 43
424, 614
1828, 2406
1299, 1403
176, 161
20, 20
16, 19
77, 134
305, 359
165, 229
26, 20
6, 9
11, 14
11, 3
9, 2
4, 4
2, 10
3, 26
4, 27
4, 6
3, 3
2, 4
2, 5
7, 4
3, 3
2, 6
1, 4
5, 3
5, 0
4, 0
5, 6
2, 3
5, 3
5, 3
2, 3
5, 4
2, 2
3, 13
3, 19
3, 6
1, 1
3, 1
4, 1
3, 2
2, 7
0, 3
1, 2
4, 1
5, 2
2, 2
3, 2
0, 1
1, 3
2, 6
3, 2
2, 1
3, 3
3, 2
0, 2
3, 3
3, 6
1, 2
1, 3
3, 1
2, 0
0, 3
2, 1
0, 1
1, 2
4, 2
2, 0
2, 3
0, 1
0, 0
2, 3
0, 2
0, 0
0, 1
0, 1
1, 1
1, 2
1, 1
0, 0
1, 0
1, 0
1, 0
0, 2
0, 0
0, 1
0, 2
0, 0
0, 0
0, 0
0, 2
0, 1
1, 0
0, 1
1, 1
0, 0
0, 0
0, 0
0, 0
0, 1
0, 0
0, 0
0, 0
0, 0
0, 0
0, 0
0, 0
0, 1
1, 0
0, 1
0, 0
0, 1
0, 0
0, 0
0, 0
0, 0
1, 0
1, 0
0, 0
1, 1
1, 1
0, 0
0, 0
0, 0
0, 1
0, 0
0, 0
0, 0
0, 0
0, 0
0, 0
0, 2
0, 0
0, 0
1, 0
0, 0
0, 0
0, 0
0, 0
0, 0
0, 0
0, 0
0, 0
0, 0
0, 0
0, 0
0, 0
0, 0
0, 0
0, 0
0, 0
0, 0
0, 0
0, 0
0, 0
0, 0
0, 0
0, 0
0, 0
0, 0
0, 0
0, 0
0, 0
0, 0
0, 0
0, 0
0, 0
0, 0
0, 0
0, 0
0, 0
0, 0
0, 0
0, 0
0, 0
0, 0
0, 0
0, 0
0, 0
0, 0
0, 0
0, 0
0, 0
0, 0
0, 0
0, 0
0, 0
0, 0
0, 0
0, 0
0, 0
0, 0
0, 0
0, 0
0, 0
0, 0
0, 0
0, 0
0, 0
0, 0
0, 0
0, 0
0, 0
0, 0
0, 0
0, 0
0, 0
0, 0
0, 0
0, 0
0, 0
0, 0
0, 0
0, 0
0, 0
0, 0
0, 0
0, 0
0, 0
0, 0
0, 0
0, 0
0, 0
0, 0
0, 0
0, 0
0, 0
0, 0
0, 0
0, 0
0, 0
0, 0
0, 0
0, 0
0, 0
#ENDOFDATA     end of spectrum data