File: host_upload/06-09-2024/ps_0852/dump3/ps__0852shot_2488.msa
#FORMAT      : EMSA/MAS spectral data file
#VERSION     : TC202v2.0 PIXL
#TITLE       : N/A
#DATE        :       Date in the format DD-MMM-YYYY, for example 07-JUL-2010
#TIME        :             The time of day at which the spectrum was recorded, in 24-hour format
#OWNER       : PIXL Flight Model       (PIXL will use this to indicate which instrument took the data.)
#NPOINTS     : 4096     Number of data points in the spectrum (This can be zero for configuration only files)
#NCOLUMNS    : 2     Number of data columns in the spectrum (This can be zero for configuration only files)
#XUNITS      : eV
#YUNITS      : COUNTS
#DATATYPE    : YY
#XPERCHAN    : 7.862, 7.881   eV per channel (separate by commas if more than one detector)
#OFFSET      : 18.5, -22.4         eV of first channel  (separate by commas if more than one detector
#SIGNALTYPE  : XRF
#YP_TEMP     : 2.46
#LIVETIME    : 8.57711, 8.55123   seconds (separate by commas if more than one detector)
#REALTIME    : 10, 10.0   seconds (separate by commas if more than one detector)
#SPECTRUM    : start of spectrum data
0, 0
0, 0
0, 0
0, 0
0, 0
0, 0
0, 0
0, 0
3, 0
3, 3
0, 0
28, 45
42, 42
2, 2
5, 4
64, 98
318, 434
79, 83
6, 15
12, 5
27, 22
121, 118
48, 43
28, 28
129, 81
120, 79
35, 38
20, 14
13, 9
8, 2
2, 4
5, 3
8, 12
99, 148
245, 230
39, 38
26, 35
44, 32
7, 6
8, 2
6, 5
6, 19
14, 21
33, 15
41, 7
11, 7
4, 7
4, 7
6, 11
34, 40
17, 29
7, 10
11, 16
36, 45
68, 61
28, 18
20, 40
378, 593
1689, 2240
1267, 1386
165, 129
18, 12
27, 32
82, 106
278, 382
191, 180
24, 34
9, 10
4, 21
7, 9
7, 5
3, 5
1, 4
5, 4
7, 2
5, 10
4, 10
3, 3
4, 6
0, 9
2, 8
3, 4
3, 6
6, 6
5, 6
1, 6
6, 2
3, 2
1, 3
2, 5
3, 3
13, 2
8, 8
8, 2
4, 4
0, 4
1, 5
2, 3
2, 2
2, 1
3, 4
1, 1
0, 1
3, 2
5, 1
3, 2
4, 4
3, 7
0, 3
4, 1
4, 1
2, 1
4, 2
2, 1
2, 2
3, 2
1, 3
5, 4
2, 1
3, 2
0, 0
2, 2
2, 1
0, 3
0, 2
2, 1
1, 0
0, 1
0, 0
1, 1
2, 0
1, 1
2, 2
0, 1
0, 1
0, 1
0, 1
1, 2
1, 3
0, 0
0, 1
0, 0
0, 2
0, 1
0, 2
2, 1
0, 0
0, 2
0, 0
1, 1
0, 0
0, 0
0, 0
1, 1
0, 2
0, 0
0, 0
0, 0
0, 1
0, 0
0, 0
0, 1
0, 0
0, 0
0, 1
0, 0
0, 0
0, 0
0, 0
1, 1
0, 0
1, 0
0, 0
0, 0
0, 0
1, 1
0, 1
1, 0
0, 0
0, 1
0, 0
0, 0
0, 0
0, 0
0, 0
0, 0
0, 1
0, 0
0, 1
0, 0
0, 0
1, 0
0, 0
0, 0
0, 1
0, 0
0, 0
0, 0
0, 0
0, 0
0, 0
0, 0
0, 0
0, 0
0, 0
0, 0
0, 0
0, 0
0, 0
0, 0
0, 0
0, 0
0, 0
0, 0
0, 0
0, 0
0, 0
0, 0
0, 0
0, 0
0, 0
0, 0
0, 0
0, 0
0, 0
0, 0
0, 0
0, 0
0, 0
0, 0
0, 0
0, 0
0, 0
0, 0
0, 0
0, 0
0, 0
0, 0
0, 0
0, 0
0, 0
0, 0
0, 0
0, 0
0, 0
0, 0
0, 0
0, 0
0, 0
0, 0
0, 0
0, 0
0, 0
0, 0
0, 0
0, 0
0, 0
0, 0
0, 0
0, 0
0, 0
0, 0
0, 0
0, 0
0, 0
0, 0
0, 0
0, 0
0, 0
0, 0
0, 0
0, 0
0, 0
0, 0
0, 0
0, 0
0, 0
0, 0
0, 0
0, 0
0, 0
0, 0
0, 0
0, 0
0, 0
0, 0
0, 0
0, 0
0, 0
0, 0
0, 0
0, 0
0, 0
0, 0
#ENDOFDATA     end of spectrum data