File: host_upload/06-09-2024/ps_0852/dump3/ps__0852shot_2294.msa
#FORMAT      : EMSA/MAS spectral data file
#VERSION     : TC202v2.0 PIXL
#TITLE       : N/A
#DATE        :       Date in the format DD-MMM-YYYY, for example 07-JUL-2010
#TIME        :             The time of day at which the spectrum was recorded, in 24-hour format
#OWNER       : PIXL Flight Model       (PIXL will use this to indicate which instrument took the data.)
#NPOINTS     : 4096     Number of data points in the spectrum (This can be zero for configuration only files)
#NCOLUMNS    : 2     Number of data columns in the spectrum (This can be zero for configuration only files)
#XUNITS      : eV
#YUNITS      : COUNTS
#DATATYPE    : YY
#XPERCHAN    : 7.862, 7.881   eV per channel (separate by commas if more than one detector)
#OFFSET      : 18.5, -22.4         eV of first channel  (separate by commas if more than one detector
#SIGNALTYPE  : XRF
#YP_TEMP     : 2.203
#LIVETIME    : 8.56063, 8.5565   seconds (separate by commas if more than one detector)
#REALTIME    : 10, 10.0   seconds (separate by commas if more than one detector)
#SPECTRUM    : start of spectrum data
0, 0
0, 0
0, 0
0, 0
0, 0
0, 0
0, 0
0, 0
0, 0
0, 0
1, 3
47, 66
67, 71
7, 6
1, 3
94, 108
416, 387
115, 124
6, 4
1, 1
16, 13
66, 75
26, 23
12, 8
32, 26
40, 35
10, 22
16, 10
4, 6
5, 2
3, 4
6, 0
26, 4
46, 12
15, 13
4, 8
6, 9
6, 6
3, 6
4, 7
9, 7
11, 10
18, 14
10, 34
14, 23
7, 11
9, 6
8, 2
18, 13
36, 16
31, 10
9, 28
8, 30
43, 50
69, 72
49, 16
153, 47
544, 612
2124, 2297
1577, 1428
231, 135
14, 12
18, 16
105, 152
335, 373
220, 204
34, 26
7, 10
23, 9
9, 13
8, 5
8, 5
4, 6
3, 3
6, 6
10, 4
20, 3
27, 2
8, 9
8, 7
5, 1
4, 4
6, 4
6, 6
3, 6
3, 7
7, 8
2, 3
4, 6
4, 5
4, 2
3, 3
1, 5
4, 2
2, 1
6, 1
5, 1
7, 5
6, 3
3, 2
3, 2
8, 6
4, 1
0, 2
4, 2
2, 1
5, 2
4, 3
2, 3
3, 2
2, 1
3, 4
3, 3
3, 0
4, 2
2, 4
4, 4
1, 7
3, 2
1, 3
4, 1
0, 0
4, 3
1, 0
1, 0
0, 2
2, 0
1, 0
1, 1
0, 2
0, 0
1, 1
2, 1
2, 1
2, 1
3, 1
0, 0
0, 2
1, 1
3, 1
0, 1
0, 2
1, 0
0, 0
0, 1
1, 1
1, 0
1, 1
0, 2
0, 0
0, 1
2, 0
2, 0
0, 0
0, 0
0, 0
1, 1
0, 0
0, 1
1, 0
1, 1
0, 0
0, 0
0, 0
1, 1
1, 0
0, 1
0, 0
0, 0
0, 0
0, 0
0, 0
0, 0
0, 0
0, 0
1, 0
0, 1
1, 0
0, 0
0, 0
0, 0
0, 1
0, 0
0, 0
0, 0
0, 0
0, 0
0, 0
0, 0
0, 0
0, 0
0, 0
0, 1
0, 0
0, 0
0, 0
0, 0
0, 0
0, 0
0, 1
0, 0
0, 0
0, 0
0, 0
0, 0
0, 0
0, 0
0, 0
0, 0
0, 0
0, 0
1, 0
0, 0
0, 0
0, 0
0, 0
0, 0
0, 0
0, 0
0, 0
0, 0
0, 0
0, 0
0, 0
0, 0
0, 0
0, 0
0, 0
0, 0
0, 0
0, 0
0, 0
0, 0
0, 0
0, 0
0, 0
0, 0
0, 0
0, 0
0, 0
0, 0
0, 0
0, 0
0, 0
0, 0
0, 0
0, 0
0, 0
0, 0
0, 0
0, 0
0, 0
0, 0
0, 0
0, 0
0, 0
0, 0
0, 0
0, 0
0, 0
0, 0
0, 0
0, 0
0, 0
0, 0
0, 0
0, 0
0, 0
0, 0
0, 0
0, 0
0, 0
0, 0
0, 0
0, 0
0, 0
0, 0
0, 0
0, 0
0, 0
0, 0
0, 0
0, 0
0, 0
0, 0
0, 0
0, 0
0, 0
0, 0
0, 0
0, 0
0, 0
0, 0
0, 0
#ENDOFDATA     end of spectrum data