File: host_upload/06-09-2024/ps_0852/dump3/ps__0852shot_2270.msa
#FORMAT      : EMSA/MAS spectral data file
#VERSION     : TC202v2.0 PIXL
#TITLE       : N/A
#DATE        :       Date in the format DD-MMM-YYYY, for example 07-JUL-2010
#TIME        :             The time of day at which the spectrum was recorded, in 24-hour format
#OWNER       : PIXL Flight Model       (PIXL will use this to indicate which instrument took the data.)
#NPOINTS     : 4096     Number of data points in the spectrum (This can be zero for configuration only files)
#NCOLUMNS    : 2     Number of data columns in the spectrum (This can be zero for configuration only files)
#XUNITS      : eV
#YUNITS      : COUNTS
#DATATYPE    : YY
#XPERCHAN    : 7.862, 7.881   eV per channel (separate by commas if more than one detector)
#OFFSET      : 18.5, -22.4         eV of first channel  (separate by commas if more than one detector
#SIGNALTYPE  : XRF
#YP_TEMP     : 2.203
#LIVETIME    : 8.58586, 8.56597   seconds (separate by commas if more than one detector)
#REALTIME    : 10, 10.0   seconds (separate by commas if more than one detector)
#SPECTRUM    : start of spectrum data
0, 0
0, 0
0, 0
0, 0
0, 0
0, 0
0, 0
1, 1
1, 2
2, 0
2, 5
45, 30
71, 48
9, 7
4, 7
91, 85
431, 370
92, 84
9, 5
1, 2
3, 2
9, 9
3, 3
9, 4
20, 40
39, 36
12, 17
10, 7
3, 5
2, 4
1, 3
2, 0
2, 7
13, 4
21, 13
9, 6
5, 1
4, 7
4, 16
1, 18
4, 7
8, 10
16, 16
12, 29
9, 49
3, 26
9, 4
8, 4
17, 7
23, 12
21, 11
9, 6
15, 8
47, 34
67, 49
24, 33
53, 80
499, 570
2357, 2059
1610, 1306
211, 127
15, 15
21, 21
113, 124
357, 335
257, 179
40, 20
12, 11
23, 22
9, 9
5, 8
2, 5
1, 3
4, 10
5, 8
3, 4
12, 7
14, 5
16, 3
3, 7
5, 5
5, 2
5, 1
3, 5
5, 5
3, 5
6, 4
2, 5
7, 2
4, 3
1, 1
2, 5
1, 4
2, 8
3, 6
3, 10
1, 5
3, 5
4, 0
1, 1
4, 4
4, 4
3, 1
3, 6
2, 1
4, 1
4, 2
2, 2
3, 2
1, 2
2, 2
4, 2
0, 1
1, 1
5, 2
3, 2
4, 4
1, 4
2, 3
1, 0
1, 2
0, 0
3, 1
1, 2
1, 1
1, 1
0, 0
4, 1
1, 2
1, 4
2, 1
1, 3
1, 3
1, 0
2, 3
0, 1
0, 1
0, 1
1, 0
2, 2
1, 1
1, 0
2, 0
0, 0
2, 2
0, 0
0, 0
0, 0
0, 0
0, 0
1, 0
1, 0
2, 0
0, 0
0, 0
0, 0
0, 1
0, 0
0, 1
0, 0
0, 0
0, 0
0, 0
0, 1
0, 0
0, 0
0, 0
0, 0
2, 0
0, 0
0, 0
0, 0
0, 1
0, 0
0, 1
0, 0
1, 0
1, 0
0, 0
0, 3
0, 0
0, 0
0, 0
0, 0
1, 0
0, 0
0, 0
0, 0
0, 0
0, 0
1, 0
0, 0
1, 0
0, 0
0, 0
0, 0
0, 0
0, 0
0, 0
0, 0
1, 0
0, 0
0, 0
0, 0
0, 0
0, 0
0, 0
0, 0
0, 0
0, 0
0, 0
0, 0
0, 0
0, 0
0, 0
0, 0
0, 0
0, 0
0, 0
0, 0
0, 0
0, 0
0, 0
0, 0
0, 0
0, 0
0, 0
0, 0
0, 0
0, 0
0, 0
0, 0
0, 0
0, 0
0, 0
0, 0
0, 0
0, 0
0, 0
0, 0
0, 0
0, 0
0, 0
0, 0
0, 0
0, 0
0, 0
0, 0
0, 0
0, 0
0, 0
0, 0
0, 0
0, 0
0, 0
0, 0
0, 0
0, 0
0, 0
0, 0
0, 0
0, 0
0, 0
0, 0
0, 0
0, 0
0, 0
0, 0
0, 0
0, 0
0, 0
0, 0
0, 0
0, 0
0, 0
0, 0
0, 0
0, 0
0, 0
0, 0
0, 0
0, 0
0, 0
0, 0
0, 0
0, 0
0, 0
0, 0
0, 0
0, 0
0, 0
0, 0
0, 0
0, 0
#ENDOFDATA     end of spectrum data