File: host_upload/06-09-2024/ps_0852/dump3/ps__0852shot_2517.msa
#FORMAT      : EMSA/MAS spectral data file
#VERSION     : TC202v2.0 PIXL
#TITLE       : N/A
#DATE        :       Date in the format DD-MMM-YYYY, for example 07-JUL-2010
#TIME        :             The time of day at which the spectrum was recorded, in 24-hour format
#OWNER       : PIXL Flight Model       (PIXL will use this to indicate which instrument took the data.)
#NPOINTS     : 4096     Number of data points in the spectrum (This can be zero for configuration only files)
#NCOLUMNS    : 2     Number of data columns in the spectrum (This can be zero for configuration only files)
#XUNITS      : eV
#YUNITS      : COUNTS
#DATATYPE    : YY
#XPERCHAN    : 7.862, 7.881   eV per channel (separate by commas if more than one detector)
#OFFSET      : 18.5, -22.4         eV of first channel  (separate by commas if more than one detector
#SIGNALTYPE  : XRF
#YP_TEMP     : 2.171
#LIVETIME    : 8.54789, 8.56111   seconds (separate by commas if more than one detector)
#REALTIME    : 10, 10.0   seconds (separate by commas if more than one detector)
#SPECTRUM    : start of spectrum data
0, 0
0, 0
0, 0
0, 0
0, 0
0, 0
1, 0
0, 2
2, 4
1, 3
5, 2
46, 26
48, 55
7, 6
4, 7
65, 65
306, 299
81, 83
5, 10
7, 4
103, 105
549, 592
195, 211
43, 63
80, 91
49, 57
33, 36
20, 22
7, 10
4, 5
8, 9
6, 5
6, 5
53, 83
83, 98
16, 22
16, 9
24, 18
18, 5
13, 10
7, 18
11, 27
11, 20
6, 16
9, 11
4, 12
9, 4
6, 9
12, 16
28, 26
20, 23
5, 18
15, 17
39, 40
51, 53
21, 21
29, 26
461, 529
2082, 2096
1429, 1206
181, 121
21, 22
15, 39
99, 97
270, 297
210, 169
22, 19
4, 7
13, 9
8, 17
8, 35
2, 29
2, 12
6, 4
6, 4
0, 7
6, 2
7, 2
2, 7
3, 6
5, 7
6, 4
6, 7
3, 5
2, 5
6, 3
5, 5
4, 5
1, 2
2, 4
5, 3
0, 4
6, 5
4, 8
0, 2
8, 3
6, 1
6, 1
7, 2
3, 5
2, 5
0, 9
0, 8
7, 11
2, 1
3, 2
3, 2
2, 3
1, 1
0, 7
4, 2
0, 3
4, 4
2, 1
3, 0
1, 2
2, 7
0, 1
4, 2
2, 1
2, 2
3, 2
2, 2
3, 4
1, 3
0, 1
0, 1
2, 1
1, 2
3, 0
1, 0
0, 0
1, 0
0, 1
0, 1
1, 0
2, 0
1, 0
0, 1
0, 0
2, 1
3, 3
1, 0
0, 1
0, 0
1, 2
1, 0
2, 1
0, 2
0, 3
1, 0
0, 0
1, 0
0, 1
1, 0
1, 1
0, 0
0, 0
0, 0
0, 0
0, 0
0, 0
1, 2
0, 0
0, 0
0, 0
0, 0
0, 0
0, 0
0, 1
0, 0
0, 0
1, 0
0, 0
0, 0
0, 0
0, 0
0, 0
0, 0
0, 0
0, 0
0, 1
0, 0
0, 1
1, 0
0, 0
0, 0
0, 0
0, 0
0, 0
0, 0
0, 0
1, 0
0, 0
0, 0
0, 0
0, 0
0, 0
0, 0
0, 0
0, 0
0, 0
0, 0
0, 0
0, 0
0, 0
0, 0
0, 0
0, 0
0, 0
0, 0
0, 0
0, 0
0, 0
0, 0
0, 0
0, 0
0, 0
0, 0
0, 0
0, 0
0, 0
0, 0
0, 0
0, 0
0, 0
0, 0
0, 0
0, 0
0, 0
0, 0
0, 0
0, 0
0, 0
0, 0
0, 0
0, 0
0, 0
0, 0
0, 0
0, 0
0, 0
0, 0
0, 0
0, 0
0, 0
0, 0
0, 0
0, 0
0, 0
0, 0
0, 0
0, 0
0, 0
0, 0
0, 0
0, 0
0, 0
0, 0
0, 0
0, 0
0, 0
0, 0
0, 0
0, 0
0, 0
0, 0
0, 0
0, 0
0, 0
0, 0
0, 0
0, 0
0, 0
0, 0
0, 0
0, 0
0, 0
0, 0
0, 0
0, 0
0, 0
0, 0
0, 0
0, 0
0, 0
0, 0
0, 0
0, 0
0, 0
0, 0
0, 0
0, 0
0, 0
#ENDOFDATA     end of spectrum data