File: host_upload/06-09-2024/ps_0852/dump3/ps__0852shot_2044.msa
#FORMAT      : EMSA/MAS spectral data file
#VERSION     : TC202v2.0 PIXL
#TITLE       : N/A
#DATE        :       Date in the format DD-MMM-YYYY, for example 07-JUL-2010
#TIME        :             The time of day at which the spectrum was recorded, in 24-hour format
#OWNER       : PIXL Flight Model       (PIXL will use this to indicate which instrument took the data.)
#NPOINTS     : 4096     Number of data points in the spectrum (This can be zero for configuration only files)
#NCOLUMNS    : 2     Number of data columns in the spectrum (This can be zero for configuration only files)
#XUNITS      : eV
#YUNITS      : COUNTS
#DATATYPE    : YY
#XPERCHAN    : 7.862, 7.881   eV per channel (separate by commas if more than one detector)
#OFFSET      : 18.5, -22.4         eV of first channel  (separate by commas if more than one detector
#SIGNALTYPE  : XRF
#YP_TEMP     : 2.364
#LIVETIME    : 8.55717, 8.56295   seconds (separate by commas if more than one detector)
#REALTIME    : 10, 10.0   seconds (separate by commas if more than one detector)
#SPECTRUM    : start of spectrum data
0, 0
0, 0
0, 0
0, 0
0, 0
0, 0
0, 0
0, 0
0, 1
1, 3
1, 4
55, 43
65, 64
6, 2
5, 7
84, 79
398, 425
93, 98
3, 4
0, 2
0, 2
5, 11
6, 12
7, 49
24, 127
30, 132
20, 31
14, 20
5, 7
3, 2
3, 4
0, 2
4, 4
13, 24
10, 20
2, 9
5, 29
7, 19
8, 9
14, 1
12, 4
11, 12
26, 13
78, 13
58, 9
20, 14
5, 7
3, 6
14, 6
31, 16
30, 9
19, 19
40, 22
43, 42
56, 55
21, 26
32, 43
446, 609
2068, 2364
1549, 1354
185, 140
22, 36
17, 28
81, 138
318, 338
225, 170
38, 33
9, 11
9, 18
7, 10
9, 5
4, 3
2, 4
6, 10
4, 15
7, 13
6, 10
11, 2
11, 7
3, 5
6, 10
3, 6
4, 4
2, 5
6, 11
6, 4
2, 4
11, 1
6, 3
7, 3
1, 2
4, 5
3, 5
3, 3
5, 4
2, 7
4, 6
3, 2
10, 2
4, 2
1, 5
1, 3
5, 4
5, 1
2, 4
7, 1
0, 1
2, 1
0, 2
2, 3
3, 2
2, 0
3, 4
0, 1
0, 3
1, 4
4, 7
1, 0
3, 0
0, 0
3, 0
2, 1
1, 0
2, 2
0, 0
1, 1
0, 0
2, 0
2, 1
0, 1
1, 2
0, 0
1, 0
2, 2
1, 0
2, 0
0, 0
0, 1
0, 0
0, 0
1, 2
3, 0
1, 0
0, 1
0, 1
0, 0
0, 0
0, 0
1, 0
1, 0
0, 0
0, 0
0, 1
0, 1
0, 1
1, 0
1, 1
0, 0
1, 0
0, 0
2, 0
0, 0
0, 0
1, 0
0, 0
0, 3
0, 1
1, 0
1, 1
0, 1
0, 0
0, 0
0, 0
1, 0
1, 0
0, 0
0, 0
1, 0
0, 0
0, 0
0, 0
0, 0
0, 1
1, 0
0, 0
0, 0
0, 0
0, 0
0, 0
0, 0
0, 1
0, 0
0, 0
0, 0
0, 0
1, 0
0, 0
0, 0
0, 0
0, 0
0, 0
0, 0
0, 0
0, 0
0, 0
0, 0
0, 0
0, 0
0, 0
0, 0
0, 0
0, 0
0, 0
0, 0
0, 0
0, 0
0, 0
0, 0
0, 0
0, 0
0, 0
0, 0
0, 0
0, 0
0, 0
0, 0
0, 0
0, 0
0, 0
0, 0
0, 0
0, 0
0, 0
0, 0
0, 0
0, 0
0, 0
0, 0
0, 0
0, 0
0, 0
0, 0
0, 0
0, 0
0, 0
0, 0
0, 0
0, 0
0, 0
0, 0
0, 0
0, 0
0, 0
0, 0
0, 0
0, 0
0, 0
0, 0
0, 0
0, 0
0, 0
0, 0
0, 0
0, 0
0, 0
0, 0
0, 0
0, 0
0, 0
0, 0
0, 0
0, 0
0, 0
0, 0
0, 0
0, 0
0, 0
0, 0
0, 0
0, 0
0, 0
0, 0
0, 0
0, 0
0, 0
0, 0
0, 0
0, 0
0, 0
0, 0
0, 0
0, 0
0, 0
0, 0
#ENDOFDATA     end of spectrum data