File: host_upload/06-09-2024/ps_0852/dump3/ps__0852shot_2059.msa
#FORMAT      : EMSA/MAS spectral data file
#VERSION     : TC202v2.0 PIXL
#TITLE       : N/A
#DATE        :       Date in the format DD-MMM-YYYY, for example 07-JUL-2010
#TIME        :             The time of day at which the spectrum was recorded, in 24-hour format
#OWNER       : PIXL Flight Model       (PIXL will use this to indicate which instrument took the data.)
#NPOINTS     : 4096     Number of data points in the spectrum (This can be zero for configuration only files)
#NCOLUMNS    : 2     Number of data columns in the spectrum (This can be zero for configuration only files)
#XUNITS      : eV
#YUNITS      : COUNTS
#DATATYPE    : YY
#XPERCHAN    : 7.862, 7.881   eV per channel (separate by commas if more than one detector)
#OFFSET      : 18.5, -22.4         eV of first channel  (separate by commas if more than one detector
#SIGNALTYPE  : XRF
#YP_TEMP     : 2.492
#LIVETIME    : 8.5279, 8.50346   seconds (separate by commas if more than one detector)
#REALTIME    : 10, 10.0   seconds (separate by commas if more than one detector)
#SPECTRUM    : start of spectrum data
0, 0
0, 0
0, 0
0, 0
0, 0
0, 0
0, 0
0, 0
1, 0
0, 0
4, 2
54, 43
64, 51
7, 4
2, 8
80, 102
428, 388
107, 88
5, 3
1, 1
1, 4
3, 4
1, 2
3, 2
27, 15
40, 30
22, 10
16, 18
5, 3
0, 2
1, 3
2, 0
3, 4
10, 9
12, 16
3, 4
0, 4
6, 6
18, 4
24, 2
36, 4
12, 4
16, 18
11, 19
9, 12
5, 6
4, 18
6, 12
8, 10
6, 10
20, 21
40, 2
62, 7
93, 39
71, 44
34, 20
21, 40
508, 584
2191, 2265
1638, 1450
205, 186
19, 16
14, 26
113, 103
313, 351
260, 209
36, 17
6, 3
10, 12
5, 6
4, 2
5, 5
3, 4
7, 6
8, 6
10, 5
10, 5
8, 15
8, 7
12, 8
7, 2
3, 9
0, 6
2, 1
4, 1
4, 3
2, 3
3, 2
1, 5
3, 4
4, 4
3, 6
5, 10
5, 23
3, 15
1, 9
2, 3
3, 1
1, 1
0, 4
4, 2
4, 6
6, 0
2, 0
4, 2
3, 0
4, 3
2, 1
1, 4
1, 2
2, 1
1, 3
0, 4
1, 1
2, 2
4, 1
1, 6
1, 5
2, 3
2, 2
5, 0
0, 4
0, 2
2, 1
0, 0
0, 2
0, 0
0, 1
1, 2
0, 0
2, 0
2, 0
5, 1
0, 1
0, 1
1, 0
2, 0
0, 0
0, 0
0, 1
0, 1
0, 1
0, 0
0, 0
0, 1
1, 2
0, 0
1, 1
0, 0
0, 1
1, 1
0, 2
0, 0
0, 0
2, 0
0, 0
0, 1
0, 1
0, 1
0, 0
0, 0
1, 0
0, 0
0, 0
0, 1
0, 0
0, 1
0, 0
0, 0
0, 0
0, 0
0, 0
0, 0
0, 0
0, 1
0, 0
1, 0
1, 0
0, 1
0, 0
0, 0
0, 0
0, 0
0, 0
0, 0
0, 0
0, 0
0, 0
0, 1
1, 0
0, 0
0, 0
0, 0
0, 0
0, 0
0, 0
0, 0
0, 0
0, 0
0, 0
0, 0
0, 0
0, 0
0, 0
0, 0
0, 0
0, 0
0, 0
0, 0
0, 0
0, 0
0, 0
0, 0
0, 0
0, 0
0, 0
0, 0
0, 0
0, 0
0, 0
0, 0
0, 0
0, 0
0, 0
0, 0
0, 0
0, 0
0, 0
0, 0
0, 0
0, 0
0, 0
0, 0
0, 0
0, 0
0, 0
0, 0
0, 0
0, 0
0, 0
0, 0
0, 0
0, 0
0, 0
0, 0
0, 0
0, 0
0, 0
0, 0
0, 0
0, 0
0, 0
0, 0
0, 0
0, 0
0, 0
0, 0
0, 0
0, 0
0, 0
0, 0
0, 0
0, 0
0, 0
0, 0
0, 0
0, 0
0, 0
0, 0
0, 0
0, 0
0, 0
0, 0
0, 0
0, 0
0, 0
0, 0
0, 0
0, 0
0, 0
0, 0
0, 0
0, 0
0, 0
0, 0
0, 0
0, 0
0, 0
0, 0
0, 0
0, 0
0, 0
0, 0
0, 0
#ENDOFDATA     end of spectrum data