File: host_upload/06-09-2024/ps_0852/dump3/ps__0852shot_2335.msa
#FORMAT      : EMSA/MAS spectral data file
#VERSION     : TC202v2.0 PIXL
#TITLE       : N/A
#DATE        :       Date in the format DD-MMM-YYYY, for example 07-JUL-2010
#TIME        :             The time of day at which the spectrum was recorded, in 24-hour format
#OWNER       : PIXL Flight Model       (PIXL will use this to indicate which instrument took the data.)
#NPOINTS     : 4096     Number of data points in the spectrum (This can be zero for configuration only files)
#NCOLUMNS    : 2     Number of data columns in the spectrum (This can be zero for configuration only files)
#XUNITS      : eV
#YUNITS      : COUNTS
#DATATYPE    : YY
#XPERCHAN    : 7.862, 7.881   eV per channel (separate by commas if more than one detector)
#OFFSET      : 18.5, -22.4         eV of first channel  (separate by commas if more than one detector
#SIGNALTYPE  : XRF
#YP_TEMP     : 2.364
#LIVETIME    : 8.5382, 8.5835   seconds (separate by commas if more than one detector)
#REALTIME    : 10, 10.0   seconds (separate by commas if more than one detector)
#SPECTRUM    : start of spectrum data
0, 0
0, 0
0, 0
0, 0
0, 0
0, 0
0, 0
0, 0
1, 0
0, 1
2, 2
44, 61
61, 51
5, 7
3, 5
95, 97
409, 449
109, 97
5, 2
1, 1
8, 7
32, 32
19, 17
20, 11
37, 39
30, 33
17, 35
9, 11
3, 3
3, 2
1, 1
3, 4
6, 3
14, 9
11, 13
4, 2
6, 6
8, 5
2, 1
3, 6
5, 5
9, 9
13, 14
17, 17
9, 24
3, 54
2, 29
6, 9
6, 11
27, 11
28, 11
10, 10
9, 14
26, 31
68, 61
23, 17
43, 36
498, 637
2207, 2460
1710, 1416
233, 141
26, 19
17, 26
97, 125
320, 369
225, 195
32, 25
7, 20
13, 48
14, 26
17, 4
4, 5
3, 4
3, 9
3, 5
5, 7
5, 4
9, 7
6, 5
2, 3
3, 6
2, 3
4, 3
3, 7
1, 5
6, 5
3, 4
2, 2
5, 0
4, 10
2, 5
2, 4
7, 1
3, 1
3, 5
2, 3
3, 2
4, 2
3, 3
6, 0
5, 4
4, 1
3, 0
1, 2
0, 2
4, 3
1, 4
2, 3
3, 2
0, 0
2, 0
3, 4
0, 1
3, 0
0, 3
3, 0
1, 4
1, 2
1, 1
4, 3
2, 2
0, 2
3, 4
3, 2
0, 1
1, 0
1, 1
2, 1
1, 1
3, 0
0, 2
0, 0
1, 1
1, 2
0, 0
0, 0
2, 0
1, 0
0, 2
0, 1
0, 1
0, 1
1, 1
1, 0
1, 0
0, 2
0, 0
0, 1
0, 0
0, 0
1, 0
0, 1
2, 0
0, 0
0, 0
0, 0
0, 0
1, 0
0, 0
0, 1
0, 0
0, 0
1, 0
0, 0
1, 0
1, 0
0, 1
1, 0
0, 0
0, 0
1, 0
0, 0
0, 1
1, 1
0, 1
0, 0
0, 0
0, 0
1, 0
0, 0
0, 0
1, 0
0, 0
0, 0
0, 0
0, 0
0, 0
0, 0
0, 0
0, 0
0, 0
0, 0
0, 0
0, 0
0, 0
0, 0
0, 0
0, 0
0, 0
0, 0
0, 0
0, 0
0, 0
0, 0
0, 0
0, 0
0, 0
0, 1
0, 0
0, 0
1, 0
0, 0
0, 0
0, 0
0, 0
0, 0
0, 0
0, 0
0, 0
0, 0
0, 0
0, 0
0, 0
0, 0
0, 1
0, 0
0, 0
0, 0
0, 0
0, 1
0, 0
0, 0
0, 0
0, 0
0, 0
0, 0
0, 0
0, 0
0, 0
0, 0
0, 0
0, 0
0, 0
0, 0
0, 0
0, 0
0, 0
0, 0
0, 0
0, 0
0, 0
0, 0
0, 0
0, 0
0, 0
0, 0
0, 0
0, 0
0, 0
0, 0
0, 0
0, 0
0, 0
0, 0
0, 0
0, 0
0, 0
0, 0
0, 0
0, 0
0, 0
0, 0
0, 0
0, 0
0, 0
0, 0
0, 0
0, 0
0, 0
0, 0
0, 0
0, 0
0, 0
0, 0
0, 0
0, 0
0, 0
0, 0
0, 0
0, 0
0, 0
0, 0
0, 0
0, 0
#ENDOFDATA     end of spectrum data