File: host_upload/06-09-2024/ps_0852/dump3/ps__0852shot_2343.msa
#FORMAT      : EMSA/MAS spectral data file
#VERSION     : TC202v2.0 PIXL
#TITLE       : N/A
#DATE        :       Date in the format DD-MMM-YYYY, for example 07-JUL-2010
#TIME        :             The time of day at which the spectrum was recorded, in 24-hour format
#OWNER       : PIXL Flight Model       (PIXL will use this to indicate which instrument took the data.)
#NPOINTS     : 4096     Number of data points in the spectrum (This can be zero for configuration only files)
#NCOLUMNS    : 2     Number of data columns in the spectrum (This can be zero for configuration only files)
#XUNITS      : eV
#YUNITS      : COUNTS
#DATATYPE    : YY
#XPERCHAN    : 7.862, 7.881   eV per channel (separate by commas if more than one detector)
#OFFSET      : 18.5, -22.4         eV of first channel  (separate by commas if more than one detector
#SIGNALTYPE  : XRF
#YP_TEMP     : 2.332
#LIVETIME    : 8.56867, 8.56168   seconds (separate by commas if more than one detector)
#REALTIME    : 10, 10.0   seconds (separate by commas if more than one detector)
#SPECTRUM    : start of spectrum data
0, 0
0, 0
0, 0
0, 0
0, 0
0, 0
0, 0
0, 0
1, 0
1, 0
4, 4
38, 48
53, 61
4, 3
0, 4
70, 98
358, 412
83, 95
4, 8
4, 5
25, 42
205, 221
85, 84
17, 19
52, 44
45, 39
31, 17
8, 10
6, 3
1, 3
6, 1
3, 3
2, 4
29, 33
43, 45
9, 5
5, 10
7, 8
9, 5
6, 6
3, 11
9, 12
12, 10
11, 13
5, 3
3, 8
7, 5
2, 10
6, 12
11, 11
8, 8
12, 11
59, 8
147, 55
113, 66
34, 22
26, 37
422, 559
1929, 2483
1451, 1422
172, 129
15, 21
16, 29
91, 106
267, 383
201, 171
40, 31
5, 15
15, 13
19, 8
6, 3
4, 6
4, 4
4, 7
9, 9
4, 9
6, 5
8, 3
6, 2
3, 7
8, 4
1, 5
5, 4
5, 4
6, 2
3, 2
10, 2
5, 1
3, 0
3, 6
5, 0
5, 1
1, 6
3, 7
3, 2
0, 4
5, 1
2, 1
1, 2
3, 1
2, 6
2, 2
4, 3
3, 3
2, 1
6, 5
8, 2
8, 1
7, 2
0, 2
2, 4
2, 1
1, 5
2, 1
4, 0
1, 2
0, 3
4, 3
1, 3
0, 3
1, 2
0, 2
2, 4
1, 4
1, 0
2, 1
3, 1
0, 1
1, 3
1, 2
0, 2
0, 3
0, 0
0, 1
1, 1
0, 0
0, 0
0, 1
1, 0
0, 0
0, 1
1, 2
0, 1
1, 1
0, 0
0, 0
1, 1
0, 0
1, 0
0, 1
0, 0
0, 1
0, 1
0, 0
0, 1
2, 0
0, 1
0, 0
0, 0
0, 0
0, 0
0, 0
0, 0
0, 1
1, 0
0, 0
0, 2
0, 0
0, 1
1, 0
0, 0
0, 0
0, 0
0, 1
1, 0
0, 0
1, 0
0, 0
1, 0
0, 0
0, 0
0, 1
0, 0
1, 0
1, 0
0, 0
0, 0
0, 0
0, 0
0, 0
0, 0
0, 0
0, 0
0, 0
0, 0
1, 0
0, 0
0, 0
0, 0
0, 0
0, 0
0, 0
0, 0
0, 0
0, 0
0, 0
0, 0
0, 0
0, 0
0, 0
0, 0
0, 0
0, 0
0, 0
0, 0
0, 0
0, 0
0, 0
0, 0
0, 0
0, 0
0, 0
0, 0
0, 0
0, 0
0, 0
0, 0
0, 0
0, 0
0, 0
0, 0
0, 0
0, 0
0, 0
0, 0
0, 0
0, 0
0, 0
0, 0
0, 0
0, 0
0, 0
0, 0
0, 0
0, 0
0, 0
0, 0
0, 0
0, 0
0, 0
0, 0
0, 0
0, 0
0, 0
0, 0
0, 0
0, 0
0, 0
0, 0
0, 0
0, 0
0, 0
0, 0
0, 0
0, 0
0, 0
0, 0
0, 0
0, 0
0, 0
0, 0
0, 0
0, 0
0, 0
0, 0
0, 0
0, 0
0, 0
0, 0
0, 0
0, 0
0, 0
0, 0
0, 0
0, 0
0, 0
0, 0
0, 0
0, 0
0, 0
0, 0
0, 0
0, 0
0, 0
#ENDOFDATA     end of spectrum data