File: host_upload/06-09-2024/ps_0852/dump3/ps__0852shot_2262.msa
#FORMAT      : EMSA/MAS spectral data file
#VERSION     : TC202v2.0 PIXL
#TITLE       : N/A
#DATE        :       Date in the format DD-MMM-YYYY, for example 07-JUL-2010
#TIME        :             The time of day at which the spectrum was recorded, in 24-hour format
#OWNER       : PIXL Flight Model       (PIXL will use this to indicate which instrument took the data.)
#NPOINTS     : 4096     Number of data points in the spectrum (This can be zero for configuration only files)
#NCOLUMNS    : 2     Number of data columns in the spectrum (This can be zero for configuration only files)
#XUNITS      : eV
#YUNITS      : COUNTS
#DATATYPE    : YY
#XPERCHAN    : 7.862, 7.881   eV per channel (separate by commas if more than one detector)
#OFFSET      : 18.5, -22.4         eV of first channel  (separate by commas if more than one detector
#SIGNALTYPE  : XRF
#YP_TEMP     : 2.428
#LIVETIME    : 8.56487, 8.56864   seconds (separate by commas if more than one detector)
#REALTIME    : 10, 10.0   seconds (separate by commas if more than one detector)
#SPECTRUM    : start of spectrum data
0, 0
0, 0
0, 0
0, 0
0, 0
0, 0
0, 0
0, 0
3, 0
0, 1
0, 2
46, 50
50, 63
4, 5
4, 8
64, 116
384, 474
97, 118
4, 0
1, 0
2, 3
1, 1
4, 3
11, 2
195, 35
300, 42
61, 19
19, 13
1, 0
0, 0
2, 2
2, 2
4, 2
3, 8
12, 11
0, 3
3, 4
15, 5
26, 7
6, 4
8, 2
9, 19
17, 19
4, 61
5, 76
3, 22
10, 2
2, 8
6, 13
8, 16
27, 10
39, 7
19, 12
34, 56
53, 63
17, 26
21, 56
394, 693
1877, 2520
1447, 1526
176, 222
16, 28
34, 28
102, 118
322, 357
197, 236
21, 34
5, 10
16, 18
9, 9
3, 5
4, 3
3, 2
7, 4
9, 4
47, 4
27, 8
10, 9
12, 6
4, 3
1, 4
5, 4
4, 7
2, 3
3, 5
2, 5
4, 2
4, 5
4, 3
2, 4
5, 2
3, 9
3, 1
2, 3
6, 5
2, 4
3, 2
1, 6
1, 2
6, 7
6, 5
5, 2
9, 5
3, 3
1, 3
3, 1
1, 1
0, 1
4, 4
1, 3
1, 2
1, 1
1, 0
4, 3
1, 1
4, 5
5, 4
4, 3
4, 4
0, 3
0, 4
3, 1
0, 4
1, 4
2, 0
0, 5
0, 1
2, 0
2, 2
1, 0
1, 1
0, 0
1, 1
0, 3
3, 1
0, 0
0, 2
0, 0
0, 0
0, 1
1, 1
0, 0
0, 2
1, 1
2, 3
2, 0
0, 0
0, 0
1, 1
1, 0
1, 1
0, 0
0, 1
0, 0
0, 1
1, 0
0, 2
0, 1
1, 0
0, 1
1, 0
0, 0
0, 0
0, 0
0, 0
0, 0
1, 0
0, 0
1, 1
0, 1
0, 1
1, 0
0, 1
0, 0
0, 1
0, 0
0, 1
1, 0
0, 0
0, 0
0, 0
0, 0
0, 0
0, 0
0, 0
0, 0
0, 0
0, 0
0, 0
0, 0
0, 0
0, 1
0, 0
1, 0
0, 0
0, 0
0, 0
1, 0
0, 0
0, 0
0, 0
0, 0
0, 0
0, 0
0, 0
0, 0
0, 0
0, 0
0, 0
0, 0
0, 0
0, 0
0, 0
0, 0
0, 0
0, 0
0, 0
0, 0
0, 0
0, 0
0, 0
0, 0
0, 0
0, 0
0, 0
0, 0
0, 0
0, 0
0, 0
0, 0
0, 0
0, 0
0, 0
0, 0
0, 0
0, 0
0, 0
0, 0
0, 0
0, 0
0, 0
0, 0
0, 0
0, 0
0, 0
0, 0
0, 0
0, 0
0, 0
0, 0
0, 0
0, 0
0, 0
0, 0
0, 0
0, 0
0, 0
0, 0
0, 0
0, 0
0, 0
0, 0
0, 0
0, 0
0, 0
0, 0
0, 0
0, 0
0, 0
0, 0
0, 0
0, 0
0, 0
0, 0
0, 0
0, 0
0, 0
0, 0
0, 0
0, 0
0, 0
0, 0
0, 0
0, 0
0, 0
0, 0
0, 0
0, 0
0, 0
0, 0
0, 0
0, 0
0, 0
0, 0
#ENDOFDATA     end of spectrum data