File: host_upload/06-09-2024/ps_0852/dump3/ps__0852shot_2377.msa
#FORMAT      : EMSA/MAS spectral data file
#VERSION     : TC202v2.0 PIXL
#TITLE       : N/A
#DATE        :       Date in the format DD-MMM-YYYY, for example 07-JUL-2010
#TIME        :             The time of day at which the spectrum was recorded, in 24-hour format
#OWNER       : PIXL Flight Model       (PIXL will use this to indicate which instrument took the data.)
#NPOINTS     : 4096     Number of data points in the spectrum (This can be zero for configuration only files)
#NCOLUMNS    : 2     Number of data columns in the spectrum (This can be zero for configuration only files)
#XUNITS      : eV
#YUNITS      : COUNTS
#DATATYPE    : YY
#XPERCHAN    : 7.862, 7.881   eV per channel (separate by commas if more than one detector)
#OFFSET      : 18.5, -22.4         eV of first channel  (separate by commas if more than one detector
#SIGNALTYPE  : XRF
#YP_TEMP     : 2.396
#LIVETIME    : 8.55983, 8.54813   seconds (separate by commas if more than one detector)
#REALTIME    : 10, 10.0   seconds (separate by commas if more than one detector)
#SPECTRUM    : start of spectrum data
0, 0
0, 0
0, 0
0, 0
0, 0
0, 0
0, 0
0, 0
0, 0
0, 0
2, 2
46, 53
65, 56
8, 6
0, 4
105, 111
470, 457
124, 118
5, 9
1, 1
1, 1
2, 2
1, 1
4, 3
15, 17
18, 23
14, 12
19, 9
3, 2
2, 2
1, 0
2, 0
5, 1
13, 11
16, 11
2, 3
2, 3
2, 1
4, 2
4, 1
2, 4
8, 11
10, 15
11, 10
8, 6
6, 9
6, 3
7, 7
9, 16
12, 14
20, 9
9, 3
6, 16
55, 47
86, 49
51, 15
45, 36
462, 609
2328, 2407
1660, 1470
192, 144
9, 18
14, 25
98, 120
336, 347
265, 171
29, 33
17, 6
14, 10
10, 8
4, 3
3, 2
2, 6
1, 6
3, 18
2, 11
3, 3
9, 1
2, 2
4, 3
7, 2
14, 4
24, 5
13, 5
6, 2
4, 0
6, 4
5, 1
4, 4
5, 1
4, 4
1, 2
0, 3
7, 3
4, 2
1, 5
1, 2
3, 1
6, 3
5, 4
1, 2
1, 4
2, 3
2, 1
0, 1
6, 2
4, 0
0, 0
1, 0
3, 1
1, 0
4, 1
1, 1
1, 3
1, 2
2, 5
11, 8
10, 5
3, 2
0, 0
2, 1
3, 3
1, 0
2, 4
1, 1
0, 0
0, 0
1, 1
1, 0
1, 1
0, 2
1, 0
0, 2
0, 0
1, 2
0, 1
0, 1
0, 1
1, 0
0, 1
0, 0
0, 0
0, 1
1, 0
2, 0
1, 0
0, 0
1, 1
1, 1
0, 0
0, 2
0, 1
0, 0
0, 0
0, 1
0, 1
0, 1
0, 1
0, 0
0, 1
0, 0
0, 0
0, 0
1, 2
0, 0
0, 0
0, 0
1, 0
1, 0
0, 0
0, 2
0, 0
0, 0
0, 1
0, 1
1, 1
0, 1
0, 0
0, 0
0, 0
0, 0
0, 0
0, 0
2, 0
0, 0
1, 0
0, 0
0, 1
0, 1
0, 0
0, 0
0, 0
0, 0
0, 0
0, 0
0, 0
0, 0
2, 0
0, 0
0, 0
0, 0
0, 0
0, 0
0, 0
0, 0
0, 0
0, 0
0, 0
0, 0
0, 0
0, 0
0, 0
0, 0
0, 0
0, 0
0, 0
0, 0
1, 0
0, 0
0, 0
0, 0
0, 0
0, 0
0, 0
0, 0
0, 0
0, 0
0, 0
0, 0
0, 0
0, 0
0, 0
0, 0
0, 0
0, 0
0, 0
0, 0
0, 0
0, 0
0, 0
0, 0
0, 0
0, 0
0, 0
0, 0
0, 0
0, 0
0, 0
0, 0
0, 0
0, 0
0, 0
0, 0
0, 0
0, 0
0, 0
0, 0
0, 0
0, 0
0, 0
0, 0
0, 0
0, 0
0, 0
0, 0
0, 0
0, 0
0, 0
0, 0
0, 0
0, 0
0, 0
0, 0
0, 0
0, 0
0, 0
0, 0
0, 0
0, 0
0, 0
0, 0
0, 0
0, 0
0, 0
0, 0
0, 0
0, 0
0, 0
0, 0
0, 0
0, 0
0, 0
0, 0
0, 0
#ENDOFDATA     end of spectrum data