File: host_upload/06-09-2024/ps_0852/dump3/ps__0852shot_2455.msa
#FORMAT      : EMSA/MAS spectral data file
#VERSION     : TC202v2.0 PIXL
#TITLE       : N/A
#DATE        :       Date in the format DD-MMM-YYYY, for example 07-JUL-2010
#TIME        :             The time of day at which the spectrum was recorded, in 24-hour format
#OWNER       : PIXL Flight Model       (PIXL will use this to indicate which instrument took the data.)
#NPOINTS     : 4096     Number of data points in the spectrum (This can be zero for configuration only files)
#NCOLUMNS    : 2     Number of data columns in the spectrum (This can be zero for configuration only files)
#XUNITS      : eV
#YUNITS      : COUNTS
#DATATYPE    : YY
#XPERCHAN    : 7.862, 7.881   eV per channel (separate by commas if more than one detector)
#OFFSET      : 18.5, -22.4         eV of first channel  (separate by commas if more than one detector
#SIGNALTYPE  : XRF
#YP_TEMP     : 2.3
#LIVETIME    : 8.57345, 8.55451   seconds (separate by commas if more than one detector)
#REALTIME    : 10, 10.0   seconds (separate by commas if more than one detector)
#SPECTRUM    : start of spectrum data
0, 0
0, 0
0, 0
0, 0
0, 0
0, 0
0, 0
0, 0
0, 0
1, 2
6, 6
54, 45
63, 52
3, 4
4, 3
98, 95
459, 408
122, 97
3, 4
2, 4
12, 12
98, 73
37, 24
18, 12
41, 36
36, 24
8, 13
15, 13
2, 7
2, 2
4, 2
3, 0
5, 9
66, 45
108, 66
19, 19
16, 11
27, 19
3, 7
7, 3
9, 5
13, 8
18, 20
8, 11
3, 7
5, 7
13, 2
7, 6
13, 20
21, 53
15, 32
7, 8
18, 28
44, 37
63, 62
27, 27
42, 52
473, 543
2148, 2134
1559, 1191
214, 124
13, 10
18, 29
102, 120
317, 299
224, 187
39, 19
6, 21
13, 20
11, 13
7, 3
4, 4
5, 1
9, 2
13, 6
7, 6
7, 7
3, 8
6, 5
6, 4
11, 2
8, 4
4, 5
7, 2
4, 1
3, 4
5, 3
3, 5
3, 4
5, 13
2, 4
4, 6
5, 4
5, 0
5, 3
10, 4
5, 1
4, 5
3, 9
2, 7
5, 4
0, 4
2, 3
4, 1
2, 5
2, 3
2, 5
2, 2
0, 1
6, 1
3, 1
3, 2
3, 1
1, 3
4, 2
2, 2
1, 4
2, 1
0, 2
1, 2
2, 0
3, 3
0, 1
1, 1
1, 1
1, 1
1, 1
2, 0
0, 0
1, 3
0, 1
0, 0
1, 1
1, 1
1, 0
1, 1
2, 1
0, 0
2, 1
0, 1
0, 0
0, 1
0, 2
0, 0
0, 0
0, 0
0, 1
0, 2
1, 0
0, 0
0, 0
1, 0
0, 1
1, 1
1, 1
2, 0
1, 1
0, 1
0, 0
3, 0
1, 0
0, 0
1, 1
0, 0
0, 0
0, 0
0, 0
0, 0
0, 1
0, 0
1, 0
0, 0
0, 0
1, 1
0, 0
0, 0
0, 0
0, 0
0, 0
0, 0
0, 0
0, 0
0, 0
0, 0
1, 0
0, 0
0, 0
0, 0
0, 0
0, 0
1, 0
1, 0
0, 0
0, 0
0, 0
0, 0
0, 0
1, 0
0, 0
0, 0
0, 0
0, 0
0, 0
0, 0
0, 0
0, 0
0, 0
0, 0
0, 0
0, 0
0, 0
0, 0
0, 0
0, 0
0, 0
0, 0
0, 0
0, 0
0, 0
1, 0
0, 0
0, 0
0, 0
0, 0
0, 0
0, 0
0, 0
0, 0
0, 0
0, 0
0, 0
0, 0
0, 0
0, 0
0, 0
0, 0
0, 0
0, 0
0, 0
0, 0
0, 0
0, 0
0, 0
0, 0
0, 0
0, 0
0, 0
0, 0
0, 0
0, 0
0, 0
0, 0
0, 0
0, 0
0, 0
0, 0
0, 0
0, 0
0, 0
0, 0
0, 0
0, 0
0, 0
0, 0
0, 0
0, 0
0, 0
0, 0
0, 0
0, 0
0, 0
0, 0
0, 0
0, 0
0, 0
0, 0
0, 0
0, 0
0, 0
0, 0
0, 0
0, 0
0, 0
0, 0
0, 0
0, 0
0, 0
0, 0
0, 0
0, 0
0, 0
0, 0
0, 0
0, 0
#ENDOFDATA     end of spectrum data