File: host_upload/06-09-2024/ps_0852/dump3/ps__0852shot_2126.msa
#FORMAT      : EMSA/MAS spectral data file
#VERSION     : TC202v2.0 PIXL
#TITLE       : N/A
#DATE        :       Date in the format DD-MMM-YYYY, for example 07-JUL-2010
#TIME        :             The time of day at which the spectrum was recorded, in 24-hour format
#OWNER       : PIXL Flight Model       (PIXL will use this to indicate which instrument took the data.)
#NPOINTS     : 4096     Number of data points in the spectrum (This can be zero for configuration only files)
#NCOLUMNS    : 2     Number of data columns in the spectrum (This can be zero for configuration only files)
#XUNITS      : eV
#YUNITS      : COUNTS
#DATATYPE    : YY
#XPERCHAN    : 7.862, 7.881   eV per channel (separate by commas if more than one detector)
#OFFSET      : 18.5, -22.4         eV of first channel  (separate by commas if more than one detector
#SIGNALTYPE  : XRF
#YP_TEMP     : 2.332
#LIVETIME    : 8.55442, 8.55172   seconds (separate by commas if more than one detector)
#REALTIME    : 10, 10.0   seconds (separate by commas if more than one detector)
#SPECTRUM    : start of spectrum data
0, 0
0, 0
0, 0
0, 0
0, 0
0, 0
0, 0
1, 0
0, 1
1, 2
2, 1
37, 40
70, 60
6, 4
1, 3
115, 117
438, 440
117, 85
7, 0
0, 0
2, 1
8, 1
4, 1
9, 9
24, 38
47, 35
19, 17
18, 10
8, 9
0, 3
3, 4
1, 3
4, 3
29, 34
34, 40
8, 8
4, 7
9, 11
4, 3
2, 4
6, 3
8, 15
14, 14
11, 11
7, 1
22, 5
19, 6
6, 5
7, 7
14, 15
16, 12
17, 14
26, 23
55, 45
86, 55
18, 31
43, 41
498, 594
2138, 2143
1549, 1241
228, 153
20, 9
24, 19
116, 120
333, 335
222, 179
29, 23
15, 16
19, 16
11, 8
1, 2
5, 3
1, 3
8, 9
10, 15
1, 15
11, 5
9, 3
4, 7
5, 5
8, 5
4, 9
3, 2
6, 5
11, 1
3, 4
0, 3
0, 3
4, 3
5, 5
4, 5
0, 4
1, 5
3, 4
3, 6
1, 1
3, 1
4, 0
4, 2
3, 1
3, 4
5, 1
5, 7
1, 1
6, 2
3, 0
2, 0
1, 5
1, 3
1, 3
1, 3
1, 0
3, 4
2, 1
3, 1
0, 6
3, 7
3, 3
2, 1
1, 0
0, 1
1, 1
1, 2
2, 1
2, 2
0, 1
0, 1
0, 0
0, 0
0, 2
1, 1
0, 0
0, 1
2, 2
4, 0
3, 2
1, 2
0, 0
0, 1
0, 1
0, 0
0, 1
0, 0
1, 0
2, 0
0, 1
1, 0
0, 1
1, 0
0, 2
0, 0
1, 0
0, 0
1, 0
0, 0
1, 0
0, 0
1, 0
1, 1
1, 0
0, 0
0, 0
0, 0
0, 1
1, 0
0, 0
0, 0
0, 1
1, 1
1, 0
0, 1
0, 0
1, 1
0, 0
1, 1
0, 0
1, 0
0, 0
0, 1
0, 0
0, 0
1, 0
1, 0
0, 0
0, 0
0, 0
1, 0
0, 0
0, 1
0, 0
0, 1
0, 0
0, 0
0, 1
1, 0
0, 0
0, 0
0, 0
0, 0
0, 0
0, 0
0, 0
0, 0
0, 0
0, 0
0, 0
0, 0
0, 0
0, 0
0, 0
0, 0
0, 0
0, 0
0, 0
0, 0
0, 0
0, 0
0, 0
0, 0
0, 0
0, 0
0, 0
0, 0
0, 0
0, 0
0, 0
0, 0
0, 0
0, 0
0, 0
0, 0
0, 0
0, 0
0, 0
0, 0
0, 0
0, 0
0, 0
0, 0
0, 0
0, 0
0, 0
0, 0
0, 0
0, 0
0, 0
0, 0
0, 0
0, 0
0, 0
0, 0
0, 0
0, 0
0, 0
0, 0
0, 0
0, 0
0, 0
0, 0
0, 0
0, 0
0, 0
0, 0
0, 0
0, 0
0, 0
0, 0
0, 0
0, 0
0, 0
0, 0
0, 0
0, 0
0, 0
0, 0
0, 0
0, 0
0, 0
0, 0
0, 0
0, 0
0, 0
0, 0
0, 0
0, 0
0, 0
0, 0
0, 0
0, 0
0, 0
0, 0
0, 0
0, 0
0, 0
#ENDOFDATA     end of spectrum data