File: host_upload/06-09-2024/ps_0852/dump3/ps__0852shot_2266.msa
#FORMAT      : EMSA/MAS spectral data file
#VERSION     : TC202v2.0 PIXL
#TITLE       : N/A
#DATE        :       Date in the format DD-MMM-YYYY, for example 07-JUL-2010
#TIME        :             The time of day at which the spectrum was recorded, in 24-hour format
#OWNER       : PIXL Flight Model       (PIXL will use this to indicate which instrument took the data.)
#NPOINTS     : 4096     Number of data points in the spectrum (This can be zero for configuration only files)
#NCOLUMNS    : 2     Number of data columns in the spectrum (This can be zero for configuration only files)
#XUNITS      : eV
#YUNITS      : COUNTS
#DATATYPE    : YY
#XPERCHAN    : 7.862, 7.881   eV per channel (separate by commas if more than one detector)
#OFFSET      : 18.5, -22.4         eV of first channel  (separate by commas if more than one detector
#SIGNALTYPE  : XRF
#YP_TEMP     : 2.364
#LIVETIME    : 8.56178, 8.35547   seconds (separate by commas if more than one detector)
#REALTIME    : 10, 10.0   seconds (separate by commas if more than one detector)
#SPECTRUM    : start of spectrum data
0, 0
0, 0
0, 0
0, 0
0, 0
0, 0
0, 0
0, 1
1, 18
0, 65
3, 23
58, 37
72, 69
7, 9
6, 14
110, 131
433, 434
118, 95
5, 8
1, 8
0, 8
4, 3
5, 11
9, 152
37, 2878
56, 4099
21, 414
15, 23
3, 7
3, 0
4, 4
2, 0
1, 6
11, 12
24, 29
7, 2
10, 16
19, 17
10, 22
4, 11
3, 7
8, 11
14, 10
16, 11
15, 6
13, 7
9, 3
8, 6
24, 15
40, 36
13, 27
13, 11
4, 16
45, 38
65, 65
22, 15
36, 35
438, 625
2072, 2346
1512, 1364
214, 113
39, 39
37, 73
76, 163
343, 345
228, 207
26, 30
7, 12
11, 15
13, 11
2, 3
5, 3
5, 2
14, 7
13, 9
5, 30
3, 31
4, 11
2, 4
4, 3
5, 2
1, 8
3, 6
9, 6
4, 4
16, 3
4, 5
7, 3
4, 6
4, 4
1, 4
3, 3
3, 4
0, 2
4, 2
5, 4
6, 7
6, 4
8, 9
3, 8
3, 5
0, 0
3, 2
3, 3
3, 2
0, 0
2, 2
4, 2
4, 5
3, 0
3, 2
5, 4
1, 6
0, 3
0, 3
1, 4
2, 4
4, 2
3, 1
1, 2
1, 5
2, 1
1, 1
1, 3
2, 2
0, 2
0, 2
2, 1
0, 3
0, 0
0, 0
1, 0
0, 3
1, 0
0, 3
1, 1
0, 1
2, 1
0, 2
1, 0
0, 2
1, 0
0, 1
0, 0
0, 0
0, 4
3, 0
0, 1
1, 0
0, 0
0, 0
0, 1
0, 0
0, 0
0, 0
0, 0
1, 0
0, 0
0, 1
0, 0
0, 0
0, 0
1, 1
0, 2
0, 0
0, 0
1, 0
0, 0
0, 0
0, 0
0, 0
0, 1
0, 0
0, 1
0, 0
0, 0
0, 1
0, 0
0, 0
0, 0
0, 0
0, 0
0, 0
0, 0
0, 0
0, 0
1, 0
0, 0
0, 0
0, 0
0, 0
0, 0
0, 0
1, 1
0, 0
0, 0
0, 0
0, 0
1, 0
0, 0
0, 0
0, 0
0, 1
0, 0
0, 0
0, 0
0, 0
0, 1
0, 0
0, 0
1, 0
0, 0
0, 0
0, 0
0, 0
0, 0
0, 0
0, 0
0, 0
0, 0
0, 0
0, 0
0, 0
0, 0
0, 0
0, 0
0, 0
0, 0
0, 0
0, 0
0, 0
0, 0
0, 0
0, 0
0, 0
0, 0
0, 0
0, 0
0, 0
0, 0
0, 0
0, 0
0, 0
0, 0
0, 0
0, 0
0, 0
0, 0
0, 0
0, 0
0, 0
0, 0
0, 0
0, 0
0, 0
0, 0
0, 0
0, 0
0, 0
0, 0
0, 0
0, 0
0, 0
0, 0
0, 0
0, 0
0, 0
0, 0
0, 0
0, 0
0, 0
0, 0
0, 0
0, 0
0, 0
0, 0
0, 0
0, 0
0, 0
0, 0
0, 0
0, 0
0, 0
0, 0
0, 0
0, 0
0, 0
0, 0
0, 0
0, 0
0, 0
0, 0
0, 0
0, 0
#ENDOFDATA     end of spectrum data