File: host_upload/06-09-2024/ps_0852/dump3/ps__0852shot_2236.msa
#FORMAT      : EMSA/MAS spectral data file
#VERSION     : TC202v2.0 PIXL
#TITLE       : N/A
#DATE        :       Date in the format DD-MMM-YYYY, for example 07-JUL-2010
#TIME        :             The time of day at which the spectrum was recorded, in 24-hour format
#OWNER       : PIXL Flight Model       (PIXL will use this to indicate which instrument took the data.)
#NPOINTS     : 4096     Number of data points in the spectrum (This can be zero for configuration only files)
#NCOLUMNS    : 2     Number of data columns in the spectrum (This can be zero for configuration only files)
#XUNITS      : eV
#YUNITS      : COUNTS
#DATATYPE    : YY
#XPERCHAN    : 7.862, 7.881   eV per channel (separate by commas if more than one detector)
#OFFSET      : 18.5, -22.4         eV of first channel  (separate by commas if more than one detector
#SIGNALTYPE  : XRF
#YP_TEMP     : 2.332
#LIVETIME    : 8.55082, 8.54141   seconds (separate by commas if more than one detector)
#REALTIME    : 10, 10.0   seconds (separate by commas if more than one detector)
#SPECTRUM    : start of spectrum data
0, 0
0, 0
0, 0
0, 0
0, 0
0, 0
0, 0
0, 1
1, 0
4, 1
3, 1
50, 34
62, 59
11, 7
9, 4
113, 76
477, 373
145, 93
7, 4
1, 1
2, 4
13, 11
10, 2
7, 4
36, 35
44, 26
45, 15
24, 13
4, 3
1, 2
4, 8
2, 6
6, 2
21, 19
29, 21
7, 1
4, 2
6, 6
14, 5
48, 4
60, 1
32, 2
14, 13
13, 17
5, 18
3, 9
2, 17
7, 9
6, 11
13, 5
21, 14
46, 7
80, 11
112, 36
99, 57
29, 19
41, 39
510, 575
2284, 2085
1750, 1274
196, 132
26, 11
15, 27
118, 127
353, 337
257, 184
35, 20
11, 6
19, 8
16, 8
1, 11
1, 4
0, 4
5, 5
9, 7
12, 7
12, 8
9, 18
12, 14
24, 6
9, 15
8, 12
5, 10
2, 5
3, 4
2, 4
2, 4
2, 2
2, 3
4, 4
6, 7
3, 5
9, 5
12, 22
4, 11
2, 3
2, 3
4, 0
2, 4
1, 4
1, 4
1, 2
1, 0
3, 4
5, 1
2, 2
2, 2
1, 1
1, 3
2, 1
1, 4
2, 1
1, 3
4, 2
5, 0
2, 2
3, 2
5, 0
4, 1
4, 1
0, 3
2, 0
3, 2
0, 1
1, 1
0, 1
1, 4
1, 2
0, 2
0, 0
1, 1
0, 2
1, 0
1, 0
1, 0
0, 0
1, 0
0, 0
3, 1
0, 0
0, 3
1, 0
0, 0
0, 0
0, 0
0, 2
0, 0
0, 0
1, 0
0, 1
0, 1
0, 0
1, 1
1, 1
0, 0
0, 0
0, 0
0, 0
0, 0
1, 0
0, 0
0, 0
0, 0
0, 0
0, 0
1, 0
0, 1
0, 0
0, 0
0, 0
0, 0
0, 0
0, 0
0, 0
0, 0
0, 0
2, 0
1, 0
0, 1
0, 0
0, 0
0, 0
1, 0
0, 0
0, 1
0, 0
0, 0
0, 0
0, 0
0, 0
0, 0
0, 0
0, 0
0, 0
0, 0
0, 0
0, 0
1, 0
0, 0
0, 0
0, 0
0, 0
0, 0
1, 0
0, 0
0, 0
0, 0
0, 0
0, 0
0, 0
0, 0
0, 0
0, 0
0, 0
0, 0
0, 0
0, 0
0, 0
0, 1
0, 0
0, 0
0, 0
0, 0
0, 0
0, 0
0, 0
0, 0
0, 0
0, 0
0, 0
0, 0
0, 0
0, 0
0, 0
0, 0
0, 0
0, 0
0, 0
0, 0
0, 0
0, 0
0, 0
0, 0
0, 0
0, 0
0, 0
0, 0
0, 0
0, 0
0, 0
0, 0
0, 0
0, 0
0, 0
0, 0
0, 0
0, 0
0, 0
0, 0
0, 0
0, 0
0, 0
0, 0
0, 0
0, 0
0, 0
0, 0
0, 0
0, 0
0, 0
0, 0
0, 0
0, 0
0, 0
0, 0
0, 0
0, 0
0, 0
0, 0
0, 0
0, 0
0, 0
0, 0
0, 0
0, 0
0, 0
0, 0
0, 0
0, 0
0, 0
0, 0
0, 0
0, 0
0, 0
#ENDOFDATA     end of spectrum data