File: host_upload/06-09-2024/ps_0852/dump3/ps__0852shot_2259.msa
#FORMAT      : EMSA/MAS spectral data file
#VERSION     : TC202v2.0 PIXL
#TITLE       : N/A
#DATE        :       Date in the format DD-MMM-YYYY, for example 07-JUL-2010
#TIME        :             The time of day at which the spectrum was recorded, in 24-hour format
#OWNER       : PIXL Flight Model       (PIXL will use this to indicate which instrument took the data.)
#NPOINTS     : 4096     Number of data points in the spectrum (This can be zero for configuration only files)
#NCOLUMNS    : 2     Number of data columns in the spectrum (This can be zero for configuration only files)
#XUNITS      : eV
#YUNITS      : COUNTS
#DATATYPE    : YY
#XPERCHAN    : 7.862, 7.881   eV per channel (separate by commas if more than one detector)
#OFFSET      : 18.5, -22.4         eV of first channel  (separate by commas if more than one detector
#SIGNALTYPE  : XRF
#YP_TEMP     : 2.396
#LIVETIME    : 8.5639, 8.57137   seconds (separate by commas if more than one detector)
#REALTIME    : 10, 10.0   seconds (separate by commas if more than one detector)
#SPECTRUM    : start of spectrum data
0, 0
0, 0
0, 0
0, 0
0, 0
0, 0
0, 0
0, 0
7, 2
9, 3
6, 0
38, 46
74, 56
11, 3
4, 4
75, 102
403, 435
100, 106
6, 3
4, 1
2, 0
3, 7
6, 1
36, 4
536, 25
930, 51
119, 32
17, 9
4, 4
3, 1
1, 3
2, 2
0, 5
18, 16
18, 20
5, 7
5, 3
27, 3
51, 3
15, 5
15, 3
11, 16
15, 22
12, 91
6, 94
3, 31
5, 4
5, 2
11, 15
26, 32
41, 29
35, 10
27, 12
48, 48
54, 69
27, 40
28, 81
429, 650
2005, 2437
1492, 1442
200, 185
38, 15
107, 20
193, 109
343, 377
249, 229
36, 19
7, 11
11, 13
7, 9
4, 5
5, 4
3, 9
9, 2
33, 4
59, 4
63, 6
22, 11
4, 4
3, 6
4, 6
5, 7
2, 3
0, 2
4, 1
5, 4
6, 8
2, 9
4, 7
4, 5
0, 2
3, 4
2, 5
5, 4
2, 5
1, 0
3, 2
1, 2
0, 3
5, 3
5, 4
6, 1
2, 4
2, 3
2, 4
3, 2
2, 3
2, 3
2, 1
1, 0
0, 2
1, 2
0, 3
1, 3
3, 2
3, 5
3, 6
4, 1
3, 3
2, 1
3, 1
5, 1
1, 0
1, 2
2, 1
1, 2
0, 1
1, 3
1, 4
1, 0
0, 1
0, 1
1, 1
0, 0
1, 1
2, 1
0, 0
1, 0
3, 2
0, 3
0, 2
0, 0
0, 0
0, 0
0, 0
0, 1
0, 0
0, 1
0, 0
0, 2
0, 0
1, 0
0, 0
1, 0
1, 0
0, 1
0, 0
1, 0
0, 1
0, 0
0, 0
0, 0
1, 0
0, 0
0, 1
0, 0
0, 0
1, 0
0, 0
0, 0
1, 0
0, 1
1, 0
0, 1
0, 0
0, 0
0, 0
0, 0
0, 0
0, 0
0, 0
0, 0
0, 0
0, 0
0, 0
0, 0
0, 0
0, 1
1, 0
0, 0
1, 0
0, 0
0, 0
0, 0
0, 0
0, 0
0, 0
0, 0
0, 0
0, 0
0, 0
0, 0
0, 0
0, 0
0, 0
0, 0
0, 0
0, 0
0, 0
1, 0
0, 0
0, 0
0, 0
0, 0
0, 0
0, 0
0, 0
0, 0
0, 0
0, 0
0, 0
0, 0
0, 0
0, 0
0, 0
0, 0
0, 0
0, 0
0, 0
0, 0
0, 0
0, 0
0, 0
0, 0
0, 0
0, 0
0, 0
0, 0
0, 0
0, 0
0, 0
0, 0
0, 0
0, 0
0, 0
0, 0
0, 0
0, 0
0, 0
0, 0
0, 0
0, 0
0, 0
0, 0
0, 0
0, 0
0, 0
0, 0
0, 0
0, 0
0, 0
0, 0
0, 0
0, 0
0, 0
0, 0
0, 0
0, 0
0, 0
0, 0
0, 0
0, 0
0, 0
0, 0
0, 0
0, 0
0, 0
0, 0
0, 0
0, 0
0, 0
0, 0
0, 0
0, 0
0, 0
0, 0
0, 0
0, 0
0, 0
0, 0
0, 0
0, 0
0, 0
0, 0
#ENDOFDATA     end of spectrum data