File: host_upload/06-09-2024/ps_0852/dump3/ps__0852shot_2499.msa
#FORMAT      : EMSA/MAS spectral data file
#VERSION     : TC202v2.0 PIXL
#TITLE       : N/A
#DATE        :       Date in the format DD-MMM-YYYY, for example 07-JUL-2010
#TIME        :             The time of day at which the spectrum was recorded, in 24-hour format
#OWNER       : PIXL Flight Model       (PIXL will use this to indicate which instrument took the data.)
#NPOINTS     : 4096     Number of data points in the spectrum (This can be zero for configuration only files)
#NCOLUMNS    : 2     Number of data columns in the spectrum (This can be zero for configuration only files)
#XUNITS      : eV
#YUNITS      : COUNTS
#DATATYPE    : YY
#XPERCHAN    : 7.862, 7.881   eV per channel (separate by commas if more than one detector)
#OFFSET      : 18.5, -22.4         eV of first channel  (separate by commas if more than one detector
#SIGNALTYPE  : XRF
#YP_TEMP     : 2.396
#LIVETIME    : 8.54292, 8.37685   seconds (separate by commas if more than one detector)
#REALTIME    : 10, 10.0   seconds (separate by commas if more than one detector)
#SPECTRUM    : start of spectrum data
0, 0
0, 0
0, 0
0, 0
0, 0
0, 0
0, 0
0, 0
0, 1
1, 1
2, 5
27, 34
44, 44
5, 6
4, 8
70, 91
390, 451
104, 94
5, 10
3, 0
1, 2
5, 4
1, 4
10, 20
49, 55
38, 39
20, 31
9, 13
6, 4
3, 1
2, 8
4, 1
5, 7
67, 84
124, 117
30, 11
36, 20
26, 18
6, 2
7, 7
13, 22
60, 52
28, 35
13, 7
7, 16
16, 11
11, 11
11, 17
88, 126
439, 520
335, 289
41, 38
11, 11
64, 77
135, 138
62, 53
33, 43
375, 526
1858, 2082
1331, 1220
167, 119
14, 18
9, 13
82, 125
307, 336
186, 189
30, 27
6, 7
12, 14
9, 8
8, 2
18, 4
21, 10
7, 8
14, 5
12, 9
4, 5
2, 4
2, 2
0, 5
4, 5
7, 4
3, 4
2, 8
3, 10
5, 18
6, 19
3, 8
5, 6
7, 0
2, 5
2, 3
3, 2
3, 1
2, 5
5, 3
3, 2
1, 2
2, 3
1, 4
3, 3
1, 3
0, 2
3, 3
2, 0
2, 1
3, 4
5, 7
3, 2
7, 5
3, 2
0, 5
3, 2
2, 2
3, 2
1, 0
1, 3
2, 0
0, 2
2, 1
0, 2
3, 3
2, 1
2, 0
2, 1
0, 3
2, 1
0, 1
0, 1
1, 2
2, 1
0, 0
2, 0
0, 0
3, 1
1, 2
0, 0
1, 0
0, 0
1, 0
0, 1
0, 0
0, 0
0, 0
0, 0
0, 1
1, 0
0, 0
2, 0
0, 0
0, 0
0, 0
0, 0
0, 0
1, 0
1, 0
1, 0
1, 1
1, 0
0, 0
0, 0
0, 0
0, 0
0, 0
0, 0
1, 0
1, 1
1, 0
1, 2
0, 0
0, 0
0, 0
0, 1
0, 1
0, 0
0, 0
0, 1
0, 1
0, 0
0, 0
0, 0
0, 0
0, 0
0, 0
0, 1
0, 0
0, 0
0, 0
0, 0
0, 0
0, 0
0, 0
0, 0
0, 0
0, 0
0, 0
0, 1
0, 0
0, 0
0, 0
0, 0
0, 0
0, 0
0, 0
0, 0
0, 0
0, 0
0, 0
0, 0
0, 0
0, 0
0, 0
0, 0
0, 0
0, 0
0, 0
0, 0
0, 0
0, 0
0, 0
0, 0
0, 0
0, 0
0, 0
0, 0
0, 0
0, 0
0, 0
0, 0
0, 0
0, 0
0, 0
0, 0
0, 0
0, 0
0, 0
0, 0
0, 0
0, 0
0, 0
0, 0
0, 0
0, 0
0, 0
0, 0
0, 0
0, 0
0, 0
0, 0
0, 0
0, 0
0, 0
0, 0
0, 0
0, 0
0, 0
0, 0
0, 0
0, 0
0, 0
0, 0
0, 0
0, 0
0, 0
0, 0
0, 0
0, 0
0, 0
0, 0
0, 0
0, 0
0, 0
0, 0
0, 0
0, 0
0, 0
0, 0
0, 0
0, 0
0, 0
0, 0
0, 0
0, 0
0, 0
0, 0
0, 0
0, 0
0, 0
0, 0
0, 0
0, 0
0, 0
0, 0
0, 0
#ENDOFDATA     end of spectrum data