File: host_upload/06-09-2024/ps_0852/dump3/ps__0852shot_2076.msa
#FORMAT      : EMSA/MAS spectral data file
#VERSION     : TC202v2.0 PIXL
#TITLE       : N/A
#DATE        :       Date in the format DD-MMM-YYYY, for example 07-JUL-2010
#TIME        :             The time of day at which the spectrum was recorded, in 24-hour format
#OWNER       : PIXL Flight Model       (PIXL will use this to indicate which instrument took the data.)
#NPOINTS     : 4096     Number of data points in the spectrum (This can be zero for configuration only files)
#NCOLUMNS    : 2     Number of data columns in the spectrum (This can be zero for configuration only files)
#XUNITS      : eV
#YUNITS      : COUNTS
#DATATYPE    : YY
#XPERCHAN    : 7.862, 7.881   eV per channel (separate by commas if more than one detector)
#OFFSET      : 18.5, -22.4         eV of first channel  (separate by commas if more than one detector
#SIGNALTYPE  : XRF
#YP_TEMP     : 2.267
#LIVETIME    : 8.57334, 8.56587   seconds (separate by commas if more than one detector)
#REALTIME    : 10, 10.0   seconds (separate by commas if more than one detector)
#SPECTRUM    : start of spectrum data
0, 0
0, 0
0, 0
0, 0
0, 0
0, 0
0, 0
0, 0
0, 1
1, 1
4, 1
44, 43
74, 50
6, 7
4, 4
89, 102
429, 396
110, 102
10, 7
3, 0
0, 0
8, 5
2, 10
12, 10
52, 57
78, 61
36, 31
13, 14
4, 9
2, 2
1, 1
4, 1
2, 6
23, 18
33, 26
15, 14
6, 9
9, 9
10, 14
10, 14
4, 4
16, 20
22, 25
16, 16
9, 11
10, 7
13, 13
8, 6
8, 11
27, 16
18, 20
15, 20
15, 16
48, 46
62, 63
30, 34
39, 50
491, 578
2191, 2260
1625, 1436
213, 173
45, 14
37, 24
103, 124
337, 357
220, 193
36, 38
8, 11
14, 19
10, 3
5, 4
2, 5
7, 3
7, 5
5, 11
6, 4
11, 4
4, 4
8, 2
4, 4
6, 4
7, 9
11, 8
6, 6
7, 8
4, 5
2, 5
1, 6
2, 4
5, 5
5, 2
4, 4
3, 6
4, 5
2, 4
5, 6
1, 3
3, 1
3, 9
3, 2
1, 4
2, 1
2, 3
3, 3
2, 6
0, 4
3, 2
5, 6
4, 1
2, 0
1, 2
2, 4
2, 0
4, 2
3, 2
4, 3
6, 4
2, 1
1, 1
0, 2
4, 1
0, 2
3, 2
0, 4
0, 0
2, 0
1, 1
1, 0
0, 0
0, 2
0, 1
2, 0
2, 1
1, 0
0, 1
1, 0
0, 1
2, 0
0, 1
0, 0
0, 1
0, 0
1, 2
0, 1
0, 0
0, 0
2, 3
2, 1
2, 0
0, 0
0, 0
0, 0
0, 0
0, 0
2, 0
0, 1
0, 2
0, 0
0, 0
0, 0
0, 1
2, 0
0, 0
0, 0
0, 0
1, 0
1, 0
0, 0
0, 0
0, 0
0, 0
0, 0
0, 0
0, 0
0, 0
0, 0
0, 1
0, 0
1, 0
0, 0
0, 0
1, 0
0, 0
0, 0
0, 0
0, 0
0, 0
0, 0
0, 0
0, 0
0, 1
0, 0
0, 0
0, 0
0, 0
0, 0
0, 0
0, 0
0, 0
0, 0
0, 0
0, 0
0, 1
0, 0
0, 0
0, 0
0, 0
0, 0
0, 0
0, 0
0, 0
0, 0
0, 0
0, 0
0, 0
0, 0
0, 0
0, 0
0, 0
0, 0
0, 0
0, 0
0, 0
0, 0
0, 0
0, 0
0, 0
0, 0
0, 0
0, 0
0, 0
0, 0
0, 0
0, 0
0, 0
0, 0
0, 0
0, 0
0, 0
0, 0
0, 0
0, 0
0, 0
0, 0
0, 0
0, 0
0, 0
0, 0
0, 0
0, 0
0, 0
0, 0
0, 0
0, 0
0, 0
0, 0
0, 0
0, 0
0, 0
0, 0
0, 0
0, 0
0, 0
0, 0
0, 0
0, 0
0, 0
0, 0
0, 0
0, 0
0, 0
0, 0
0, 0
0, 0
0, 0
0, 0
0, 0
0, 0
0, 0
0, 0
0, 0
0, 0
0, 0
0, 0
0, 0
0, 0
0, 0
0, 0
0, 0
0, 0
0, 0
0, 0
0, 0
0, 0
#ENDOFDATA     end of spectrum data