File: host_upload/06-09-2024/ps_0852/dump3/ps__0852shot_2241.msa
#FORMAT      : EMSA/MAS spectral data file
#VERSION     : TC202v2.0 PIXL
#TITLE       : N/A
#DATE        :       Date in the format DD-MMM-YYYY, for example 07-JUL-2010
#TIME        :             The time of day at which the spectrum was recorded, in 24-hour format
#OWNER       : PIXL Flight Model       (PIXL will use this to indicate which instrument took the data.)
#NPOINTS     : 4096     Number of data points in the spectrum (This can be zero for configuration only files)
#NCOLUMNS    : 2     Number of data columns in the spectrum (This can be zero for configuration only files)
#XUNITS      : eV
#YUNITS      : COUNTS
#DATATYPE    : YY
#XPERCHAN    : 7.862, 7.881   eV per channel (separate by commas if more than one detector)
#OFFSET      : 18.5, -22.4         eV of first channel  (separate by commas if more than one detector
#SIGNALTYPE  : XRF
#YP_TEMP     : 2.235
#LIVETIME    : 8.54141, 8.5526   seconds (separate by commas if more than one detector)
#REALTIME    : 10, 10.0   seconds (separate by commas if more than one detector)
#SPECTRUM    : start of spectrum data
0, 0
0, 0
0, 0
0, 0
0, 0
0, 0
0, 0
0, 0
2, 1
2, 2
3, 2
52, 44
61, 45
12, 9
15, 8
104, 109
410, 419
104, 100
13, 5
10, 5
10, 3
23, 3
3, 3
10, 9
47, 49
34, 38
34, 27
16, 10
6, 5
3, 2
8, 7
7, 10
6, 5
30, 31
69, 53
11, 6
6, 8
13, 12
7, 3
36, 8
65, 4
31, 22
17, 16
11, 9
7, 3
10, 12
17, 12
9, 12
5, 9
13, 20
18, 29
16, 12
50, 11
120, 45
86, 63
29, 16
39, 39
458, 587
2108, 2132
1613, 1248
190, 142
26, 16
15, 26
104, 111
349, 343
240, 171
48, 21
8, 12
12, 7
12, 9
6, 3
2, 4
9, 6
2, 3
4, 6
8, 8
7, 5
5, 6
14, 6
13, 5
8, 4
5, 13
4, 8
5, 4
3, 1
1, 0
5, 3
2, 3
0, 5
3, 6
5, 5
3, 2
15, 12
8, 6
3, 8
2, 5
3, 3
5, 0
4, 3
5, 0
3, 4
2, 4
2, 2
3, 1
0, 1
2, 3
6, 0
2, 2
2, 0
2, 4
2, 0
4, 3
4, 2
0, 2
2, 2
3, 3
7, 3
2, 2
5, 2
3, 3
1, 1
3, 1
3, 0
0, 0
1, 0
1, 3
2, 0
0, 1
2, 1
5, 1
1, 0
0, 1
3, 1
1, 1
2, 1
1, 1
2, 1
2, 0
0, 0
2, 2
0, 1
0, 0
0, 1
0, 0
0, 0
0, 0
0, 3
0, 1
1, 0
0, 0
0, 0
0, 0
0, 0
0, 0
1, 0
0, 0
0, 0
1, 1
1, 0
0, 1
0, 0
0, 0
1, 0
0, 0
0, 0
0, 1
0, 0
0, 0
0, 2
0, 0
0, 1
0, 0
1, 0
0, 1
0, 0
0, 0
0, 0
0, 0
0, 0
0, 0
0, 0
0, 0
0, 0
0, 0
0, 0
0, 0
0, 0
0, 0
0, 0
0, 0
0, 0
0, 1
0, 0
0, 0
0, 0
0, 0
0, 0
0, 0
0, 0
0, 0
0, 0
0, 0
1, 0
0, 0
0, 0
0, 0
0, 0
0, 0
0, 0
0, 0
0, 0
0, 0
0, 0
0, 0
0, 0
0, 0
0, 0
0, 0
0, 0
0, 0
0, 0
0, 0
0, 0
0, 0
0, 0
0, 0
0, 0
0, 0
0, 0
0, 0
0, 0
0, 0
0, 0
0, 0
0, 0
0, 0
0, 0
0, 0
0, 0
0, 0
0, 0
0, 0
0, 0
0, 0
0, 0
0, 0
0, 0
0, 0
0, 0
0, 0
0, 0
0, 0
0, 0
0, 0
0, 0
0, 0
0, 0
0, 0
0, 0
0, 0
0, 0
0, 0
0, 0
0, 0
0, 0
0, 0
0, 0
0, 0
0, 0
0, 0
0, 0
0, 0
0, 0
0, 0
0, 0
0, 0
0, 0
0, 0
0, 0
0, 0
0, 0
0, 0
0, 0
0, 0
0, 0
0, 0
0, 0
0, 0
0, 0
0, 0
0, 0
0, 0
0, 0
0, 0
#ENDOFDATA     end of spectrum data