File: host_upload/06-09-2024/ps_0852/dump3/ps__0852shot_2268.msa
#FORMAT      : EMSA/MAS spectral data file
#VERSION     : TC202v2.0 PIXL
#TITLE       : N/A
#DATE        :       Date in the format DD-MMM-YYYY, for example 07-JUL-2010
#TIME        :             The time of day at which the spectrum was recorded, in 24-hour format
#OWNER       : PIXL Flight Model       (PIXL will use this to indicate which instrument took the data.)
#NPOINTS     : 4096     Number of data points in the spectrum (This can be zero for configuration only files)
#NCOLUMNS    : 2     Number of data columns in the spectrum (This can be zero for configuration only files)
#XUNITS      : eV
#YUNITS      : COUNTS
#DATATYPE    : YY
#XPERCHAN    : 7.862, 7.881   eV per channel (separate by commas if more than one detector)
#OFFSET      : 18.5, -22.4         eV of first channel  (separate by commas if more than one detector
#SIGNALTYPE  : XRF
#YP_TEMP     : 2.3
#LIVETIME    : 8.58069, 8.5567   seconds (separate by commas if more than one detector)
#REALTIME    : 10, 10.0   seconds (separate by commas if more than one detector)
#SPECTRUM    : start of spectrum data
0, 0
0, 0
0, 0
0, 0
0, 0
0, 0
0, 0
0, 0
0, 3
0, 0
3, 5
47, 64
66, 61
6, 5
0, 7
101, 128
457, 432
116, 108
7, 7
0, 3
0, 1
2, 2
7, 1
8, 5
25, 49
29, 47
22, 15
10, 12
7, 8
9, 6
10, 5
2, 5
3, 3
12, 10
19, 16
5, 7
9, 25
10, 10
11, 11
15, 14
6, 7
9, 11
10, 17
38, 23
142, 62
60, 37
15, 10
11, 3
16, 8
34, 13
23, 15
8, 5
13, 14
38, 56
58, 54
12, 25
36, 41
438, 574
2065, 2299
1573, 1410
196, 117
22, 10
18, 20
98, 134
334, 368
204, 207
37, 21
5, 6
10, 12
10, 9
7, 6
6, 10
9, 19
19, 10
25, 12
12, 1
4, 2
3, 7
3, 4
4, 3
4, 3
0, 5
4, 7
1, 4
5, 2
2, 6
2, 6
5, 4
9, 8
5, 1
3, 3
1, 2
2, 2
7, 3
8, 3
8, 6
8, 2
3, 4
4, 1
4, 3
2, 2
1, 3
1, 1
5, 2
2, 4
3, 3
2, 0
0, 1
3, 1
1, 2
4, 2
1, 2
3, 1
3, 0
3, 3
1, 2
2, 2
4, 0
3, 1
2, 1
0, 0
3, 5
1, 3
1, 0
1, 4
1, 1
2, 4
0, 4
1, 0
1, 1
1, 1
1, 1
2, 1
2, 1
2, 0
0, 0
0, 0
2, 0
0, 0
1, 1
0, 1
1, 1
1, 0
1, 0
0, 0
0, 1
0, 1
0, 1
0, 0
0, 0
0, 0
0, 0
1, 2
0, 1
1, 0
0, 1
0, 0
0, 0
2, 0
0, 0
2, 2
1, 0
0, 0
0, 0
0, 0
0, 0
0, 0
0, 0
0, 0
0, 1
2, 0
0, 0
1, 0
0, 0
0, 0
0, 1
0, 1
0, 1
0, 0
0, 0
0, 0
0, 0
0, 0
0, 0
0, 0
0, 0
0, 0
0, 0
0, 0
0, 0
0, 0
0, 0
0, 0
0, 0
1, 1
0, 0
0, 0
0, 0
0, 0
0, 0
0, 0
1, 0
0, 0
0, 0
0, 0
0, 0
0, 0
0, 0
0, 0
0, 0
0, 0
0, 0
0, 0
0, 0
0, 0
0, 0
0, 0
0, 0
0, 0
0, 0
0, 0
0, 0
0, 0
0, 0
0, 0
0, 0
0, 0
0, 0
0, 0
0, 0
0, 0
0, 0
0, 0
0, 0
0, 0
0, 0
0, 0
0, 0
0, 0
0, 0
0, 0
0, 0
0, 0
0, 0
0, 0
0, 0
0, 0
0, 0
0, 0
0, 0
0, 0
0, 0
0, 0
0, 0
0, 0
0, 0
0, 0
0, 0
0, 0
0, 0
0, 0
0, 0
0, 0
0, 0
0, 0
0, 0
0, 0
0, 0
0, 0
0, 0
0, 0
0, 0
0, 0
0, 0
0, 0
0, 0
0, 0
0, 0
0, 0
0, 0
0, 0
0, 0
0, 0
0, 0
0, 0
0, 0
0, 0
0, 0
0, 0
0, 0
0, 0
0, 0
0, 0
0, 0
#ENDOFDATA     end of spectrum data