File: host_upload/06-09-2024/ps_0852/dump3/ps__0852shot_2490.msa
#FORMAT      : EMSA/MAS spectral data file
#VERSION     : TC202v2.0 PIXL
#TITLE       : N/A
#DATE        :       Date in the format DD-MMM-YYYY, for example 07-JUL-2010
#TIME        :             The time of day at which the spectrum was recorded, in 24-hour format
#OWNER       : PIXL Flight Model       (PIXL will use this to indicate which instrument took the data.)
#NPOINTS     : 4096     Number of data points in the spectrum (This can be zero for configuration only files)
#NCOLUMNS    : 2     Number of data columns in the spectrum (This can be zero for configuration only files)
#XUNITS      : eV
#YUNITS      : COUNTS
#DATATYPE    : YY
#XPERCHAN    : 7.862, 7.881   eV per channel (separate by commas if more than one detector)
#OFFSET      : 18.5, -22.4         eV of first channel  (separate by commas if more than one detector
#SIGNALTYPE  : XRF
#YP_TEMP     : 2.203
#LIVETIME    : 8.56169, 8.56442   seconds (separate by commas if more than one detector)
#REALTIME    : 10, 10.0   seconds (separate by commas if more than one detector)
#SPECTRUM    : start of spectrum data
0, 0
0, 0
0, 0
0, 0
0, 0
0, 0
0, 0
0, 0
0, 0
2, 0
5, 4
52, 41
59, 69
5, 3
4, 4
86, 90
439, 408
74, 91
7, 5
2, 3
1, 3
3, 8
8, 3
8, 10
71, 25
96, 33
126, 19
133, 8
16, 8
4, 2
5, 4
2, 5
3, 4
6, 15
16, 16
4, 3
3, 8
4, 3
6, 5
4, 7
8, 5
35, 12
121, 18
58, 10
9, 7
6, 7
3, 5
6, 6
7, 10
10, 13
9, 12
10, 7
31, 10
79, 60
61, 110
23, 96
41, 89
485, 612
2113, 2287
1623, 1405
187, 144
11, 11
19, 27
99, 133
327, 335
236, 180
32, 24
12, 7
14, 13
15, 9
4, 2
3, 1
4, 2
2, 5
4, 9
2, 8
4, 6
5, 4
4, 4
3, 5
5, 3
4, 4
3, 1
11, 3
13, 1
10, 1
6, 4
2, 5
5, 4
2, 3
8, 1
17, 1
13, 2
6, 3
1, 3
3, 8
2, 9
2, 0
3, 2
3, 2
3, 2
4, 2
1, 3
1, 4
3, 2
3, 1
3, 0
1, 2
2, 3
1, 4
0, 3
1, 2
0, 3
1, 2
1, 1
3, 2
2, 2
3, 1
3, 2
0, 2
1, 2
4, 0
8, 1
3, 3
0, 0
6, 0
5, 1
2, 0
2, 1
0, 0
0, 2
1, 2
1, 0
0, 2
1, 0
0, 1
1, 1
0, 1
2, 0
0, 0
0, 0
0, 0
1, 0
1, 0
2, 1
0, 0
2, 0
0, 0
0, 1
0, 0
0, 0
1, 0
2, 0
0, 0
0, 0
0, 0
0, 0
1, 0
1, 2
0, 0
0, 0
0, 0
0, 0
0, 0
0, 0
0, 1
0, 0
0, 0
0, 0
0, 0
0, 1
0, 1
1, 2
0, 0
0, 0
0, 0
0, 0
0, 0
0, 1
0, 0
0, 0
0, 0
1, 0
0, 0
0, 0
0, 0
1, 0
0, 0
0, 0
0, 0
0, 1
0, 0
0, 0
0, 0
0, 0
0, 0
0, 0
0, 0
1, 0
0, 0
0, 0
0, 0
0, 0
0, 0
0, 0
0, 0
0, 0
0, 0
0, 0
0, 0
0, 0
0, 0
0, 0
0, 0
0, 0
0, 0
0, 0
0, 0
0, 0
0, 0
0, 0
0, 0
0, 0
0, 0
0, 0
0, 0
0, 0
0, 0
0, 0
0, 0
0, 0
0, 0
0, 0
0, 0
0, 0
0, 0
0, 0
0, 0
0, 0
0, 0
0, 0
0, 0
0, 0
0, 0
0, 0
0, 0
0, 0
0, 0
0, 0
0, 0
0, 0
0, 0
0, 0
0, 0
0, 0
0, 0
0, 0
0, 0
0, 0
0, 0
0, 0
0, 0
0, 0
0, 0
0, 0
0, 0
0, 0
0, 0
0, 0
0, 0
0, 0
0, 0
0, 0
0, 0
0, 0
0, 0
0, 0
0, 0
0, 0
0, 0
0, 0
0, 0
0, 0
0, 0
0, 0
0, 0
0, 0
0, 0
0, 0
0, 0
0, 0
0, 0
0, 0
0, 0
#ENDOFDATA     end of spectrum data