File: host_upload/06-09-2024/ps_0852/dump3/ps__0852shot_2179.msa
#FORMAT      : EMSA/MAS spectral data file
#VERSION     : TC202v2.0 PIXL
#TITLE       : N/A
#DATE        :       Date in the format DD-MMM-YYYY, for example 07-JUL-2010
#TIME        :             The time of day at which the spectrum was recorded, in 24-hour format
#OWNER       : PIXL Flight Model       (PIXL will use this to indicate which instrument took the data.)
#NPOINTS     : 4096     Number of data points in the spectrum (This can be zero for configuration only files)
#NCOLUMNS    : 2     Number of data columns in the spectrum (This can be zero for configuration only files)
#XUNITS      : eV
#YUNITS      : COUNTS
#DATATYPE    : YY
#XPERCHAN    : 7.862, 7.881   eV per channel (separate by commas if more than one detector)
#OFFSET      : 18.5, -22.4         eV of first channel  (separate by commas if more than one detector
#SIGNALTYPE  : XRF
#YP_TEMP     : 2.492
#LIVETIME    : 8.54828, 8.55132   seconds (separate by commas if more than one detector)
#REALTIME    : 10, 10.0   seconds (separate by commas if more than one detector)
#SPECTRUM    : start of spectrum data
0, 0
0, 0
0, 0
0, 0
0, 0
0, 0
0, 0
0, 0
0, 2
2, 0
0, 2
56, 35
78, 67
5, 1
5, 4
118, 82
421, 350
109, 84
6, 5
2, 0
0, 3
2, 4
3, 1
6, 12
35, 58
38, 70
31, 25
13, 2
1, 6
1, 3
2, 6
0, 1
3, 4
13, 8
14, 20
9, 4
4, 3
5, 3
7, 11
9, 24
9, 3
7, 7
18, 11
12, 16
8, 35
7, 16
5, 7
7, 3
9, 3
29, 19
21, 16
12, 10
13, 11
41, 46
78, 59
29, 20
40, 46
509, 561
2357, 2218
1738, 1280
225, 120
18, 14
19, 18
96, 118
381, 338
235, 160
34, 27
3, 7
20, 19
12, 6
5, 2
6, 4
4, 9
10, 10
8, 10
6, 5
6, 4
18, 9
15, 8
11, 5
5, 1
1, 2
2, 4
3, 5
1, 6
1, 5
2, 4
6, 5
5, 2
4, 4
1, 0
6, 6
2, 3
3, 7
0, 4
3, 9
3, 3
4, 1
3, 6
2, 4
2, 5
3, 3
1, 1
3, 3
1, 1
1, 0
1, 4
1, 0
3, 3
2, 1
2, 3
2, 1
4, 3
1, 0
1, 1
1, 4
5, 5
4, 3
3, 2
2, 0
3, 1
2, 2
3, 1
3, 2
3, 1
0, 0
0, 1
1, 0
0, 1
0, 0
0, 0
0, 1
1, 0
1, 0
1, 0
0, 1
0, 0
0, 0
0, 0
0, 0
1, 0
0, 0
0, 0
1, 0
1, 0
0, 1
0, 0
0, 1
0, 0
0, 0
0, 1
0, 0
0, 1
0, 1
0, 0
1, 0
1, 0
0, 1
0, 0
0, 0
0, 0
1, 0
0, 0
0, 1
0, 0
0, 0
1, 0
0, 0
0, 1
0, 0
0, 0
0, 0
1, 0
0, 0
0, 0
0, 0
1, 0
0, 0
0, 0
0, 0
0, 1
0, 0
0, 1
0, 0
0, 0
0, 0
0, 0
0, 0
0, 0
0, 0
0, 0
0, 0
0, 0
0, 0
0, 0
0, 0
0, 0
0, 0
0, 0
0, 1
0, 0
0, 0
0, 0
1, 0
0, 0
0, 0
0, 0
0, 0
0, 0
0, 0
0, 0
0, 0
0, 0
0, 0
0, 0
0, 0
0, 0
0, 0
0, 0
0, 0
0, 0
0, 0
0, 0
0, 0
0, 0
0, 0
0, 0
0, 0
0, 0
0, 0
0, 0
0, 0
0, 0
0, 0
0, 0
0, 0
0, 0
0, 0
0, 0
0, 0
0, 0
0, 0
0, 0
0, 0
0, 0
0, 0
0, 0
0, 0
0, 0
0, 0
0, 0
0, 0
0, 0
0, 0
0, 0
0, 0
0, 0
0, 0
0, 0
0, 0
0, 0
0, 0
0, 0
0, 0
0, 0
0, 0
0, 0
0, 0
0, 0
0, 0
0, 0
0, 0
0, 0
0, 0
0, 0
0, 0
0, 0
0, 0
0, 0
0, 0
0, 0
0, 0
0, 0
0, 0
0, 0
0, 0
0, 0
0, 0
0, 0
0, 0
0, 0
0, 0
0, 0
0, 0
#ENDOFDATA     end of spectrum data