File: host_upload/06-09-2024/ps_0852/dump3/ps__0852shot_2385.msa
#FORMAT      : EMSA/MAS spectral data file
#VERSION     : TC202v2.0 PIXL
#TITLE       : N/A
#DATE        :       Date in the format DD-MMM-YYYY, for example 07-JUL-2010
#TIME        :             The time of day at which the spectrum was recorded, in 24-hour format
#OWNER       : PIXL Flight Model       (PIXL will use this to indicate which instrument took the data.)
#NPOINTS     : 4096     Number of data points in the spectrum (This can be zero for configuration only files)
#NCOLUMNS    : 2     Number of data columns in the spectrum (This can be zero for configuration only files)
#XUNITS      : eV
#YUNITS      : COUNTS
#DATATYPE    : YY
#XPERCHAN    : 7.862, 7.881   eV per channel (separate by commas if more than one detector)
#OFFSET      : 18.5, -22.4         eV of first channel  (separate by commas if more than one detector
#SIGNALTYPE  : XRF
#YP_TEMP     : 2.203
#LIVETIME    : 8.57941, 8.59273   seconds (separate by commas if more than one detector)
#REALTIME    : 10, 10.0   seconds (separate by commas if more than one detector)
#SPECTRUM    : start of spectrum data
0, 0
0, 0
0, 0
0, 0
0, 0
0, 0
0, 0
0, 0
1, 0
0, 0
0, 0
34, 48
49, 60
9, 6
6, 7
119, 100
429, 460
115, 110
16, 11
8, 9
7, 2
12, 3
4, 3
15, 19
50, 58
54, 54
27, 26
15, 15
10, 4
4, 5
7, 16
12, 5
2, 4
21, 20
27, 36
8, 6
6, 7
8, 4
5, 4
3, 4
9, 12
19, 13
39, 22
19, 7
11, 6
8, 11
6, 5
6, 3
9, 10
23, 12
55, 11
40, 8
7, 17
38, 48
66, 71
22, 23
28, 94
490, 735
2150, 2307
1651, 1401
222, 137
16, 21
17, 14
113, 137
324, 346
225, 207
42, 18
7, 3
19, 9
17, 6
11, 4
3, 3
6, 2
7, 7
7, 7
8, 6
2, 2
8, 2
4, 2
4, 3
1, 1
17, 21
31, 25
13, 10
4, 5
1, 1
4, 6
4, 4
4, 1
3, 4
5, 3
2, 1
2, 1
2, 2
2, 5
1, 2
3, 4
2, 4
4, 5
2, 3
10, 2
6, 2
6, 2
0, 3
2, 7
0, 4
3, 4
3, 2
6, 1
1, 0
0, 1
0, 2
1, 3
3, 8
1, 2
2, 3
5, 5
3, 2
1, 2
2, 3
1, 3
0, 2
3, 4
3, 1
4, 1
0, 2
0, 1
0, 1
0, 1
0, 2
1, 1
0, 0
0, 1
1, 0
0, 2
0, 3
0, 1
0, 1
0, 0
0, 0
0, 1
0, 0
0, 0
0, 0
0, 0
0, 0
1, 1
0, 0
1, 1
1, 0
0, 0
1, 0
0, 0
1, 1
0, 0
1, 1
1, 0
1, 1
0, 0
0, 0
0, 0
0, 0
0, 0
0, 0
0, 0
1, 0
0, 0
0, 0
0, 0
0, 0
1, 1
1, 0
0, 0
1, 0
0, 0
0, 0
0, 0
0, 0
0, 1
0, 0
0, 0
0, 0
0, 0
0, 0
0, 0
0, 0
0, 0
0, 0
1, 0
0, 0
1, 0
0, 0
0, 0
0, 0
0, 1
0, 0
0, 0
1, 0
0, 0
0, 0
0, 0
0, 0
1, 0
0, 0
0, 0
0, 0
0, 0
0, 0
0, 0
0, 0
0, 0
0, 0
0, 0
0, 0
0, 0
0, 0
0, 0
0, 0
0, 0
0, 0
0, 0
0, 0
0, 0
0, 0
0, 0
0, 0
0, 0
0, 0
0, 0
0, 0
0, 0
0, 0
0, 0
0, 0
0, 0
0, 0
0, 0
0, 0
0, 0
0, 0
0, 0
0, 0
0, 0
0, 0
0, 0
0, 0
0, 0
0, 0
0, 0
0, 0
0, 0
0, 0
0, 0
0, 0
0, 0
0, 0
0, 0
0, 0
0, 0
0, 0
0, 0
0, 0
0, 0
0, 0
0, 0
0, 0
0, 0
0, 0
0, 0
0, 0
0, 0
0, 0
0, 0
0, 0
0, 0
0, 0
0, 0
0, 0
0, 0
0, 0
0, 0
0, 0
0, 0
0, 0
0, 0
0, 0
0, 0
0, 0
0, 0
0, 0
0, 0
0, 0
0, 0
0, 0
#ENDOFDATA     end of spectrum data