File: host_upload/06-09-2024/ps_0852/dump3/ps__0852shot_2003.msa
#FORMAT      : EMSA/MAS spectral data file
#VERSION     : TC202v2.0 PIXL
#TITLE       : N/A
#DATE        :       Date in the format DD-MMM-YYYY, for example 07-JUL-2010
#TIME        :             The time of day at which the spectrum was recorded, in 24-hour format
#OWNER       : PIXL Flight Model       (PIXL will use this to indicate which instrument took the data.)
#NPOINTS     : 4096     Number of data points in the spectrum (This can be zero for configuration only files)
#NCOLUMNS    : 2     Number of data columns in the spectrum (This can be zero for configuration only files)
#XUNITS      : eV
#YUNITS      : COUNTS
#DATATYPE    : YY
#XPERCHAN    : 7.862, 7.881   eV per channel (separate by commas if more than one detector)
#OFFSET      : 18.5, -22.4         eV of first channel  (separate by commas if more than one detector
#SIGNALTYPE  : XRF
#YP_TEMP     : 2.235
#LIVETIME    : 8.55289, 8.53437   seconds (separate by commas if more than one detector)
#REALTIME    : 10, 10.0   seconds (separate by commas if more than one detector)
#SPECTRUM    : start of spectrum data
0, 0
0, 0
0, 0
0, 0
0, 0
0, 0
0, 0
0, 0
1, 2
0, 1
5, 1
57, 38
59, 59
5, 6
4, 5
84, 113
412, 417
81, 97
4, 4
1, 2
1, 2
7, 5
4, 5
6, 8
21, 34
34, 46
26, 20
12, 6
4, 5
2, 8
1, 6
2, 3
1, 3
10, 36
23, 32
8, 10
11, 10
8, 5
2, 5
4, 18
3, 6
9, 12
12, 23
5, 37
8, 59
11, 32
29, 5
8, 3
12, 9
23, 18
19, 16
15, 12
15, 10
35, 52
58, 64
31, 23
44, 38
480, 602
2054, 2285
1484, 1370
201, 124
16, 11
19, 29
87, 133
303, 347
230, 179
33, 26
8, 7
13, 21
13, 5
10, 3
1, 3
5, 3
4, 10
4, 12
13, 5
9, 5
9, 2
7, 4
4, 2
3, 9
6, 3
2, 7
4, 5
5, 4
2, 1
5, 3
3, 4
3, 4
3, 3
5, 2
3, 3
5, 4
3, 6
1, 12
3, 11
1, 2
5, 3
4, 4
6, 4
1, 4
3, 5
3, 4
2, 3
2, 2
1, 1
2, 4
0, 5
2, 2
1, 1
4, 2
2, 3
1, 5
1, 0
3, 2
5, 3
5, 2
1, 1
1, 3
1, 5
3, 2
2, 1
4, 4
3, 2
3, 1
0, 0
4, 1
1, 3
0, 1
1, 0
0, 2
0, 1
2, 1
0, 2
0, 0
1, 0
2, 2
2, 1
1, 0
0, 0
1, 2
2, 1
0, 0
0, 0
0, 1
0, 0
0, 0
0, 0
0, 1
1, 0
0, 1
0, 0
0, 0
0, 1
0, 2
0, 0
1, 1
1, 0
0, 0
1, 0
0, 1
0, 1
0, 1
0, 0
3, 0
1, 0
0, 0
0, 1
0, 0
0, 0
1, 0
0, 0
0, 0
1, 0
0, 1
0, 0
0, 0
0, 0
0, 1
0, 0
0, 0
0, 0
0, 0
0, 0
1, 0
0, 0
0, 0
0, 0
0, 0
0, 1
0, 0
0, 0
0, 0
0, 0
0, 0
1, 0
0, 0
0, 0
0, 0
1, 0
0, 0
0, 0
0, 0
0, 0
0, 0
0, 0
0, 0
0, 0
0, 1
0, 0
0, 0
0, 0
0, 0
0, 0
0, 0
0, 0
0, 0
0, 0
0, 0
0, 0
0, 0
0, 0
0, 0
0, 0
0, 0
0, 0
0, 0
0, 0
0, 0
0, 0
0, 0
0, 0
0, 0
0, 0
0, 0
0, 0
0, 0
0, 0
0, 0
0, 0
0, 0
0, 0
0, 0
0, 0
0, 0
0, 0
0, 0
0, 0
0, 0
0, 0
0, 0
0, 0
0, 0
0, 0
0, 0
0, 0
0, 0
0, 0
0, 0
0, 0
0, 0
0, 0
0, 0
0, 0
0, 0
0, 0
0, 0
0, 0
0, 0
0, 0
0, 0
0, 0
0, 0
0, 0
0, 0
0, 0
0, 0
0, 0
0, 0
0, 0
0, 0
0, 0
0, 0
0, 0
0, 0
0, 0
0, 0
0, 0
0, 0
0, 0
0, 0
0, 0
0, 0
0, 0
#ENDOFDATA     end of spectrum data