File: host_upload/06-09-2024/ps_0852/dump3/ps__0852shot_2304.msa
#FORMAT      : EMSA/MAS spectral data file
#VERSION     : TC202v2.0 PIXL
#TITLE       : N/A
#DATE        :       Date in the format DD-MMM-YYYY, for example 07-JUL-2010
#TIME        :             The time of day at which the spectrum was recorded, in 24-hour format
#OWNER       : PIXL Flight Model       (PIXL will use this to indicate which instrument took the data.)
#NPOINTS     : 4096     Number of data points in the spectrum (This can be zero for configuration only files)
#NCOLUMNS    : 2     Number of data columns in the spectrum (This can be zero for configuration only files)
#XUNITS      : eV
#YUNITS      : COUNTS
#DATATYPE    : YY
#XPERCHAN    : 7.862, 7.881   eV per channel (separate by commas if more than one detector)
#OFFSET      : 18.5, -22.4         eV of first channel  (separate by commas if more than one detector
#SIGNALTYPE  : XRF
#YP_TEMP     : 2.524
#LIVETIME    : 8.55227, 8.57241   seconds (separate by commas if more than one detector)
#REALTIME    : 10, 10.0   seconds (separate by commas if more than one detector)
#SPECTRUM    : start of spectrum data
0, 0
0, 0
0, 0
0, 0
0, 0
0, 0
0, 0
0, 1
0, 0
0, 0
1, 2
51, 44
57, 59
9, 4
3, 4
106, 110
519, 488
115, 111
8, 11
0, 3
0, 2
1, 2
2, 1
6, 4
36, 23
60, 42
42, 17
18, 13
4, 8
5, 2
1, 3
1, 3
12, 15
123, 148
216, 226
41, 33
21, 29
33, 32
5, 8
6, 4
7, 3
18, 15
17, 16
12, 7
9, 6
22, 5
16, 6
7, 6
9, 13
38, 39
27, 26
28, 15
12, 21
60, 33
66, 62
23, 24
17, 40
369, 455
1730, 1881
1173, 1105
150, 98
15, 20
16, 33
79, 117
226, 260
152, 181
19, 14
14, 13
7, 13
6, 11
7, 10
3, 4
6, 1
4, 2
9, 11
12, 9
9, 3
15, 4
5, 6
9, 8
6, 2
6, 15
5, 21
0, 11
4, 6
5, 5
5, 3
3, 4
7, 4
6, 4
2, 4
4, 6
7, 2
4, 6
3, 6
6, 3
3, 3
0, 1
2, 2
4, 2
7, 6
3, 10
7, 4
4, 3
3, 0
3, 3
2, 2
3, 2
2, 6
2, 2
4, 0
2, 2
2, 5
2, 1
6, 1
4, 1
2, 4
1, 3
2, 1
1, 1
1, 3
4, 2
2, 0
1, 3
0, 4
1, 0
0, 1
2, 2
0, 0
2, 1
0, 1
0, 1
2, 1
1, 0
1, 2
2, 0
1, 1
1, 2
0, 0
0, 2
0, 0
1, 2
0, 0
0, 1
1, 2
0, 0
0, 0
0, 1
0, 0
1, 0
0, 1
0, 0
0, 0
2, 0
2, 1
0, 1
0, 1
0, 0
0, 1
0, 0
0, 0
0, 0
0, 0
0, 1
0, 0
1, 0
0, 0
0, 1
1, 0
0, 0
0, 1
0, 0
0, 0
0, 0
0, 0
0, 0
0, 1
1, 0
0, 1
0, 1
0, 0
0, 0
0, 0
1, 0
0, 0
0, 0
0, 0
0, 0
0, 0
0, 0
0, 0
0, 0
0, 0
0, 0
0, 1
0, 0
0, 0
0, 0
0, 0
0, 0
0, 0
0, 0
0, 0
0, 0
0, 0
0, 0
0, 0
0, 0
0, 0
0, 0
0, 0
0, 0
0, 0
0, 0
0, 0
0, 0
0, 0
0, 0
0, 0
0, 0
0, 0
0, 0
0, 0
0, 0
0, 0
0, 0
0, 0
0, 0
0, 0
0, 0
0, 0
0, 0
0, 0
0, 0
0, 0
0, 0
0, 0
0, 0
0, 0
0, 0
0, 0
0, 0
0, 0
0, 0
0, 0
0, 0
0, 0
0, 0
0, 0
0, 0
0, 0
0, 0
0, 0
0, 0
0, 0
0, 0
0, 0
0, 0
0, 0
0, 0
0, 0
0, 0
0, 0
0, 0
0, 0
0, 0
0, 0
0, 0
0, 0
0, 0
0, 0
0, 0
0, 0
0, 0
0, 0
0, 0
0, 0
0, 0
0, 0
0, 0
0, 0
0, 0
0, 0
0, 0
0, 0
0, 0
0, 0
0, 0
0, 0
0, 0
0, 0
0, 0
0, 0
0, 0
#ENDOFDATA     end of spectrum data