File: host_upload/06-09-2024/ps_0852/dump3/ps__0852shot_2365.msa
#FORMAT      : EMSA/MAS spectral data file
#VERSION     : TC202v2.0 PIXL
#TITLE       : N/A
#DATE        :       Date in the format DD-MMM-YYYY, for example 07-JUL-2010
#TIME        :             The time of day at which the spectrum was recorded, in 24-hour format
#OWNER       : PIXL Flight Model       (PIXL will use this to indicate which instrument took the data.)
#NPOINTS     : 4096     Number of data points in the spectrum (This can be zero for configuration only files)
#NCOLUMNS    : 2     Number of data columns in the spectrum (This can be zero for configuration only files)
#XUNITS      : eV
#YUNITS      : COUNTS
#DATATYPE    : YY
#XPERCHAN    : 7.862, 7.881   eV per channel (separate by commas if more than one detector)
#OFFSET      : 18.5, -22.4         eV of first channel  (separate by commas if more than one detector
#SIGNALTYPE  : XRF
#YP_TEMP     : 2.3
#LIVETIME    : 8.53128, 8.56347   seconds (separate by commas if more than one detector)
#REALTIME    : 10, 10.0   seconds (separate by commas if more than one detector)
#SPECTRUM    : start of spectrum data
0, 0
0, 0
0, 0
0, 0
0, 0
0, 0
0, 0
0, 0
2, 2
3, 3
5, 2
43, 48
57, 64
7, 8
3, 3
76, 119
370, 458
84, 107
2, 9
2, 1
3, 1
2, 3
4, 5
10, 6
143, 52
202, 63
48, 13
14, 13
7, 4
0, 0
1, 3
4, 2
0, 2
10, 11
20, 24
3, 3
4, 1
16, 3
27, 4
12, 1
9, 10
10, 18
10, 22
6, 54
3, 40
18, 12
12, 12
7, 7
7, 4
12, 18
25, 8
23, 12
18, 11
40, 66
58, 53
12, 24
17, 58
459, 631
2079, 2549
1462, 1457
184, 178
25, 35
31, 45
112, 133
337, 378
243, 198
35, 25
9, 11
19, 12
6, 12
6, 6
11, 5
1, 12
5, 11
7, 7
20, 7
26, 8
10, 12
8, 13
6, 5
3, 5
3, 1
6, 6
5, 3
4, 4
2, 8
2, 5
3, 6
4, 4
3, 5
5, 4
5, 3
4, 5
5, 5
2, 1
2, 2
3, 3
4, 4
1, 1
2, 3
3, 5
6, 1
1, 3
0, 2
2, 6
1, 3
4, 3
0, 2
1, 1
3, 1
2, 2
1, 6
2, 3
4, 3
7, 0
5, 6
2, 6
3, 7
3, 1
0, 0
0, 2
1, 4
1, 0
1, 1
0, 1
1, 1
0, 2
1, 0
2, 0
0, 0
3, 0
1, 2
0, 1
1, 2
2, 1
1, 0
2, 0
0, 0
0, 2
0, 1
0, 1
0, 1
1, 0
0, 0
0, 1
0, 1
2, 0
1, 0
0, 0
1, 0
0, 1
0, 2
0, 0
0, 0
0, 0
1, 0
1, 0
0, 1
1, 0
1, 0
0, 0
1, 0
0, 0
2, 1
0, 0
0, 0
1, 1
0, 0
1, 0
0, 0
0, 0
1, 0
0, 1
1, 0
0, 1
0, 0
0, 1
0, 0
0, 0
0, 0
0, 0
2, 0
0, 0
0, 0
0, 0
0, 0
0, 0
0, 0
0, 0
1, 0
0, 0
0, 1
0, 0
0, 0
0, 0
0, 0
0, 0
0, 0
0, 0
0, 0
0, 0
0, 0
0, 0
0, 0
1, 0
0, 1
0, 0
0, 0
0, 0
0, 0
0, 0
0, 0
0, 0
0, 0
0, 0
0, 0
0, 0
0, 0
0, 0
0, 0
0, 0
0, 0
0, 0
0, 0
0, 0
0, 0
0, 0
0, 0
0, 0
0, 0
0, 0
0, 0
0, 0
0, 0
0, 0
0, 0
0, 0
0, 0
0, 0
0, 0
0, 0
0, 0
0, 0
0, 0
0, 0
0, 0
0, 0
0, 0
0, 0
0, 0
0, 0
0, 0
0, 0
0, 0
0, 0
0, 0
0, 0
0, 0
0, 0
0, 0
0, 0
0, 0
0, 0
0, 0
0, 0
0, 0
0, 0
0, 0
0, 0
0, 0
0, 0
0, 0
0, 0
0, 0
0, 0
0, 0
0, 0
0, 0
0, 0
0, 0
0, 0
0, 0
0, 0
0, 0
0, 0
0, 0
0, 0
0, 0
0, 0
0, 0
0, 0
0, 0
0, 0
0, 0
#ENDOFDATA     end of spectrum data