File: host_upload/06-09-2024/ps_0852/dump3/ps__0852shot_2369.msa
#FORMAT      : EMSA/MAS spectral data file
#VERSION     : TC202v2.0 PIXL
#TITLE       : N/A
#DATE        :       Date in the format DD-MMM-YYYY, for example 07-JUL-2010
#TIME        :             The time of day at which the spectrum was recorded, in 24-hour format
#OWNER       : PIXL Flight Model       (PIXL will use this to indicate which instrument took the data.)
#NPOINTS     : 4096     Number of data points in the spectrum (This can be zero for configuration only files)
#NCOLUMNS    : 2     Number of data columns in the spectrum (This can be zero for configuration only files)
#XUNITS      : eV
#YUNITS      : COUNTS
#DATATYPE    : YY
#XPERCHAN    : 7.862, 7.881   eV per channel (separate by commas if more than one detector)
#OFFSET      : 18.5, -22.4         eV of first channel  (separate by commas if more than one detector
#SIGNALTYPE  : XRF
#YP_TEMP     : 2.3
#LIVETIME    : 8.5582, 8.56233   seconds (separate by commas if more than one detector)
#REALTIME    : 10, 10.0   seconds (separate by commas if more than one detector)
#SPECTRUM    : start of spectrum data
0, 0
0, 0
0, 0
0, 0
0, 0
0, 0
0, 0
0, 0
0, 3
2, 1
4, 4
46, 40
67, 75
3, 5
6, 9
89, 109
402, 418
114, 85
7, 3
0, 0
3, 1
4, 4
2, 2
9, 6
103, 33
148, 43
33, 17
11, 5
2, 5
2, 0
2, 2
1, 2
3, 9
15, 27
34, 26
9, 4
11, 4
27, 6
55, 9
24, 4
6, 4
6, 14
12, 26
17, 68
12, 95
7, 19
4, 11
5, 9
10, 12
15, 15
43, 13
47, 7
22, 13
38, 40
51, 60
26, 32
30, 72
489, 591
2241, 2431
1640, 1481
193, 176
27, 17
69, 16
161, 126
350, 390
224, 216
29, 28
5, 7
18, 14
10, 5
8, 3
2, 7
2, 6
3, 6
18, 7
57, 7
72, 2
19, 5
5, 5
6, 3
3, 6
4, 5
1, 1
1, 1
3, 7
5, 7
1, 3
4, 4
3, 6
2, 3
4, 5
0, 6
0, 2
3, 3
4, 1
3, 2
3, 0
1, 2
2, 0
2, 2
5, 4
8, 3
9, 4
3, 1
2, 1
4, 0
1, 2
0, 3
1, 3
4, 2
0, 0
4, 1
3, 4
5, 1
8, 2
2, 1
3, 6
4, 4
2, 4
3, 6
1, 2
3, 2
1, 4
3, 1
2, 3
0, 1
0, 0
1, 0
0, 1
0, 3
0, 0
3, 2
1, 1
0, 1
1, 0
0, 0
0, 0
3, 1
1, 1
2, 2
0, 0
1, 0
1, 0
0, 0
1, 1
0, 0
0, 1
0, 0
0, 1
2, 0
1, 0
0, 0
0, 0
0, 0
0, 0
0, 1
0, 0
0, 1
2, 1
1, 0
1, 0
0, 0
1, 0
0, 1
0, 0
0, 0
0, 0
1, 1
0, 1
0, 0
0, 1
0, 0
0, 0
0, 0
0, 0
0, 3
0, 0
0, 1
0, 0
0, 0
0, 0
0, 0
0, 0
0, 0
0, 0
0, 1
0, 0
0, 0
0, 0
0, 0
0, 0
1, 0
0, 0
0, 0
0, 0
0, 0
0, 0
0, 0
0, 0
0, 0
0, 0
0, 0
0, 0
0, 0
0, 0
0, 0
0, 0
0, 0
0, 0
0, 0
0, 0
0, 0
0, 0
0, 0
0, 0
0, 0
0, 0
0, 0
0, 0
0, 0
0, 0
0, 0
0, 0
0, 0
0, 0
0, 0
0, 0
0, 0
0, 0
0, 0
0, 0
0, 0
0, 0
0, 0
0, 0
0, 0
0, 0
0, 0
0, 0
0, 0
0, 0
0, 0
0, 0
0, 0
0, 0
0, 0
0, 0
0, 0
0, 0
0, 0
0, 0
0, 0
0, 0
0, 0
0, 0
0, 0
0, 0
0, 0
0, 0
0, 0
0, 0
0, 0
0, 0
0, 0
0, 0
0, 0
0, 0
0, 0
0, 0
0, 0
0, 0
0, 0
0, 0
0, 0
0, 0
0, 0
0, 0
0, 0
0, 0
0, 0
0, 0
0, 0
0, 0
0, 0
0, 0
0, 0
0, 0
0, 0
0, 0
0, 0
0, 0
0, 0
0, 0
0, 0
#ENDOFDATA     end of spectrum data