File: host_upload/06-09-2024/ps_0852/dump3/ps__0852shot_2225.msa
#FORMAT      : EMSA/MAS spectral data file
#VERSION     : TC202v2.0 PIXL
#TITLE       : N/A
#DATE        :       Date in the format DD-MMM-YYYY, for example 07-JUL-2010
#TIME        :             The time of day at which the spectrum was recorded, in 24-hour format
#OWNER       : PIXL Flight Model       (PIXL will use this to indicate which instrument took the data.)
#NPOINTS     : 4096     Number of data points in the spectrum (This can be zero for configuration only files)
#NCOLUMNS    : 2     Number of data columns in the spectrum (This can be zero for configuration only files)
#XUNITS      : eV
#YUNITS      : COUNTS
#DATATYPE    : YY
#XPERCHAN    : 7.862, 7.881   eV per channel (separate by commas if more than one detector)
#OFFSET      : 18.5, -22.4         eV of first channel  (separate by commas if more than one detector
#SIGNALTYPE  : XRF
#YP_TEMP     : 2.364
#LIVETIME    : 8.54768, 8.6005   seconds (separate by commas if more than one detector)
#REALTIME    : 10, 10.0   seconds (separate by commas if more than one detector)
#SPECTRUM    : start of spectrum data
0, 0
0, 0
0, 0
0, 0
0, 0
0, 0
0, 0
2, 0
0, 0
1, 2
2, 2
51, 48
71, 69
8, 5
7, 6
118, 98
460, 422
123, 98
10, 4
2, 1
2, 1
2, 3
2, 8
8, 0
29, 25
38, 42
19, 14
18, 9
6, 8
1, 2
2, 3
5, 6
2, 2
13, 15
29, 13
6, 3
6, 12
18, 6
37, 5
26, 5
10, 4
7, 9
12, 12
8, 12
6, 5
8, 18
10, 4
2, 4
4, 11
14, 12
12, 14
10, 9
6, 29
39, 79
66, 72
23, 17
38, 35
488, 605
2189, 2273
1673, 1409
204, 154
20, 13
13, 24
97, 141
323, 328
213, 205
21, 48
9, 33
11, 27
7, 9
5, 2
7, 5
6, 7
3, 6
3, 14
9, 30
4, 16
13, 11
5, 2
6, 4
4, 6
7, 2
5, 4
1, 5
5, 6
4, 3
11, 6
10, 4
3, 5
4, 3
4, 1
3, 2
4, 4
4, 4
3, 3
4, 0
9, 4
4, 2
3, 3
2, 4
2, 3
1, 0
1, 4
4, 6
4, 9
1, 3
3, 3
2, 4
0, 2
0, 4
0, 2
1, 2
1, 3
1, 0
1, 0
3, 1
8, 9
1, 3
3, 3
2, 0
2, 1
1, 1
1, 2
1, 1
2, 1
1, 1
1, 1
0, 2
1, 1
2, 2
0, 2
0, 2
1, 1
1, 0
3, 0
0, 2
1, 0
0, 0
1, 1
0, 2
2, 0
1, 2
1, 0
1, 0
0, 0
1, 1
0, 0
1, 0
0, 0
0, 1
0, 1
0, 0
0, 0
0, 2
0, 0
0, 0
1, 0
0, 0
0, 0
0, 1
0, 1
0, 0
1, 1
0, 1
0, 1
0, 0
0, 0
1, 0
0, 0
0, 0
0, 0
0, 0
1, 0
0, 0
0, 0
0, 0
0, 2
0, 0
0, 0
0, 0
1, 0
0, 0
1, 0
0, 0
1, 0
0, 0
0, 0
0, 0
0, 0
0, 0
1, 0
0, 0
1, 0
0, 0
1, 0
0, 0
0, 0
0, 0
0, 0
0, 0
0, 0
0, 0
0, 0
0, 0
0, 0
0, 0
0, 0
0, 0
0, 0
0, 0
0, 0
0, 0
0, 0
0, 0
0, 0
0, 0
0, 0
0, 0
0, 0
0, 0
0, 0
0, 0
0, 0
0, 0
0, 0
0, 0
0, 0
0, 0
0, 0
0, 0
0, 0
0, 0
0, 0
0, 0
0, 0
0, 0
0, 0
0, 0
0, 0
0, 0
0, 0
0, 0
0, 0
0, 0
0, 0
0, 0
0, 0
0, 0
0, 0
0, 0
0, 0
0, 0
0, 0
0, 0
0, 0
0, 0
0, 0
0, 0
0, 0
0, 0
0, 0
0, 0
0, 0
0, 0
0, 0
0, 0
0, 0
0, 0
0, 0
0, 0
0, 0
0, 0
0, 0
0, 0
0, 0
0, 0
0, 0
0, 0
0, 0
0, 0
0, 0
0, 0
0, 0
0, 0
0, 0
0, 0
0, 0
0, 0
0, 0
0, 0
0, 0
0, 0
0, 0
0, 0
#ENDOFDATA     end of spectrum data