File: host_upload/06-09-2024/ps_0852/dump3/ps__0852shot_2381.msa
#FORMAT      : EMSA/MAS spectral data file
#VERSION     : TC202v2.0 PIXL
#TITLE       : N/A
#DATE        :       Date in the format DD-MMM-YYYY, for example 07-JUL-2010
#TIME        :             The time of day at which the spectrum was recorded, in 24-hour format
#OWNER       : PIXL Flight Model       (PIXL will use this to indicate which instrument took the data.)
#NPOINTS     : 4096     Number of data points in the spectrum (This can be zero for configuration only files)
#NCOLUMNS    : 2     Number of data columns in the spectrum (This can be zero for configuration only files)
#XUNITS      : eV
#YUNITS      : COUNTS
#DATATYPE    : YY
#XPERCHAN    : 7.862, 7.881   eV per channel (separate by commas if more than one detector)
#OFFSET      : 18.5, -22.4         eV of first channel  (separate by commas if more than one detector
#SIGNALTYPE  : XRF
#YP_TEMP     : 2.556
#LIVETIME    : 8.55461, 8.58035   seconds (separate by commas if more than one detector)
#REALTIME    : 10, 10.0   seconds (separate by commas if more than one detector)
#SPECTRUM    : start of spectrum data
0, 0
0, 0
0, 0
0, 0
0, 0
0, 0
0, 0
0, 0
0, 1
4, 2
1, 2
51, 50
69, 56
6, 9
5, 3
95, 123
463, 402
109, 91
4, 4
3, 1
1, 3
3, 3
2, 5
4, 4
34, 9
60, 23
19, 21
10, 32
3, 4
2, 2
0, 4
0, 2
1, 1
10, 9
13, 9
4, 5
3, 2
5, 8
2, 9
1, 2
8, 13
34, 18
39, 33
17, 11
3, 5
5, 0
7, 5
11, 5
24, 6
25, 11
10, 20
7, 60
14, 148
38, 104
54, 61
21, 24
30, 29
465, 600
2232, 2410
1672, 1376
210, 132
44, 22
19, 23
119, 120
325, 330
224, 224
26, 30
9, 40
8, 22
5, 3
4, 5
2, 2
10, 5
21, 3
10, 6
6, 2
3, 5
2, 13
4, 21
5, 12
5, 5
6, 7
4, 3
6, 4
18, 3
21, 0
8, 2
6, 3
5, 2
2, 1
0, 3
0, 3
5, 11
7, 6
2, 5
6, 5
7, 0
5, 1
4, 1
3, 2
2, 1
1, 2
0, 0
1, 1
4, 2
2, 3
1, 4
3, 4
3, 3
2, 3
2, 1
2, 2
4, 4
3, 2
2, 0
4, 1
5, 6
3, 2
4, 2
0, 1
2, 1
0, 1
2, 1
4, 1
1, 2
4, 2
0, 1
3, 0
0, 0
0, 1
0, 2
0, 1
0, 0
0, 0
1, 2
1, 2
0, 1
1, 1
0, 0
1, 0
1, 0
1, 0
0, 0
1, 1
0, 1
2, 0
2, 0
0, 2
1, 1
0, 0
0, 1
1, 0
0, 0
1, 0
0, 0
0, 0
0, 1
0, 0
1, 0
0, 1
0, 0
0, 1
1, 0
1, 0
0, 0
0, 0
0, 0
0, 0
1, 0
1, 1
0, 0
0, 0
0, 0
0, 0
0, 1
1, 0
0, 0
0, 0
0, 1
0, 0
0, 0
1, 1
2, 0
0, 0
0, 1
0, 0
0, 0
0, 0
0, 0
0, 0
0, 0
1, 0
0, 0
0, 0
0, 0
0, 0
0, 0
0, 0
0, 0
0, 0
0, 0
1, 0
0, 1
0, 0
0, 0
0, 0
0, 0
0, 0
0, 0
0, 0
0, 0
0, 0
0, 0
0, 0
0, 0
0, 0
0, 0
0, 0
0, 0
0, 0
0, 0
0, 0
0, 0
0, 0
0, 0
0, 0
0, 0
0, 0
0, 0
0, 0
0, 0
0, 0
0, 0
0, 0
0, 0
0, 0
0, 0
0, 0
0, 0
0, 0
0, 0
0, 0
0, 0
0, 0
0, 0
0, 0
0, 0
0, 0
0, 0
0, 0
0, 0
0, 0
0, 0
0, 0
0, 0
0, 0
0, 0
0, 0
0, 0
0, 0
0, 0
0, 0
0, 0
0, 0
0, 0
0, 0
0, 0
0, 0
0, 0
0, 0
0, 0
0, 0
0, 0
0, 0
0, 0
0, 0
0, 0
0, 0
0, 0
0, 0
0, 0
0, 0
0, 0
0, 0
0, 0
0, 0
0, 0
0, 0
0, 0
0, 0
0, 0
0, 0
0, 0
0, 0
#ENDOFDATA     end of spectrum data