File: host_upload/06-09-2024/ps_0852/dump3/ps__0852shot_2425.msa
#FORMAT      : EMSA/MAS spectral data file
#VERSION     : TC202v2.0 PIXL
#TITLE       : N/A
#DATE        :       Date in the format DD-MMM-YYYY, for example 07-JUL-2010
#TIME        :             The time of day at which the spectrum was recorded, in 24-hour format
#OWNER       : PIXL Flight Model       (PIXL will use this to indicate which instrument took the data.)
#NPOINTS     : 4096     Number of data points in the spectrum (This can be zero for configuration only files)
#NCOLUMNS    : 2     Number of data columns in the spectrum (This can be zero for configuration only files)
#XUNITS      : eV
#YUNITS      : COUNTS
#DATATYPE    : YY
#XPERCHAN    : 7.862, 7.881   eV per channel (separate by commas if more than one detector)
#OFFSET      : 18.5, -22.4         eV of first channel  (separate by commas if more than one detector
#SIGNALTYPE  : XRF
#YP_TEMP     : 2.3
#LIVETIME    : 8.54485, 8.5582   seconds (separate by commas if more than one detector)
#REALTIME    : 10, 10.0   seconds (separate by commas if more than one detector)
#SPECTRUM    : start of spectrum data
0, 0
0, 0
0, 0
0, 0
0, 0
0, 0
0, 0
0, 0
1, 0
2, 0
3, 6
48, 57
61, 80
6, 2
5, 2
86, 100
472, 408
99, 95
4, 1
1, 0
5, 0
2, 5
3, 3
6, 0
57, 36
68, 47
26, 32
13, 18
3, 6
2, 2
0, 2
1, 1
3, 0
2, 14
9, 12
8, 3
7, 1
2, 5
1, 3
5, 2
6, 12
5, 30
12, 21
7, 15
8, 7
2, 5
3, 5
10, 6
29, 4
29, 18
15, 15
5, 66
5, 130
39, 74
50, 54
19, 16
34, 37
443, 571
2104, 2439
1467, 1413
211, 148
30, 14
21, 21
110, 127
331, 394
225, 217
27, 42
5, 79
5, 40
9, 11
5, 4
3, 4
3, 4
10, 1
2, 4
5, 7
6, 5
2, 13
8, 15
4, 9
2, 5
4, 6
2, 2
6, 3
16, 3
11, 4
5, 1
2, 0
2, 4
4, 0
2, 5
0, 7
1, 17
0, 13
4, 5
6, 1
11, 0
12, 1
4, 0
1, 2
2, 1
4, 4
0, 2
1, 5
2, 6
2, 3
5, 2
2, 4
2, 2
2, 3
3, 7
1, 3
1, 2
1, 2
3, 2
1, 4
10, 4
2, 3
1, 2
1, 2
2, 2
1, 0
1, 2
2, 1
3, 1
1, 2
3, 2
1, 0
1, 0
0, 0
1, 2
0, 2
0, 1
0, 2
1, 1
1, 4
0, 1
2, 0
0, 1
2, 0
2, 0
0, 0
0, 0
1, 0
0, 2
0, 1
1, 0
0, 0
0, 0
1, 1
0, 0
0, 1
0, 0
0, 0
0, 0
0, 1
0, 0
0, 0
0, 0
0, 0
0, 0
0, 0
0, 0
0, 1
1, 0
0, 0
0, 0
0, 0
0, 0
0, 0
1, 1
0, 0
0, 0
1, 0
0, 0
0, 0
0, 0
0, 0
0, 0
0, 0
0, 1
0, 1
0, 0
0, 0
0, 0
0, 1
0, 0
0, 0
0, 1
0, 0
0, 0
0, 0
0, 0
0, 0
0, 0
0, 0
0, 0
0, 1
0, 0
0, 0
0, 0
0, 0
1, 0
0, 0
0, 0
1, 0
0, 0
0, 0
0, 0
0, 0
0, 0
0, 0
0, 0
0, 0
1, 0
0, 0
0, 0
0, 0
0, 0
0, 0
0, 0
0, 0
0, 0
0, 0
0, 0
0, 0
0, 0
0, 0
0, 0
0, 0
0, 0
0, 0
0, 0
0, 0
0, 0
0, 0
0, 0
0, 0
0, 0
0, 0
0, 0
0, 0
0, 0
0, 0
0, 0
0, 0
0, 0
0, 0
0, 0
0, 0
0, 0
0, 0
0, 0
0, 0
0, 0
0, 0
0, 0
0, 0
0, 0
0, 0
0, 0
0, 0
0, 0
0, 0
0, 0
0, 0
0, 0
0, 0
0, 0
0, 0
0, 0
0, 0
0, 0
0, 0
0, 0
0, 0
0, 0
0, 0
0, 0
0, 0
0, 0
0, 0
0, 0
0, 0
0, 0
0, 0
0, 0
0, 0
0, 0
0, 0
0, 0
0, 0
0, 0
0, 0
#ENDOFDATA     end of spectrum data