File: host_upload/06-09-2024/ps_0852/dump3/ps__0852shot_2314.msa
#FORMAT      : EMSA/MAS spectral data file
#VERSION     : TC202v2.0 PIXL
#TITLE       : N/A
#DATE        :       Date in the format DD-MMM-YYYY, for example 07-JUL-2010
#TIME        :             The time of day at which the spectrum was recorded, in 24-hour format
#OWNER       : PIXL Flight Model       (PIXL will use this to indicate which instrument took the data.)
#NPOINTS     : 4096     Number of data points in the spectrum (This can be zero for configuration only files)
#NCOLUMNS    : 2     Number of data columns in the spectrum (This can be zero for configuration only files)
#XUNITS      : eV
#YUNITS      : COUNTS
#DATATYPE    : YY
#XPERCHAN    : 7.862, 7.881   eV per channel (separate by commas if more than one detector)
#OFFSET      : 18.5, -22.4         eV of first channel  (separate by commas if more than one detector
#SIGNALTYPE  : XRF
#YP_TEMP     : 2.396
#LIVETIME    : 8.55785, 8.55107   seconds (separate by commas if more than one detector)
#REALTIME    : 10, 10.0   seconds (separate by commas if more than one detector)
#SPECTRUM    : start of spectrum data
0, 0
0, 0
0, 0
0, 0
0, 0
0, 0
0, 0
0, 0
0, 1
1, 0
5, 1
58, 60
54, 55
9, 6
4, 2
86, 84
444, 438
96, 85
3, 6
1, 1
1, 0
7, 7
3, 2
12, 7
31, 31
46, 39
181, 26
249, 18
30, 8
1, 2
0, 3
1, 3
3, 17
12, 33
18, 22
4, 6
6, 5
13, 10
1, 6
6, 8
5, 4
20, 8
63, 13
53, 11
7, 11
3, 4
5, 6
7, 5
4, 15
14, 26
7, 2
8, 3
24, 12
126, 72
110, 120
28, 100
27, 90
466, 557
2159, 2340
1582, 1356
213, 128
15, 24
20, 33
98, 114
342, 362
242, 219
35, 22
18, 6
29, 10
12, 6
2, 2
3, 4
1, 5
7, 6
6, 3
3, 7
6, 2
1, 2
5, 6
6, 4
6, 2
9, 4
6, 4
7, 9
21, 2
10, 3
4, 5
2, 11
2, 7
4, 8
0, 5
3, 4
5, 2
2, 1
4, 6
3, 2
4, 3
1, 4
3, 3
5, 0
1, 1
0, 1
2, 4
3, 0
3, 1
2, 0
4, 3
2, 5
2, 3
2, 3
1, 6
2, 3
0, 3
2, 2
4, 4
2, 2
5, 5
8, 1
2, 2
1, 0
0, 2
4, 3
1, 3
1, 1
2, 1
0, 1
1, 2
2, 1
1, 1
2, 1
0, 0
1, 1
0, 2
1, 1
1, 1
0, 1
2, 1
3, 0
1, 0
0, 2
0, 2
0, 0
0, 0
0, 2
0, 0
0, 1
0, 1
0, 0
0, 1
0, 0
1, 1
0, 0
0, 0
0, 0
1, 1
1, 0
1, 0
0, 0
0, 0
0, 0
1, 0
1, 0
0, 1
0, 1
0, 0
1, 0
0, 0
0, 0
0, 0
0, 0
0, 0
0, 2
0, 0
0, 1
0, 1
0, 0
0, 1
0, 0
0, 0
0, 0
1, 0
0, 0
0, 1
2, 0
1, 0
0, 0
0, 0
1, 0
0, 0
0, 1
0, 0
0, 0
0, 0
0, 1
0, 0
0, 0
0, 0
0, 0
0, 0
0, 0
0, 0
0, 0
0, 0
0, 0
0, 0
0, 0
0, 0
1, 0
0, 0
0, 0
0, 0
0, 0
0, 0
0, 0
0, 0
0, 1
0, 0
0, 0
0, 0
0, 0
0, 0
0, 0
0, 0
0, 0
0, 0
0, 0
0, 0
0, 0
0, 0
0, 0
0, 0
0, 0
0, 0
0, 0
0, 0
0, 0
0, 0
0, 0
0, 0
0, 0
0, 0
0, 0
0, 0
0, 0
0, 0
0, 0
0, 0
0, 0
0, 0
0, 0
0, 0
0, 0
0, 0
0, 0
0, 0
0, 0
0, 0
0, 0
0, 0
0, 0
0, 0
0, 0
0, 0
0, 0
0, 0
0, 0
0, 0
0, 0
0, 0
0, 0
0, 0
0, 0
0, 0
0, 0
0, 0
0, 0
0, 0
0, 0
0, 0
0, 0
0, 0
0, 0
0, 0
0, 0
0, 0
0, 0
0, 0
0, 0
0, 0
0, 0
0, 0
0, 0
0, 0
0, 0
#ENDOFDATA     end of spectrum data