File: host_upload/06-09-2024/ps_0852/dump3/ps__0852shot_2575.msa
#FORMAT      : EMSA/MAS spectral data file
#VERSION     : TC202v2.0 PIXL
#TITLE       : N/A
#DATE        :       Date in the format DD-MMM-YYYY, for example 07-JUL-2010
#TIME        :             The time of day at which the spectrum was recorded, in 24-hour format
#OWNER       : PIXL Flight Model       (PIXL will use this to indicate which instrument took the data.)
#NPOINTS     : 4096     Number of data points in the spectrum (This can be zero for configuration only files)
#NCOLUMNS    : 2     Number of data columns in the spectrum (This can be zero for configuration only files)
#XUNITS      : eV
#YUNITS      : COUNTS
#DATATYPE    : YY
#XPERCHAN    : 7.862, 7.881   eV per channel (separate by commas if more than one detector)
#OFFSET      : 18.5, -22.4         eV of first channel  (separate by commas if more than one detector
#SIGNALTYPE  : XRF
#YP_TEMP     : 2.171
#LIVETIME    : 8.54917, 8.59341   seconds (separate by commas if more than one detector)
#REALTIME    : 10, 10.0   seconds (separate by commas if more than one detector)
#SPECTRUM    : start of spectrum data
0, 0
0, 0
0, 0
0, 0
0, 0
0, 0
0, 0
0, 1
2, 5
2, 13
1, 5
43, 49
58, 47
6, 9
7, 2
102, 88
455, 422
101, 114
10, 3
1, 4
1, 1
1, 6
0, 11
13, 48
39, 515
39, 627
24, 75
9, 13
5, 1
5, 1
5, 2
2, 5
1, 0
10, 9
13, 9
11, 7
18, 3
5, 5
3, 31
11, 26
2, 4
9, 8
11, 17
17, 13
27, 4
24, 7
10, 12
7, 14
5, 16
12, 35
10, 16
54, 5
26, 8
41, 37
55, 69
17, 14
30, 31
519, 613
2224, 2290
1573, 1444
186, 131
11, 9
22, 38
104, 163
358, 363
222, 182
22, 29
7, 9
19, 20
6, 8
3, 7
9, 2
7, 9
7, 24
7, 11
7, 5
5, 2
4, 5
2, 2
5, 2
9, 3
6, 6
1, 5
3, 4
2, 5
2, 5
8, 4
5, 4
2, 5
1, 6
7, 3
5, 6
8, 4
1, 4
1, 1
8, 1
8, 2
10, 7
3, 8
3, 3
1, 2
5, 0
4, 2
2, 2
6, 5
4, 2
2, 1
0, 2
0, 3
2, 4
0, 0
0, 2
1, 0
3, 4
3, 1
2, 1
5, 2
5, 7
1, 2
1, 1
1, 1
1, 4
0, 3
0, 0
4, 1
2, 2
2, 0
2, 0
1, 2
1, 0
1, 2
0, 1
0, 1
0, 0
1, 0
1, 1
0, 0
0, 1
1, 1
2, 0
1, 0
0, 1
0, 0
1, 0
2, 2
0, 0
2, 1
1, 1
1, 2
1, 1
0, 0
1, 0
1, 0
0, 0
0, 0
0, 1
1, 1
0, 0
0, 1
0, 0
1, 0
0, 1
0, 0
1, 0
0, 0
1, 1
1, 0
0, 0
0, 0
1, 0
0, 1
0, 0
1, 1
0, 0
0, 0
0, 0
0, 0
0, 0
0, 0
0, 0
0, 0
0, 0
0, 1
1, 0
0, 0
0, 0
0, 0
0, 0
0, 0
0, 0
0, 0
0, 0
0, 0
0, 0
0, 0
0, 0
0, 0
0, 0
0, 1
0, 0
0, 0
0, 0
0, 0
0, 0
0, 0
1, 0
0, 1
0, 0
0, 0
0, 0
0, 0
0, 0
0, 0
0, 0
0, 0
0, 0
0, 0
0, 0
0, 0
0, 0
0, 0
0, 0
0, 0
0, 0
0, 0
0, 0
0, 0
0, 0
0, 0
0, 0
0, 0
0, 0
0, 0
0, 0
0, 0
0, 0
0, 0
0, 0
0, 0
0, 0
0, 0
0, 0
0, 0
0, 0
0, 0
0, 0
0, 0
0, 0
0, 0
0, 0
0, 0
0, 0
0, 0
0, 0
0, 0
0, 0
0, 0
0, 0
0, 0
0, 0
0, 0
0, 0
0, 0
0, 0
0, 0
0, 0
0, 0
0, 0
0, 0
0, 0
0, 0
0, 0
0, 0
0, 0
0, 0
0, 0
0, 0
0, 0
0, 0
0, 0
0, 0
0, 0
0, 0
0, 0
0, 0
0, 0
0, 0
0, 0
0, 0
0, 0
0, 0
0, 0
0, 0
0, 0
#ENDOFDATA     end of spectrum data