File: host_upload/06-09-2024/ps_0852/dump3/ps__0852shot_2251.msa
#FORMAT      : EMSA/MAS spectral data file
#VERSION     : TC202v2.0 PIXL
#TITLE       : N/A
#DATE        :       Date in the format DD-MMM-YYYY, for example 07-JUL-2010
#TIME        :             The time of day at which the spectrum was recorded, in 24-hour format
#OWNER       : PIXL Flight Model       (PIXL will use this to indicate which instrument took the data.)
#NPOINTS     : 4096     Number of data points in the spectrum (This can be zero for configuration only files)
#NCOLUMNS    : 2     Number of data columns in the spectrum (This can be zero for configuration only files)
#XUNITS      : eV
#YUNITS      : COUNTS
#DATATYPE    : YY
#XPERCHAN    : 7.862, 7.881   eV per channel (separate by commas if more than one detector)
#OFFSET      : 18.5, -22.4         eV of first channel  (separate by commas if more than one detector
#SIGNALTYPE  : XRF
#YP_TEMP     : 2.46
#LIVETIME    : 8.55148, 8.57957   seconds (separate by commas if more than one detector)
#REALTIME    : 10, 10.0   seconds (separate by commas if more than one detector)
#SPECTRUM    : start of spectrum data
0, 0
0, 0
0, 0
0, 0
0, 0
0, 0
0, 0
0, 0
1, 0
0, 1
4, 1
51, 47
54, 70
7, 7
7, 4
93, 104
432, 438
96, 88
11, 8
0, 3
2, 1
2, 4
3, 3
4, 5
30, 20
32, 35
12, 19
13, 16
3, 4
2, 3
3, 3
11, 2
21, 0
46, 12
22, 14
10, 1
6, 4
10, 3
1, 3
2, 3
2, 6
6, 13
7, 11
13, 8
3, 7
2, 4
5, 4
2, 9
15, 11
25, 17
15, 14
8, 3
17, 17
46, 40
78, 66
47, 22
46, 43
507, 609
2264, 2374
1724, 1350
201, 135
24, 18
28, 29
126, 123
366, 368
247, 175
31, 26
11, 1
14, 17
4, 7
4, 3
5, 5
1, 6
0, 8
7, 20
7, 17
4, 5
6, 5
2, 3
5, 6
5, 3
17, 5
21, 3
12, 3
2, 1
5, 1
6, 3
4, 7
2, 4
2, 1
3, 1
1, 3
2, 1
1, 1
6, 4
7, 1
2, 6
4, 1
3, 2
1, 3
2, 2
0, 2
5, 3
2, 0
1, 2
4, 1
4, 1
0, 4
0, 6
1, 2
2, 5
1, 0
3, 1
1, 3
3, 3
4, 3
7, 3
7, 3
5, 0
4, 2
1, 3
4, 1
2, 4
1, 1
1, 2
1, 2
2, 1
0, 0
1, 4
1, 0
0, 2
1, 0
2, 1
1, 1
0, 0
0, 0
2, 1
3, 0
0, 0
2, 1
2, 0
1, 1
1, 1
1, 0
1, 0
0, 0
1, 0
0, 1
0, 0
1, 0
0, 1
1, 0
0, 0
0, 0
1, 1
0, 0
0, 0
2, 0
0, 1
0, 0
0, 0
1, 0
0, 0
0, 0
0, 0
0, 0
0, 0
1, 0
0, 0
0, 0
0, 1
1, 0
0, 1
0, 0
0, 0
0, 0
0, 0
0, 0
0, 0
0, 1
0, 0
0, 0
0, 0
0, 0
0, 0
0, 0
0, 0
0, 0
0, 0
0, 0
0, 0
0, 0
1, 0
0, 0
0, 0
0, 0
0, 0
0, 0
0, 0
0, 0
0, 0
0, 0
0, 0
0, 0
0, 0
0, 0
0, 0
0, 0
0, 0
0, 0
0, 0
0, 0
0, 0
0, 0
0, 0
0, 0
0, 0
0, 0
0, 0
0, 0
0, 0
0, 0
0, 0
0, 0
0, 0
0, 0
0, 0
0, 0
0, 0
0, 0
0, 0
0, 0
0, 0
0, 0
0, 0
0, 0
0, 0
0, 0
0, 0
0, 0
0, 0
0, 0
0, 0
0, 0
0, 0
0, 0
0, 0
0, 0
0, 0
0, 0
0, 0
0, 0
0, 0
0, 0
0, 0
0, 0
0, 0
0, 0
0, 0
0, 0
0, 0
0, 0
0, 0
0, 0
0, 0
0, 0
0, 0
0, 0
0, 0
0, 0
0, 0
0, 0
0, 0
0, 0
0, 0
0, 0
0, 0
0, 0
0, 0
0, 0
0, 0
0, 0
0, 0
0, 0
0, 0
0, 0
0, 0
0, 0
0, 0
0, 0
0, 0
0, 0
0, 0
0, 0
#ENDOFDATA     end of spectrum data