File: host_upload/06-09-2024/ps_0852/dump3/ps__0852shot_2305.msa
#FORMAT      : EMSA/MAS spectral data file
#VERSION     : TC202v2.0 PIXL
#TITLE       : N/A
#DATE        :       Date in the format DD-MMM-YYYY, for example 07-JUL-2010
#TIME        :             The time of day at which the spectrum was recorded, in 24-hour format
#OWNER       : PIXL Flight Model       (PIXL will use this to indicate which instrument took the data.)
#NPOINTS     : 4096     Number of data points in the spectrum (This can be zero for configuration only files)
#NCOLUMNS    : 2     Number of data columns in the spectrum (This can be zero for configuration only files)
#XUNITS      : eV
#YUNITS      : COUNTS
#DATATYPE    : YY
#XPERCHAN    : 7.862, 7.881   eV per channel (separate by commas if more than one detector)
#OFFSET      : 18.5, -22.4         eV of first channel  (separate by commas if more than one detector
#SIGNALTYPE  : XRF
#YP_TEMP     : 2.235
#LIVETIME    : 8.55875, 8.5559   seconds (separate by commas if more than one detector)
#REALTIME    : 10, 10.0   seconds (separate by commas if more than one detector)
#SPECTRUM    : start of spectrum data
0, 0
0, 0
0, 0
0, 0
0, 0
0, 0
0, 0
0, 0
1, 1
0, 1
3, 2
43, 45
71, 61
4, 8
4, 3
110, 117
457, 433
110, 111
6, 5
2, 1
1, 1
4, 4
2, 3
10, 9
40, 29
38, 42
20, 27
12, 12
4, 6
1, 10
4, 4
0, 6
6, 10
65, 49
70, 76
18, 14
21, 13
10, 8
2, 7
5, 2
7, 3
9, 8
14, 7
15, 13
18, 12
50, 5
36, 8
4, 8
6, 13
17, 16
18, 14
13, 15
11, 12
38, 37
51, 64
29, 22
29, 28
473, 567
2137, 2217
1488, 1297
170, 127
28, 17
18, 46
101, 140
328, 364
230, 189
29, 22
10, 9
22, 17
11, 16
3, 17
4, 8
8, 3
5, 7
5, 10
12, 7
18, 1
12, 7
1, 4
4, 2
0, 1
3, 6
6, 6
1, 5
4, 6
3, 3
5, 4
5, 4
6, 3
4, 2
9, 2
11, 6
4, 4
4, 5
4, 4
1, 7
0, 3
4, 1
1, 5
0, 2
3, 3
1, 7
2, 5
1, 3
4, 1
4, 2
1, 2
1, 1
1, 0
0, 2
4, 1
2, 1
2, 0
2, 3
2, 2
0, 2
9, 6
3, 4
2, 1
3, 2
0, 2
1, 4
5, 0
1, 1
0, 2
3, 1
1, 1
2, 1
1, 1
1, 2
0, 0
1, 1
2, 2
0, 1
1, 1
0, 0
1, 0
0, 1
0, 0
0, 0
1, 0
2, 1
0, 2
5, 0
0, 1
0, 0
0, 1
1, 0
1, 0
0, 0
2, 0
1, 0
0, 0
1, 2
0, 0
0, 0
0, 0
0, 1
0, 1
1, 0
0, 1
0, 1
2, 0
0, 0
1, 0
2, 0
0, 0
0, 1
1, 0
2, 0
0, 0
0, 0
1, 1
1, 1
0, 0
0, 0
0, 0
0, 0
0, 1
0, 0
0, 0
0, 0
0, 0
0, 0
0, 0
0, 0
1, 0
0, 0
0, 0
0, 0
0, 0
0, 0
0, 0
0, 1
0, 0
0, 0
0, 0
0, 0
0, 0
0, 0
0, 0
0, 0
0, 0
0, 0
0, 0
0, 0
0, 0
0, 0
0, 0
0, 0
0, 0
0, 0
0, 0
0, 0
0, 0
0, 0
1, 0
0, 0
0, 0
0, 0
0, 0
0, 0
0, 0
0, 0
0, 0
0, 0
0, 0
0, 0
0, 0
0, 0
0, 0
0, 0
0, 0
0, 0
0, 0
0, 0
0, 0
0, 0
0, 0
0, 0
0, 0
0, 0
0, 0
0, 0
0, 0
0, 0
0, 0
0, 0
0, 0
0, 0
0, 0
0, 0
0, 0
0, 0
0, 0
0, 0
0, 0
0, 0
0, 0
0, 0
0, 0
0, 0
0, 0
0, 0
0, 0
0, 0
0, 0
0, 0
0, 0
0, 0
0, 0
0, 0
0, 0
0, 0
0, 0
0, 0
0, 0
0, 0
0, 0
0, 0
0, 0
0, 0
0, 0
0, 0
0, 0
0, 0
0, 0
0, 0
0, 0
0, 0
0, 0
0, 0
0, 0
0, 0
#ENDOFDATA     end of spectrum data