File: host_upload/06-09-2024/ps_0852/dump3/ps__0852shot_2501.msa
#FORMAT      : EMSA/MAS spectral data file
#VERSION     : TC202v2.0 PIXL
#TITLE       : N/A
#DATE        :       Date in the format DD-MMM-YYYY, for example 07-JUL-2010
#TIME        :             The time of day at which the spectrum was recorded, in 24-hour format
#OWNER       : PIXL Flight Model       (PIXL will use this to indicate which instrument took the data.)
#NPOINTS     : 4096     Number of data points in the spectrum (This can be zero for configuration only files)
#NCOLUMNS    : 2     Number of data columns in the spectrum (This can be zero for configuration only files)
#XUNITS      : eV
#YUNITS      : COUNTS
#DATATYPE    : YY
#XPERCHAN    : 7.862, 7.881   eV per channel (separate by commas if more than one detector)
#OFFSET      : 18.5, -22.4         eV of first channel  (separate by commas if more than one detector
#SIGNALTYPE  : XRF
#YP_TEMP     : 2.492
#LIVETIME    : 8.55037, 8.53818   seconds (separate by commas if more than one detector)
#REALTIME    : 10, 10.0   seconds (separate by commas if more than one detector)
#SPECTRUM    : start of spectrum data
0, 0
0, 0
0, 0
0, 0
0, 0
0, 0
0, 0
0, 0
0, 1
2, 1
3, 1
59, 44
71, 52
5, 8
5, 2
90, 86
422, 415
115, 96
4, 4
1, 1
0, 0
5, 5
2, 3
9, 2
26, 19
37, 33
26, 25
8, 7
6, 5
2, 6
0, 1
1, 4
3, 5
7, 14
7, 10
10, 2
4, 2
4, 4
3, 6
3, 26
3, 20
18, 15
19, 18
14, 9
1, 8
7, 5
7, 2
4, 5
24, 25
44, 84
58, 58
14, 11
10, 14
48, 58
70, 138
25, 117
25, 84
440, 575
2063, 2422
1496, 1370
181, 125
15, 23
25, 43
129, 146
334, 323
217, 192
26, 18
12, 10
19, 10
4, 4
5, 4
1, 1
2, 5
4, 5
11, 1
3, 4
4, 9
6, 6
6, 4
4, 4
2, 2
4, 2
4, 2
1, 6
2, 3
3, 1
4, 4
1, 1
3, 2
1, 2
4, 4
4, 3
4, 3
1, 4
1, 2
1, 6
2, 1
0, 2
3, 1
0, 2
2, 1
3, 1
3, 1
2, 3
1, 2
3, 2
3, 2
2, 5
5, 6
1, 4
1, 2
2, 4
5, 0
1, 0
0, 1
2, 1
6, 3
5, 1
2, 2
1, 0
2, 1
0, 2
0, 4
1, 1
2, 0
2, 1
1, 1
2, 2
1, 0
1, 2
2, 0
2, 0
1, 1
0, 2
0, 1
0, 1
2, 1
1, 0
0, 1
0, 0
2, 1
0, 0
0, 1
0, 1
0, 0
0, 0
1, 1
0, 0
0, 1
0, 0
0, 0
0, 1
0, 0
0, 0
0, 1
0, 1
0, 0
0, 0
0, 1
0, 0
0, 0
0, 1
0, 0
0, 2
0, 0
0, 0
0, 0
1, 0
0, 0
0, 0
0, 0
0, 0
0, 0
0, 0
0, 1
0, 0
0, 2
0, 0
0, 0
0, 0
0, 0
0, 0
1, 0
0, 0
0, 0
0, 0
0, 0
1, 0
0, 0
0, 0
0, 0
0, 0
0, 0
0, 0
0, 0
0, 0
0, 0
0, 0
0, 0
0, 0
0, 0
0, 0
0, 0
0, 0
0, 0
0, 0
0, 0
0, 0
0, 0
0, 0
0, 0
0, 0
0, 0
0, 0
0, 0
0, 0
0, 0
0, 0
0, 0
0, 0
0, 0
0, 0
0, 0
0, 0
0, 0
0, 0
0, 0
0, 0
0, 0
0, 0
0, 0
0, 0
0, 0
0, 0
0, 0
0, 0
0, 0
0, 0
0, 0
0, 0
0, 0
0, 0
0, 0
0, 0
0, 0
0, 0
0, 0
0, 0
0, 0
0, 0
0, 0
0, 0
0, 0
0, 0
0, 0
0, 0
0, 0
0, 0
0, 0
0, 0
0, 0
0, 0
0, 0
0, 0
0, 0
0, 0
0, 0
0, 0
0, 0
0, 0
0, 0
0, 0
0, 0
0, 0
0, 0
0, 0
0, 0
0, 0
0, 0
0, 0
0, 0
0, 0
0, 0
0, 0
0, 0
0, 0
0, 0
0, 0
0, 0
0, 0
0, 0
0, 0
0, 0
0, 0
#ENDOFDATA     end of spectrum data