File: host_upload/06-09-2024/ps_0852/dump3/ps__0852shot_2073.msa
#FORMAT      : EMSA/MAS spectral data file
#VERSION     : TC202v2.0 PIXL
#TITLE       : N/A
#DATE        :       Date in the format DD-MMM-YYYY, for example 07-JUL-2010
#TIME        :             The time of day at which the spectrum was recorded, in 24-hour format
#OWNER       : PIXL Flight Model       (PIXL will use this to indicate which instrument took the data.)
#NPOINTS     : 4096     Number of data points in the spectrum (This can be zero for configuration only files)
#NCOLUMNS    : 2     Number of data columns in the spectrum (This can be zero for configuration only files)
#XUNITS      : eV
#YUNITS      : COUNTS
#DATATYPE    : YY
#XPERCHAN    : 7.862, 7.881   eV per channel (separate by commas if more than one detector)
#OFFSET      : 18.5, -22.4         eV of first channel  (separate by commas if more than one detector
#SIGNALTYPE  : XRF
#YP_TEMP     : 2.556
#LIVETIME    : 8.55153, 8.55841   seconds (separate by commas if more than one detector)
#REALTIME    : 10, 10.0   seconds (separate by commas if more than one detector)
#SPECTRUM    : start of spectrum data
0, 0
0, 0
0, 0
0, 0
0, 0
0, 0
0, 0
0, 0
1, 0
0, 3
5, 1
44, 38
62, 60
4, 6
5, 2
97, 111
442, 423
105, 97
5, 3
0, 0
8, 6
14, 15
5, 5
6, 10
59, 54
74, 61
26, 34
15, 18
8, 5
2, 1
2, 2
10, 1
7, 6
24, 31
31, 30
19, 10
7, 10
11, 6
10, 10
6, 8
7, 9
7, 18
9, 26
18, 11
13, 15
9, 9
6, 7
6, 5
11, 14
21, 23
33, 11
23, 14
21, 23
54, 43
60, 56
34, 19
50, 50
484, 590
2219, 2309
1695, 1431
240, 158
25, 16
34, 24
111, 145
353, 337
237, 194
30, 22
14, 10
16, 14
8, 11
5, 8
8, 7
6, 10
5, 7
2, 5
7, 9
5, 6
9, 6
4, 6
2, 2
2, 5
5, 5
3, 4
10, 7
5, 6
7, 6
3, 3
4, 1
7, 3
0, 6
3, 3
3, 2
8, 3
9, 4
2, 3
4, 7
4, 5
5, 1
4, 2
6, 1
3, 6
1, 1
2, 0
2, 3
6, 4
1, 0
1, 1
0, 3
2, 3
6, 3
2, 1
1, 2
3, 1
5, 0
5, 3
1, 3
4, 3
2, 1
3, 0
5, 3
2, 3
5, 3
1, 3
1, 3
1, 1
1, 0
0, 3
1, 0
2, 2
1, 1
1, 0
0, 0
0, 2
0, 1
0, 1
0, 0
0, 0
1, 1
1, 2
1, 1
0, 1
0, 1
1, 1
3, 0
0, 2
1, 2
4, 0
0, 0
1, 1
0, 1
0, 2
0, 0
0, 0
1, 0
0, 0
0, 0
1, 0
0, 0
0, 0
0, 0
0, 0
0, 2
0, 0
0, 2
0, 2
0, 0
0, 0
1, 0
0, 1
0, 0
0, 0
0, 0
0, 1
0, 0
0, 0
0, 0
0, 0
0, 0
0, 0
0, 0
1, 0
0, 0
0, 0
0, 0
0, 0
0, 0
0, 0
0, 0
0, 0
0, 0
0, 0
0, 0
0, 0
0, 0
0, 0
0, 0
0, 0
0, 0
0, 0
1, 0
0, 0
0, 0
0, 0
0, 0
0, 0
0, 0
0, 0
0, 0
0, 0
0, 0
0, 0
0, 0
0, 0
0, 0
0, 0
0, 0
0, 0
0, 0
0, 0
0, 0
0, 0
0, 0
0, 0
0, 0
0, 0
0, 0
0, 0
0, 0
0, 0
0, 0
0, 0
0, 0
0, 0
0, 0
0, 0
0, 0
0, 0
0, 0
0, 0
0, 0
0, 0
0, 0
0, 0
0, 0
0, 0
0, 0
0, 0
0, 0
0, 0
0, 0
0, 0
0, 0
0, 0
0, 0
0, 0
0, 0
0, 0
0, 0
0, 0
0, 0
0, 0
0, 0
0, 0
0, 0
0, 0
0, 0
0, 0
0, 0
0, 0
0, 0
0, 0
0, 0
0, 0
0, 0
0, 0
0, 0
0, 0
0, 0
0, 0
0, 0
0, 0
0, 0
0, 0
0, 0
0, 0
0, 0
0, 0
0, 0
0, 0
0, 0
0, 0
0, 0
0, 0
0, 0
#ENDOFDATA     end of spectrum data