File: host_upload/06-09-2024/ps_0852/dump3/ps__0852shot_2552.msa
#FORMAT      : EMSA/MAS spectral data file
#VERSION     : TC202v2.0 PIXL
#TITLE       : N/A
#DATE        :       Date in the format DD-MMM-YYYY, for example 07-JUL-2010
#TIME        :             The time of day at which the spectrum was recorded, in 24-hour format
#OWNER       : PIXL Flight Model       (PIXL will use this to indicate which instrument took the data.)
#NPOINTS     : 4096     Number of data points in the spectrum (This can be zero for configuration only files)
#NCOLUMNS    : 2     Number of data columns in the spectrum (This can be zero for configuration only files)
#XUNITS      : eV
#YUNITS      : COUNTS
#DATATYPE    : YY
#XPERCHAN    : 7.862, 7.881   eV per channel (separate by commas if more than one detector)
#OFFSET      : 18.5, -22.4         eV of first channel  (separate by commas if more than one detector
#SIGNALTYPE  : XRF
#YP_TEMP     : 2.332
#LIVETIME    : 8.55198, 8.55444   seconds (separate by commas if more than one detector)
#REALTIME    : 10, 10.0   seconds (separate by commas if more than one detector)
#SPECTRUM    : start of spectrum data
0, 0
0, 0
0, 0
0, 0
0, 0
0, 0
0, 0
0, 1
0, 2
0, 0
2, 2
33, 32
37, 34
11, 3
9, 6
128, 113
557, 455
132, 96
3, 9
3, 1
3, 1
10, 8
12, 2
20, 27
73, 71
48, 54
31, 29
23, 21
1, 6
4, 5
2, 5
9, 0
22, 7
118, 127
177, 172
39, 16
24, 11
27, 26
6, 6
8, 1
7, 13
16, 52
15, 25
11, 11
6, 8
8, 2
10, 3
7, 6
9, 16
35, 48
35, 32
13, 10
12, 14
31, 41
65, 54
27, 21
27, 26
482, 526
2173, 2046
1552, 1308
208, 141
23, 18
32, 18
137, 100
346, 315
233, 176
31, 14
9, 7
17, 23
9, 22
3, 16
2, 3
7, 3
5, 4
7, 5
8, 4
2, 5
8, 2
4, 6
10, 9
3, 6
3, 2
5, 3
4, 2
3, 7
6, 3
8, 4
12, 1
4, 3
1, 9
4, 8
3, 2
5, 6
5, 3
13, 3
7, 2
10, 2
15, 1
4, 7
1, 6
1, 4
2, 4
0, 2
5, 1
2, 2
1, 2
1, 4
3, 1
3, 1
3, 0
5, 5
3, 4
4, 3
2, 0
2, 2
4, 2
2, 2
7, 5
0, 1
1, 1
0, 3
2, 0
4, 2
3, 3
2, 1
0, 0
1, 1
2, 1
0, 1
1, 0
1, 2
3, 4
0, 0
2, 2
1, 1
1, 1
0, 1
3, 1
0, 0
1, 0
0, 1
0, 0
0, 1
0, 1
1, 2
1, 0
1, 0
0, 0
0, 0
1, 0
0, 0
0, 0
1, 0
0, 0
0, 0
0, 0
0, 2
0, 0
0, 0
0, 1
0, 0
0, 0
0, 0
0, 0
0, 0
1, 0
1, 1
0, 0
0, 0
0, 0
2, 0
1, 0
1, 0
1, 0
1, 0
0, 0
0, 0
0, 0
0, 0
0, 0
0, 0
0, 0
0, 0
0, 0
1, 0
1, 0
0, 0
0, 0
0, 0
0, 0
0, 0
0, 0
0, 0
0, 0
0, 0
0, 0
0, 0
0, 0
0, 0
0, 0
0, 0
0, 0
0, 0
0, 0
0, 0
0, 0
0, 0
0, 0
0, 0
0, 0
0, 0
0, 0
0, 0
0, 0
0, 0
0, 0
0, 0
0, 0
0, 0
0, 0
0, 0
0, 0
0, 0
0, 0
0, 0
0, 0
0, 0
0, 0
0, 0
0, 0
0, 0
0, 0
0, 0
0, 0
0, 0
0, 0
0, 0
0, 0
0, 0
0, 0
0, 0
0, 0
0, 0
0, 0
0, 0
0, 0
0, 0
0, 0
0, 0
0, 0
0, 0
0, 0
0, 0
0, 0
0, 0
0, 0
0, 0
0, 0
0, 0
0, 0
0, 0
0, 0
0, 0
0, 0
0, 0
0, 0
0, 0
0, 0
0, 0
0, 0
0, 0
0, 0
0, 0
0, 0
0, 0
0, 0
0, 0
0, 0
0, 0
0, 0
0, 0
0, 0
0, 0
0, 0
0, 0
0, 0
0, 0
0, 0
0, 0
0, 0
0, 0
0, 0
0, 0
0, 0
#ENDOFDATA     end of spectrum data