File: host_upload/06-09-2024/ps_0852/dump3/ps__0852shot_2128.msa
#FORMAT      : EMSA/MAS spectral data file
#VERSION     : TC202v2.0 PIXL
#TITLE       : N/A
#DATE        :       Date in the format DD-MMM-YYYY, for example 07-JUL-2010
#TIME        :             The time of day at which the spectrum was recorded, in 24-hour format
#OWNER       : PIXL Flight Model       (PIXL will use this to indicate which instrument took the data.)
#NPOINTS     : 4096     Number of data points in the spectrum (This can be zero for configuration only files)
#NCOLUMNS    : 2     Number of data columns in the spectrum (This can be zero for configuration only files)
#XUNITS      : eV
#YUNITS      : COUNTS
#DATATYPE    : YY
#XPERCHAN    : 7.862, 7.881   eV per channel (separate by commas if more than one detector)
#OFFSET      : 18.5, -22.4         eV of first channel  (separate by commas if more than one detector
#SIGNALTYPE  : XRF
#YP_TEMP     : 2.267
#LIVETIME    : 8.56734, 8.54912   seconds (separate by commas if more than one detector)
#REALTIME    : 10, 10.0   seconds (separate by commas if more than one detector)
#SPECTRUM    : start of spectrum data
0, 0
0, 0
0, 0
0, 0
0, 0
0, 0
0, 0
0, 0
0, 1
2, 0
4, 1
43, 40
51, 55
6, 8
4, 11
99, 93
440, 434
124, 104
9, 0
4, 0
4, 5
4, 6
7, 4
9, 16
34, 32
37, 38
44, 8
20, 9
8, 3
5, 4
3, 3
4, 3
7, 11
69, 73
101, 73
23, 16
12, 15
21, 14
5, 5
1, 1
6, 4
14, 10
16, 11
11, 7
8, 7
16, 9
14, 26
9, 41
14, 17
21, 21
15, 18
11, 6
15, 10
41, 44
52, 61
41, 24
43, 36
457, 541
2050, 2014
1499, 1253
184, 137
35, 16
30, 27
103, 109
302, 277
190, 170
23, 20
6, 11
14, 7
12, 6
7, 5
1, 9
5, 9
9, 8
3, 6
8, 3
12, 5
16, 8
7, 3
4, 7
3, 3
4, 5
4, 3
1, 8
6, 3
3, 6
2, 4
5, 6
4, 11
2, 5
1, 1
13, 1
17, 1
15, 2
14, 1
7, 4
3, 4
5, 3
3, 3
2, 2
3, 7
1, 7
3, 4
0, 3
1, 3
2, 2
1, 2
1, 3
0, 1
3, 0
3, 1
0, 5
3, 3
0, 4
1, 1
2, 4
3, 1
6, 2
2, 2
3, 1
0, 1
1, 1
3, 1
1, 3
3, 2
0, 4
2, 1
1, 1
2, 1
0, 2
0, 0
0, 3
2, 1
0, 2
0, 0
3, 0
0, 0
0, 3
0, 1
1, 0
0, 1
0, 0
0, 0
0, 0
0, 0
0, 1
0, 0
1, 2
0, 2
1, 0
0, 0
0, 0
1, 0
0, 0
0, 0
0, 1
0, 0
2, 1
1, 0
0, 0
0, 0
1, 0
1, 1
0, 0
0, 0
0, 0
0, 1
1, 0
1, 0
0, 0
1, 0
1, 0
0, 1
0, 0
1, 0
0, 0
0, 0
0, 0
0, 0
0, 0
0, 0
0, 0
0, 0
2, 0
0, 1
1, 0
0, 1
0, 0
0, 0
0, 0
0, 0
0, 0
0, 0
0, 0
0, 0
0, 0
0, 0
0, 0
0, 0
0, 0
0, 0
0, 0
0, 0
0, 0
0, 0
0, 0
0, 0
0, 0
0, 0
0, 0
0, 0
0, 0
0, 0
0, 0
0, 0
0, 0
0, 0
0, 0
0, 0
0, 0
0, 0
0, 0
0, 0
0, 0
0, 0
0, 0
0, 0
0, 0
0, 0
0, 0
0, 0
0, 0
0, 0
0, 0
0, 0
0, 0
0, 0
0, 0
0, 0
0, 0
0, 0
0, 0
0, 0
0, 0
0, 0
0, 0
0, 0
0, 0
0, 0
0, 0
0, 0
0, 0
0, 0
0, 0
0, 0
0, 0
0, 0
0, 0
0, 0
0, 0
0, 0
0, 0
0, 0
0, 0
0, 0
0, 0
0, 0
0, 0
0, 0
0, 0
0, 0
0, 0
0, 0
0, 0
0, 0
0, 0
0, 0
0, 0
0, 0
0, 0
0, 0
0, 0
0, 0
0, 0
0, 0
0, 0
0, 0
0, 0
0, 0
0, 0
0, 0
0, 0
0, 0
0, 0
#ENDOFDATA     end of spectrum data