File: host_upload/06-09-2024/ps_0852/dump3/ps__0852shot_2140.msa
#FORMAT      : EMSA/MAS spectral data file
#VERSION     : TC202v2.0 PIXL
#TITLE       : N/A
#DATE        :       Date in the format DD-MMM-YYYY, for example 07-JUL-2010
#TIME        :             The time of day at which the spectrum was recorded, in 24-hour format
#OWNER       : PIXL Flight Model       (PIXL will use this to indicate which instrument took the data.)
#NPOINTS     : 4096     Number of data points in the spectrum (This can be zero for configuration only files)
#NCOLUMNS    : 2     Number of data columns in the spectrum (This can be zero for configuration only files)
#XUNITS      : eV
#YUNITS      : COUNTS
#DATATYPE    : YY
#XPERCHAN    : 7.862, 7.881   eV per channel (separate by commas if more than one detector)
#OFFSET      : 18.5, -22.4         eV of first channel  (separate by commas if more than one detector
#SIGNALTYPE  : XRF
#YP_TEMP     : 2.524
#LIVETIME    : 8.56139, 8.5766   seconds (separate by commas if more than one detector)
#REALTIME    : 10, 10.0   seconds (separate by commas if more than one detector)
#SPECTRUM    : start of spectrum data
0, 0
0, 0
0, 0
0, 0
0, 0
0, 0
0, 0
0, 0
0, 2
2, 5
2, 2
48, 23
49, 29
9, 2
10, 15
76, 73
376, 296
89, 52
14, 7
5, 7
33, 28
143, 146
69, 60
20, 18
149, 83
190, 94
41, 33
20, 13
6, 10
3, 5
8, 4
6, 5
10, 7
86, 102
138, 144
26, 19
22, 21
19, 18
11, 7
4, 4
3, 5
14, 15
15, 16
35, 13
50, 3
18, 6
10, 18
7, 12
9, 4
22, 11
11, 11
3, 6
8, 12
40, 49
72, 61
28, 22
29, 38
464, 563
2329, 2107
1731, 1255
223, 131
14, 38
25, 34
121, 113
350, 360
241, 158
40, 25
10, 7
15, 10
4, 8
2, 2
3, 2
3, 4
6, 5
3, 5
5, 6
7, 6
1, 4
6, 1
7, 4
13, 2
11, 6
4, 0
7, 1
4, 5
4, 3
1, 4
7, 1
8, 2
8, 10
2, 22
1, 8
3, 8
1, 6
4, 3
2, 1
0, 3
1, 1
4, 1
4, 1
2, 1
3, 2
2, 2
6, 2
2, 2
1, 4
3, 3
7, 1
3, 1
3, 0
2, 2
1, 2
3, 1
1, 2
1, 2
3, 2
4, 3
3, 2
2, 1
2, 1
3, 0
1, 2
1, 1
2, 2
0, 1
2, 0
1, 1
2, 0
0, 0
0, 1
1, 1
2, 2
0, 2
1, 2
0, 1
1, 1
1, 0
1, 1
2, 2
0, 0
0, 0
0, 0
1, 0
0, 0
1, 1
0, 0
0, 1
0, 4
0, 1
0, 0
0, 1
1, 0
1, 0
0, 0
0, 0
0, 1
1, 0
0, 1
0, 0
1, 1
0, 0
0, 0
0, 0
0, 1
1, 0
0, 0
1, 0
1, 0
0, 0
0, 0
0, 0
0, 2
0, 1
1, 0
0, 1
0, 1
0, 0
0, 0
0, 0
0, 1
0, 0
0, 0
1, 0
1, 1
0, 1
0, 0
0, 0
0, 0
0, 0
0, 0
0, 0
0, 1
0, 0
0, 0
0, 1
0, 0
1, 0
0, 0
0, 0
0, 0
0, 0
0, 0
1, 0
0, 0
0, 0
0, 0
0, 0
0, 0
0, 0
0, 0
0, 0
0, 0
0, 0
0, 0
0, 0
0, 0
0, 0
0, 0
0, 0
0, 0
0, 0
0, 0
0, 0
0, 0
0, 0
0, 0
0, 0
0, 0
0, 0
0, 0
0, 0
0, 0
0, 0
0, 0
0, 0
0, 0
0, 0
0, 0
0, 0
0, 0
0, 0
0, 0
0, 0
0, 0
0, 0
0, 0
0, 0
0, 0
0, 0
0, 0
0, 0
0, 0
0, 0
0, 0
0, 0
0, 0
0, 0
0, 0
0, 0
0, 0
0, 0
0, 0
0, 0
0, 0
0, 0
0, 0
0, 0
0, 0
0, 0
0, 0
0, 0
0, 0
0, 0
0, 0
0, 0
0, 0
0, 0
0, 0
0, 0
0, 0
0, 0
0, 0
0, 0
0, 0
0, 0
0, 0
0, 0
0, 0
0, 0
0, 0
0, 0
0, 0
0, 0
0, 0
#ENDOFDATA     end of spectrum data