File: host_upload/06-09-2024/ps_0852/dump3/ps__0852shot_2391.msa
#FORMAT      : EMSA/MAS spectral data file
#VERSION     : TC202v2.0 PIXL
#TITLE       : N/A
#DATE        :       Date in the format DD-MMM-YYYY, for example 07-JUL-2010
#TIME        :             The time of day at which the spectrum was recorded, in 24-hour format
#OWNER       : PIXL Flight Model       (PIXL will use this to indicate which instrument took the data.)
#NPOINTS     : 4096     Number of data points in the spectrum (This can be zero for configuration only files)
#NCOLUMNS    : 2     Number of data columns in the spectrum (This can be zero for configuration only files)
#XUNITS      : eV
#YUNITS      : COUNTS
#DATATYPE    : YY
#XPERCHAN    : 7.862, 7.881   eV per channel (separate by commas if more than one detector)
#OFFSET      : 18.5, -22.4         eV of first channel  (separate by commas if more than one detector
#SIGNALTYPE  : XRF
#YP_TEMP     : 2.524
#LIVETIME    : 8.56068, 8.53618   seconds (separate by commas if more than one detector)
#REALTIME    : 10, 10.0   seconds (separate by commas if more than one detector)
#SPECTRUM    : start of spectrum data
0, 0
0, 0
0, 0
0, 0
0, 0
0, 0
0, 0
0, 0
0, 1
1, 0
1, 4
56, 41
77, 49
4, 3
6, 10
94, 94
524, 388
121, 79
5, 6
1, 1
0, 4
19, 13
7, 7
7, 4
42, 20
49, 24
31, 19
30, 9
1, 2
3, 4
3, 2
4, 2
5, 3
7, 6
22, 12
7, 5
6, 3
6, 5
17, 3
63, 3
88, 2
27, 12
11, 8
11, 13
5, 15
5, 8
2, 12
3, 9
9, 10
11, 11
26, 6
53, 6
80, 9
139, 34
127, 43
28, 16
36, 27
492, 552
2390, 2203
1753, 1258
223, 126
16, 20
27, 23
95, 126
363, 302
256, 171
47, 23
8, 7
14, 15
5, 7
6, 4
7, 6
8, 7
4, 7
2, 1
6, 6
10, 7
9, 15
10, 18
19, 7
18, 13
8, 21
3, 9
5, 1
3, 1
5, 1
1, 1
3, 2
5, 3
4, 5
3, 4
6, 6
12, 7
10, 25
5, 9
4, 4
2, 5
1, 0
3, 5
3, 3
1, 1
3, 3
2, 2
1, 1
1, 0
2, 4
5, 2
1, 1
1, 0
5, 1
1, 3
2, 6
4, 2
1, 0
3, 1
1, 7
8, 5
1, 4
4, 1
1, 0
1, 3
3, 2
2, 1
0, 0
0, 1
0, 1
0, 1
0, 0
3, 3
1, 1
2, 1
3, 1
3, 0
1, 1
0, 0
0, 1
1, 2
0, 0
1, 0
0, 1
0, 0
0, 2
1, 1
0, 1
0, 2
2, 0
0, 2
0, 0
0, 0
1, 1
0, 1
0, 0
0, 0
0, 0
0, 0
1, 0
0, 0
0, 1
0, 3
1, 1
0, 0
0, 0
0, 0
0, 0
0, 0
0, 0
0, 0
0, 0
0, 0
0, 0
0, 0
0, 0
0, 1
2, 0
0, 0
0, 0
0, 1
1, 0
0, 0
0, 0
0, 0
0, 0
0, 0
1, 0
0, 0
0, 0
1, 0
0, 1
0, 0
0, 1
0, 0
0, 0
0, 0
0, 1
0, 0
0, 0
0, 0
0, 0
0, 0
0, 1
0, 0
0, 0
0, 0
0, 0
0, 0
0, 0
0, 0
1, 0
0, 0
0, 0
0, 0
0, 0
0, 0
0, 0
0, 0
0, 0
0, 0
0, 0
0, 0
0, 0
0, 0
0, 0
0, 0
0, 0
0, 0
0, 0
0, 0
0, 0
0, 0
0, 0
0, 0
0, 0
0, 0
0, 0
0, 0
0, 0
0, 0
0, 0
0, 0
0, 0
0, 0
0, 0
0, 0
0, 0
0, 0
0, 0
0, 0
0, 0
0, 0
0, 0
0, 0
0, 0
0, 0
0, 0
0, 0
0, 0
0, 0
0, 0
0, 0
0, 0
0, 0
0, 0
0, 0
0, 0
0, 0
0, 0
0, 0
0, 0
0, 0
0, 0
0, 0
0, 0
0, 0
0, 0
0, 0
0, 0
0, 0
0, 0
0, 0
0, 0
0, 0
0, 0
0, 0
0, 0
0, 0
0, 0
0, 0
0, 0
0, 0
0, 0
0, 0
0, 0
0, 0
0, 0
#ENDOFDATA     end of spectrum data