File: host_upload/06-09-2024/ps_0852/dump3/ps__0852shot_2260.msa
#FORMAT      : EMSA/MAS spectral data file
#VERSION     : TC202v2.0 PIXL
#TITLE       : N/A
#DATE        :       Date in the format DD-MMM-YYYY, for example 07-JUL-2010
#TIME        :             The time of day at which the spectrum was recorded, in 24-hour format
#OWNER       : PIXL Flight Model       (PIXL will use this to indicate which instrument took the data.)
#NPOINTS     : 4096     Number of data points in the spectrum (This can be zero for configuration only files)
#NCOLUMNS    : 2     Number of data columns in the spectrum (This can be zero for configuration only files)
#XUNITS      : eV
#YUNITS      : COUNTS
#DATATYPE    : YY
#XPERCHAN    : 7.862, 7.881   eV per channel (separate by commas if more than one detector)
#OFFSET      : 18.5, -22.4         eV of first channel  (separate by commas if more than one detector
#SIGNALTYPE  : XRF
#YP_TEMP     : 2.428
#LIVETIME    : 8.56374, 8.57289   seconds (separate by commas if more than one detector)
#REALTIME    : 10, 10.0   seconds (separate by commas if more than one detector)
#SPECTRUM    : start of spectrum data
0, 0
0, 0
0, 0
0, 0
0, 0
0, 0
0, 0
0, 0
5, 4
16, 1
7, 2
56, 48
62, 55
10, 5
5, 4
82, 96
430, 382
91, 89
6, 5
2, 2
3, 3
4, 12
3, 3
30, 4
467, 29
806, 65
143, 46
14, 16
4, 5
0, 4
0, 3
3, 0
4, 3
11, 9
18, 14
11, 4
2, 2
31, 1
51, 9
16, 1
16, 8
11, 20
15, 31
14, 56
7, 99
6, 21
6, 1
6, 5
8, 9
20, 26
26, 22
37, 17
17, 14
48, 57
65, 55
29, 33
42, 78
464, 603
2091, 2228
1477, 1342
201, 166
24, 23
91, 20
159, 128
352, 379
208, 213
41, 18
6, 8
15, 15
8, 10
4, 4
5, 2
1, 7
7, 5
14, 6
52, 11
49, 5
21, 6
3, 1
3, 5
3, 3
2, 4
3, 6
3, 6
2, 6
3, 5
7, 9
4, 9
3, 4
1, 5
1, 6
2, 8
2, 1
3, 1
3, 7
3, 0
2, 2
1, 4
4, 4
5, 5
6, 6
5, 3
3, 3
1, 3
3, 3
1, 2
5, 2
4, 3
0, 2
1, 2
2, 4
1, 0
8, 0
3, 1
5, 1
0, 4
3, 4
3, 1
2, 2
0, 0
3, 1
3, 0
2, 5
3, 3
0, 1
2, 1
1, 1
0, 0
0, 0
0, 0
1, 0
1, 0
0, 2
2, 0
0, 0
0, 1
1, 0
0, 1
0, 2
0, 1
0, 0
0, 0
1, 1
1, 0
1, 0
1, 1
0, 0
0, 1
1, 0
1, 2
2, 0
3, 1
0, 1
0, 0
0, 0
0, 0
0, 1
0, 0
1, 0
0, 0
0, 0
0, 2
0, 0
0, 0
0, 0
0, 0
0, 0
0, 0
0, 0
1, 0
0, 1
0, 1
0, 1
0, 0
0, 0
0, 0
0, 0
1, 1
0, 0
0, 0
0, 0
0, 1
0, 0
0, 0
0, 0
0, 0
1, 0
0, 1
0, 0
0, 0
0, 0
0, 0
0, 0
0, 0
0, 0
0, 0
0, 0
0, 0
0, 0
0, 0
0, 0
0, 0
0, 0
0, 0
0, 0
1, 0
0, 0
0, 0
0, 0
0, 0
0, 0
0, 0
0, 0
1, 0
0, 0
0, 0
0, 0
0, 0
0, 0
0, 0
0, 0
0, 0
0, 0
0, 0
0, 0
0, 0
0, 0
0, 0
0, 0
0, 1
0, 0
0, 0
0, 0
0, 0
0, 0
0, 0
0, 0
0, 0
0, 0
0, 0
0, 0
0, 0
0, 0
0, 0
0, 0
0, 0
0, 0
0, 0
0, 0
0, 0
0, 0
0, 0
0, 0
0, 0
0, 0
0, 0
0, 0
0, 0
0, 0
0, 0
0, 0
0, 0
0, 0
0, 0
0, 0
0, 0
0, 0
0, 0
0, 0
0, 0
0, 0
0, 0
0, 0
0, 0
0, 0
0, 0
0, 0
0, 0
0, 0
0, 0
0, 0
0, 0
0, 0
0, 0
0, 0
0, 0
0, 0
0, 0
0, 0
0, 0
0, 0
0, 0
0, 0
0, 0
#ENDOFDATA     end of spectrum data