File: host_upload/06-09-2024/ps_0852/dump3/ps__0852shot_2560.msa
#FORMAT      : EMSA/MAS spectral data file
#VERSION     : TC202v2.0 PIXL
#TITLE       : N/A
#DATE        :       Date in the format DD-MMM-YYYY, for example 07-JUL-2010
#TIME        :             The time of day at which the spectrum was recorded, in 24-hour format
#OWNER       : PIXL Flight Model       (PIXL will use this to indicate which instrument took the data.)
#NPOINTS     : 4096     Number of data points in the spectrum (This can be zero for configuration only files)
#NCOLUMNS    : 2     Number of data columns in the spectrum (This can be zero for configuration only files)
#XUNITS      : eV
#YUNITS      : COUNTS
#DATATYPE    : YY
#XPERCHAN    : 7.862, 7.881   eV per channel (separate by commas if more than one detector)
#OFFSET      : 18.5, -22.4         eV of first channel  (separate by commas if more than one detector
#SIGNALTYPE  : XRF
#YP_TEMP     : 2.043
#LIVETIME    : 8.54258, 8.57455   seconds (separate by commas if more than one detector)
#REALTIME    : 10, 10.0   seconds (separate by commas if more than one detector)
#SPECTRUM    : start of spectrum data
0, 0
0, 0
0, 0
0, 0
0, 0
0, 0
0, 0
1, 0
0, 1
2, 2
2, 3
51, 43
86, 59
5, 3
6, 5
110, 106
483, 422
91, 108
6, 6
5, 4
4, 0
9, 2
4, 10
7, 23
56, 34
82, 39
43, 28
15, 17
0, 2
1, 3
1, 5
2, 2
12, 10
22, 15
25, 23
19, 6
12, 7
8, 4
6, 4
4, 6
9, 6
12, 16
16, 24
14, 16
13, 4
11, 9
7, 15
12, 9
16, 9
18, 19
20, 10
21, 8
11, 17
47, 40
58, 63
32, 18
39, 48
525, 542
2373, 2259
1578, 1352
214, 134
24, 11
28, 26
116, 139
322, 369
222, 183
27, 19
11, 7
24, 13
12, 13
5, 7
4, 9
6, 5
7, 12
7, 12
11, 10
3, 3
6, 2
4, 9
5, 2
4, 5
2, 8
6, 2
7, 3
6, 4
11, 4
4, 4
13, 6
6, 4
7, 4
5, 3
2, 5
3, 3
6, 3
2, 1
3, 2
5, 4
2, 5
2, 4
7, 3
4, 0
6, 4
2, 2
4, 3
2, 2
2, 4
4, 3
3, 2
2, 0
3, 4
4, 0
1, 2
3, 2
3, 1
2, 1
3, 4
4, 3
2, 3
5, 2
1, 1
0, 0
3, 1
4, 1
3, 3
5, 0
2, 0
3, 1
2, 0
0, 0
1, 2
5, 0
2, 0
3, 2
0, 2
0, 0
0, 0
1, 1
3, 0
0, 1
0, 2
0, 2
1, 1
1, 0
0, 2
0, 2
1, 0
0, 0
0, 1
0, 2
0, 0
1, 0
0, 1
2, 1
0, 0
0, 1
0, 0
1, 2
1, 0
0, 0
0, 0
0, 2
0, 0
1, 1
0, 0
0, 2
1, 0
0, 0
2, 0
1, 1
0, 0
0, 1
1, 0
0, 0
0, 0
0, 0
1, 0
0, 0
0, 0
0, 0
1, 0
0, 2
1, 0
0, 0
0, 0
2, 0
0, 0
0, 1
0, 0
0, 0
0, 0
0, 0
0, 0
0, 0
0, 0
0, 0
0, 0
0, 0
0, 0
0, 0
0, 0
0, 0
0, 0
0, 0
0, 0
0, 0
0, 0
0, 0
0, 0
0, 0
0, 0
0, 0
0, 0
0, 0
0, 0
0, 0
0, 0
0, 0
0, 0
0, 0
0, 0
0, 0
0, 0
0, 0
0, 0
0, 0
0, 0
0, 0
0, 0
0, 0
0, 0
0, 0
0, 0
0, 0
0, 0
0, 0
0, 0
0, 0
0, 0
0, 0
0, 0
0, 0
0, 0
0, 0
0, 0
0, 0
0, 0
0, 0
0, 0
0, 0
0, 0
0, 0
0, 0
0, 0
0, 0
0, 0
0, 0
0, 0
0, 0
0, 0
0, 0
0, 0
0, 0
0, 0
0, 0
0, 0
0, 0
0, 0
0, 0
0, 0
0, 0
0, 0
0, 0
0, 0
0, 0
0, 0
0, 0
0, 0
0, 0
0, 0
0, 0
0, 0
0, 0
0, 0
0, 0
0, 0
0, 0
0, 0
0, 0
0, 0
0, 0
0, 0
0, 0
0, 0
0, 0
#ENDOFDATA     end of spectrum data