File: host_upload/06-09-2024/ps_0852/dump3/ps__0852shot_2062.msa
#FORMAT      : EMSA/MAS spectral data file
#VERSION     : TC202v2.0 PIXL
#TITLE       : N/A
#DATE        :       Date in the format DD-MMM-YYYY, for example 07-JUL-2010
#TIME        :             The time of day at which the spectrum was recorded, in 24-hour format
#OWNER       : PIXL Flight Model       (PIXL will use this to indicate which instrument took the data.)
#NPOINTS     : 4096     Number of data points in the spectrum (This can be zero for configuration only files)
#NCOLUMNS    : 2     Number of data columns in the spectrum (This can be zero for configuration only files)
#XUNITS      : eV
#YUNITS      : COUNTS
#DATATYPE    : YY
#XPERCHAN    : 7.862, 7.881   eV per channel (separate by commas if more than one detector)
#OFFSET      : 18.5, -22.4         eV of first channel  (separate by commas if more than one detector
#SIGNALTYPE  : XRF
#YP_TEMP     : 2.171
#LIVETIME    : 8.5649, 8.3597   seconds (separate by commas if more than one detector)
#REALTIME    : 10, 10.0   seconds (separate by commas if more than one detector)
#SPECTRUM    : start of spectrum data
0, 0
0, 0
0, 0
0, 0
0, 0
0, 0
0, 0
0, 0
0, 1
1, 1
2, 3
56, 49
67, 52
5, 8
6, 5
101, 88
399, 398
96, 112
2, 2
1, 2
2, 2
2, 3
2, 3
5, 7
21, 22
31, 23
23, 15
19, 11
5, 5
1, 2
0, 0
1, 3
3, 5
5, 14
10, 10
2, 1
2, 4
3, 5
5, 1
22, 6
31, 1
6, 8
13, 7
10, 5
12, 4
37, 8
36, 10
12, 4
8, 19
15, 62
8, 39
14, 11
26, 20
77, 38
75, 55
18, 24
34, 44
496, 580
2128, 2279
1536, 1399
179, 156
14, 18
17, 15
106, 115
311, 356
238, 195
43, 26
21, 7
39, 11
21, 4
14, 6
4, 1
3, 7
4, 3
4, 4
4, 11
2, 4
2, 5
6, 5
6, 8
7, 4
4, 12
2, 4
1, 1
3, 7
2, 6
2, 5
3, 3
5, 4
4, 2
9, 1
8, 4
7, 5
2, 6
2, 5
4, 2
3, 3
3, 3
0, 7
2, 2
3, 2
2, 6
2, 3
0, 2
1, 0
7, 0
1, 0
2, 1
4, 1
0, 0
3, 0
1, 3
0, 2
1, 1
2, 2
1, 1
1, 5
4, 6
0, 3
1, 0
1, 1
0, 2
1, 2
1, 3
3, 0
1, 3
2, 0
0, 1
0, 0
1, 2
3, 1
2, 1
0, 0
0, 0
1, 0
2, 0
0, 0
0, 1
0, 0
1, 0
0, 1
1, 1
0, 0
1, 1
2, 0
0, 0
0, 3
0, 0
0, 0
0, 0
1, 0
0, 0
0, 0
0, 0
0, 0
1, 0
0, 1
1, 0
1, 0
0, 0
0, 0
0, 0
0, 0
1, 0
0, 0
0, 0
0, 0
0, 1
0, 0
0, 0
0, 0
0, 0
1, 0
1, 0
1, 0
0, 0
0, 0
0, 0
0, 0
0, 1
0, 0
1, 0
0, 0
1, 0
0, 0
0, 0
0, 0
0, 0
0, 0
0, 0
0, 0
0, 0
0, 0
0, 0
0, 0
0, 0
0, 0
0, 0
0, 0
0, 0
0, 0
0, 0
0, 0
0, 0
0, 0
0, 0
0, 0
0, 0
0, 0
0, 0
0, 0
0, 0
0, 0
0, 0
0, 0
0, 0
0, 0
0, 0
0, 0
0, 0
0, 0
0, 0
0, 0
0, 0
0, 0
0, 0
0, 0
0, 0
0, 0
0, 0
0, 0
0, 0
0, 0
0, 0
0, 0
0, 0
0, 0
0, 0
0, 0
0, 0
0, 0
0, 0
0, 0
0, 0
0, 0
0, 0
0, 0
0, 0
0, 0
0, 0
0, 0
0, 0
0, 0
0, 0
0, 0
0, 0
0, 0
0, 0
0, 0
0, 0
0, 0
0, 0
0, 0
0, 0
0, 0
0, 0
0, 0
0, 0
0, 0
0, 0
0, 0
0, 0
0, 0
0, 0
0, 0
0, 0
0, 0
0, 0
0, 0
0, 0
0, 0
0, 0
0, 0
0, 0
0, 0
0, 0
0, 0
0, 0
0, 0
0, 0
0, 0
0, 0
0, 0
0, 0
#ENDOFDATA     end of spectrum data