File: host_upload/06-09-2024/ps_0852/dump3/ps__0852shot_2286.msa
#FORMAT      : EMSA/MAS spectral data file
#VERSION     : TC202v2.0 PIXL
#TITLE       : N/A
#DATE        :       Date in the format DD-MMM-YYYY, for example 07-JUL-2010
#TIME        :             The time of day at which the spectrum was recorded, in 24-hour format
#OWNER       : PIXL Flight Model       (PIXL will use this to indicate which instrument took the data.)
#NPOINTS     : 4096     Number of data points in the spectrum (This can be zero for configuration only files)
#NCOLUMNS    : 2     Number of data columns in the spectrum (This can be zero for configuration only files)
#XUNITS      : eV
#YUNITS      : COUNTS
#DATATYPE    : YY
#XPERCHAN    : 7.862, 7.881   eV per channel (separate by commas if more than one detector)
#OFFSET      : 18.5, -22.4         eV of first channel  (separate by commas if more than one detector
#SIGNALTYPE  : XRF
#YP_TEMP     : 2.107
#LIVETIME    : 8.52153, 8.52513   seconds (separate by commas if more than one detector)
#REALTIME    : 10, 10.0   seconds (separate by commas if more than one detector)
#SPECTRUM    : start of spectrum data
0, 0
0, 0
0, 0
0, 0
0, 0
0, 0
0, 0
0, 0
3, 4
4, 1
2, 5
39, 39
55, 52
3, 6
2, 2
76, 77
256, 317
61, 77
12, 3
5, 6
79, 96
529, 501
213, 210
61, 71
113, 111
65, 70
32, 36
23, 16
3, 3
5, 3
11, 17
15, 14
5, 7
12, 14
20, 17
5, 11
6, 4
9, 8
4, 6
5, 3
6, 2
4, 11
14, 18
12, 13
6, 21
7, 31
8, 16
4, 6
6, 9
21, 24
54, 24
41, 33
20, 16
58, 46
71, 74
19, 16
29, 42
443, 618
2109, 2391
1493, 1401
194, 141
19, 17
23, 19
89, 134
356, 357
213, 171
22, 22
7, 9
13, 7
54, 7
48, 4
13, 5
6, 3
9, 4
5, 4
5, 4
5, 5
3, 6
1, 5
6, 4
6, 5
9, 6
8, 3
3, 5
3, 8
2, 3
3, 4
4, 6
8, 3
5, 7
4, 16
4, 16
7, 5
4, 5
1, 4
1, 6
3, 2
2, 6
2, 2
4, 3
7, 6
4, 1
5, 2
2, 3
2, 3
1, 1
0, 0
3, 1
2, 2
0, 3
7, 1
1, 5
1, 1
2, 2
1, 0
1, 3
2, 6
3, 3
0, 4
0, 3
2, 1
2, 2
3, 1
2, 2
0, 1
1, 1
1, 5
2, 1
1, 1
0, 3
0, 0
3, 0
0, 1
0, 1
3, 0
1, 0
1, 1
1, 0
0, 0
0, 1
0, 0
0, 0
1, 0
0, 0
0, 2
0, 0
1, 0
1, 1
0, 0
2, 0
0, 0
0, 0
1, 0
0, 0
1, 0
1, 0
0, 1
1, 0
0, 0
2, 0
1, 0
1, 0
0, 0
1, 0
2, 2
1, 0
0, 0
1, 2
0, 0
0, 0
0, 0
0, 0
1, 0
0, 0
0, 0
0, 0
0, 1
0, 0
0, 0
0, 0
0, 0
0, 0
0, 0
0, 0
0, 0
0, 0
0, 0
0, 0
1, 0
0, 0
0, 0
0, 0
0, 0
0, 0
0, 0
0, 0
0, 0
0, 0
0, 0
0, 0
0, 0
0, 0
0, 0
0, 0
0, 0
0, 0
0, 0
0, 0
0, 0
0, 0
0, 0
0, 0
0, 0
0, 0
0, 0
0, 0
0, 0
0, 0
0, 0
0, 0
0, 0
0, 0
0, 0
0, 0
0, 0
0, 0
0, 0
0, 0
0, 0
0, 0
0, 0
0, 0
0, 0
0, 0
0, 0
0, 0
0, 0
0, 0
0, 0
0, 0
0, 0
0, 0
0, 0
0, 0
0, 0
0, 0
0, 0
0, 0
0, 0
0, 0
0, 0
0, 0
0, 0
0, 0
0, 0
0, 0
0, 0
0, 0
0, 0
0, 0
0, 0
0, 0
0, 0
0, 0
0, 0
0, 0
0, 0
0, 0
0, 0
0, 0
0, 0
0, 0
0, 0
0, 0
0, 0
0, 0
0, 0
0, 0
0, 0
0, 0
0, 0
0, 0
0, 0
0, 0
0, 0
0, 0
0, 0
0, 0
0, 0
0, 0
0, 0
0, 0
0, 0
0, 0
#ENDOFDATA     end of spectrum data