File: host_upload/06-09-2024/ps_0852/dump3/ps__0852shot_2162.msa
#FORMAT      : EMSA/MAS spectral data file
#VERSION     : TC202v2.0 PIXL
#TITLE       : N/A
#DATE        :       Date in the format DD-MMM-YYYY, for example 07-JUL-2010
#TIME        :             The time of day at which the spectrum was recorded, in 24-hour format
#OWNER       : PIXL Flight Model       (PIXL will use this to indicate which instrument took the data.)
#NPOINTS     : 4096     Number of data points in the spectrum (This can be zero for configuration only files)
#NCOLUMNS    : 2     Number of data columns in the spectrum (This can be zero for configuration only files)
#XUNITS      : eV
#YUNITS      : COUNTS
#DATATYPE    : YY
#XPERCHAN    : 7.862, 7.881   eV per channel (separate by commas if more than one detector)
#OFFSET      : 18.5, -22.4         eV of first channel  (separate by commas if more than one detector
#SIGNALTYPE  : XRF
#YP_TEMP     : 2.556
#LIVETIME    : 8.56956, 8.54737   seconds (separate by commas if more than one detector)
#REALTIME    : 10, 10.0   seconds (separate by commas if more than one detector)
#SPECTRUM    : start of spectrum data
0, 0
0, 0
0, 0
0, 0
0, 0
0, 0
0, 0
0, 0
2, 2
2, 1
3, 4
31, 31
39, 47
6, 4
7, 7
60, 68
274, 301
64, 72
4, 9
3, 7
80, 75
473, 454
189, 181
38, 44
106, 133
91, 82
33, 35
22, 21
14, 6
9, 3
11, 16
10, 16
7, 4
26, 15
26, 28
9, 4
6, 8
6, 4
7, 5
6, 3
6, 4
10, 6
17, 14
15, 8
8, 10
6, 29
8, 17
6, 14
6, 15
23, 31
53, 30
44, 24
9, 10
39, 45
51, 54
20, 18
26, 38
425, 624
2051, 2308
1538, 1345
202, 144
23, 15
22, 25
108, 118
313, 365
208, 205
36, 16
9, 9
28, 19
55, 9
50, 6
22, 4
6, 6
8, 5
6, 4
7, 6
11, 3
1, 0
9, 5
3, 5
7, 4
11, 4
8, 2
3, 1
5, 4
1, 17
2, 3
5, 5
5, 1
10, 9
5, 21
6, 11
5, 3
3, 3
1, 2
4, 2
1, 3
3, 2
4, 3
4, 3
6, 1
4, 5
5, 2
0, 1
3, 2
0, 2
2, 2
2, 3
1, 3
0, 2
2, 0
3, 2
4, 3
0, 0
2, 4
7, 1
5, 4
1, 3
0, 0
1, 2
2, 1
3, 0
5, 4
1, 1
1, 0
3, 1
3, 1
1, 2
0, 1
1, 2
3, 4
0, 0
0, 2
0, 1
0, 0
2, 0
0, 1
0, 2
1, 0
1, 0
1, 0
0, 0
0, 0
1, 0
0, 0
1, 0
1, 0
0, 0
0, 1
0, 0
0, 0
0, 0
1, 0
1, 0
1, 2
1, 0
1, 0
0, 0
0, 1
0, 0
1, 0
0, 0
0, 0
1, 0
0, 0
0, 1
0, 1
1, 0
0, 0
0, 1
1, 0
1, 0
0, 0
0, 0
0, 0
1, 1
0, 0
0, 0
0, 0
0, 0
0, 0
0, 0
0, 1
0, 0
1, 0
0, 0
0, 0
0, 0
0, 0
0, 0
0, 0
0, 0
0, 0
0, 1
0, 0
1, 0
0, 0
0, 0
0, 0
0, 0
0, 0
0, 0
0, 0
0, 0
0, 0
0, 0
0, 0
0, 0
0, 0
0, 0
0, 0
0, 0
0, 0
0, 0
0, 0
0, 0
0, 0
0, 0
0, 0
0, 0
0, 0
0, 0
0, 0
0, 0
0, 0
0, 0
0, 0
0, 0
0, 0
0, 0
0, 0
0, 0
0, 0
0, 0
0, 0
0, 0
0, 0
0, 0
0, 0
0, 0
0, 0
0, 0
0, 0
0, 0
0, 0
0, 0
0, 0
0, 0
0, 0
0, 0
0, 0
0, 0
0, 0
0, 0
0, 0
0, 0
0, 0
0, 0
0, 0
0, 0
0, 0
0, 0
0, 0
0, 0
0, 0
0, 0
0, 0
0, 0
0, 0
0, 0
0, 0
0, 0
0, 0
0, 0
0, 0
0, 0
0, 0
0, 0
0, 0
0, 0
0, 0
0, 0
0, 0
0, 0
0, 0
0, 0
0, 0
0, 0
0, 0
0, 0
0, 0
0, 0
0, 0
0, 0
#ENDOFDATA     end of spectrum data