File: host_upload/06-09-2024/ps_0852/dump3/ps__0852shot_2275.msa
#FORMAT      : EMSA/MAS spectral data file
#VERSION     : TC202v2.0 PIXL
#TITLE       : N/A
#DATE        :       Date in the format DD-MMM-YYYY, for example 07-JUL-2010
#TIME        :             The time of day at which the spectrum was recorded, in 24-hour format
#OWNER       : PIXL Flight Model       (PIXL will use this to indicate which instrument took the data.)
#NPOINTS     : 4096     Number of data points in the spectrum (This can be zero for configuration only files)
#NCOLUMNS    : 2     Number of data columns in the spectrum (This can be zero for configuration only files)
#XUNITS      : eV
#YUNITS      : COUNTS
#DATATYPE    : YY
#XPERCHAN    : 7.862, 7.881   eV per channel (separate by commas if more than one detector)
#OFFSET      : 18.5, -22.4         eV of first channel  (separate by commas if more than one detector
#SIGNALTYPE  : XRF
#YP_TEMP     : 2.684
#LIVETIME    : 8.5727, 8.57237   seconds (separate by commas if more than one detector)
#REALTIME    : 10, 10.0   seconds (separate by commas if more than one detector)
#SPECTRUM    : start of spectrum data
0, 0
0, 0
0, 0
0, 0
0, 0
0, 0
0, 0
0, 0
2, 3
2, 1
2, 3
32, 32
48, 59
5, 6
4, 3
83, 114
352, 383
105, 87
4, 10
1, 3
10, 10
44, 63
21, 29
8, 15
32, 46
45, 42
17, 22
8, 15
1, 2
0, 3
1, 6
2, 10
4, 1
8, 12
7, 10
4, 4
1, 5
3, 4
3, 7
1, 2
4, 6
18, 10
21, 12
11, 12
9, 9
3, 11
3, 7
4, 5
6, 10
11, 12
10, 6
11, 4
19, 16
32, 64
47, 73
14, 14
32, 41
429, 671
1865, 2473
1460, 1469
173, 153
15, 48
17, 43
99, 130
311, 423
228, 227
22, 29
7, 7
13, 15
6, 13
7, 8
5, 9
3, 5
0, 5
6, 3
3, 6
6, 7
3, 0
1, 3
4, 5
0, 3
8, 5
8, 5
12, 5
15, 6
6, 4
0, 4
2, 1
1, 2
6, 4
3, 7
7, 15
12, 16
15, 3
3, 6
1, 1
5, 5
6, 5
4, 5
1, 3
3, 7
2, 4
2, 7
1, 3
6, 4
3, 1
3, 3
2, 2
2, 2
1, 2
2, 3
4, 3
1, 1
2, 4
0, 1
3, 5
2, 7
2, 2
1, 2
1, 2
1, 1
2, 3
0, 2
4, 3
2, 0
5, 0
0, 4
2, 4
0, 3
1, 2
0, 1
2, 1
0, 4
0, 2
2, 1
2, 0
1, 1
0, 2
1, 0
0, 0
0, 0
1, 0
0, 1
0, 1
0, 4
0, 1
0, 1
0, 0
1, 0
0, 1
0, 1
0, 1
0, 0
0, 1
0, 0
0, 0
0, 0
0, 0
0, 0
0, 0
0, 0
0, 0
0, 0
1, 0
0, 1
0, 2
1, 0
1, 0
0, 0
0, 1
0, 0
1, 1
0, 0
0, 0
0, 0
0, 0
0, 0
0, 0
0, 0
0, 0
1, 0
0, 0
0, 0
0, 0
0, 0
0, 0
0, 0
0, 0
0, 0
0, 0
0, 0
0, 0
0, 0
0, 0
0, 0
0, 0
0, 0
0, 0
0, 0
0, 0
0, 0
0, 0
0, 0
0, 0
0, 0
0, 1
0, 0
0, 0
0, 0
0, 0
0, 0
0, 0
0, 0
0, 0
0, 1
0, 0
0, 0
0, 0
0, 0
0, 0
0, 0
0, 0
0, 0
0, 0
0, 0
0, 0
0, 0
0, 0
0, 0
0, 0
0, 0
0, 0
0, 0
0, 0
0, 0
0, 0
0, 0
0, 0
0, 0
0, 0
0, 0
0, 0
0, 0
0, 0
0, 0
0, 0
0, 0
0, 0
0, 0
0, 0
0, 0
0, 0
0, 0
0, 0
0, 0
0, 0
0, 0
0, 0
0, 0
0, 0
0, 0
0, 0
0, 0
0, 0
0, 0
0, 0
0, 0
0, 0
0, 0
0, 0
0, 0
0, 0
0, 0
0, 0
0, 0
0, 0
0, 0
0, 0
0, 0
0, 0
0, 0
0, 0
0, 0
0, 0
0, 0
0, 0
0, 0
0, 0
0, 0
0, 0
0, 0
0, 0
0, 0
0, 0
#ENDOFDATA     end of spectrum data