File: host_upload/06-09-2024/ps_0852/dump3/ps__0852shot_2255.msa
#FORMAT      : EMSA/MAS spectral data file
#VERSION     : TC202v2.0 PIXL
#TITLE       : N/A
#DATE        :       Date in the format DD-MMM-YYYY, for example 07-JUL-2010
#TIME        :             The time of day at which the spectrum was recorded, in 24-hour format
#OWNER       : PIXL Flight Model       (PIXL will use this to indicate which instrument took the data.)
#NPOINTS     : 4096     Number of data points in the spectrum (This can be zero for configuration only files)
#NCOLUMNS    : 2     Number of data columns in the spectrum (This can be zero for configuration only files)
#XUNITS      : eV
#YUNITS      : COUNTS
#DATATYPE    : YY
#XPERCHAN    : 7.862, 7.881   eV per channel (separate by commas if more than one detector)
#OFFSET      : 18.5, -22.4         eV of first channel  (separate by commas if more than one detector
#SIGNALTYPE  : XRF
#YP_TEMP     : 2.235
#LIVETIME    : 8.5587, 8.55606   seconds (separate by commas if more than one detector)
#REALTIME    : 10, 10.0   seconds (separate by commas if more than one detector)
#SPECTRUM    : start of spectrum data
0, 0
0, 0
0, 0
0, 0
0, 0
0, 0
0, 0
0, 0
0, 0
0, 3
1, 2
50, 47
68, 62
10, 2
5, 5
86, 80
469, 370
111, 86
9, 3
3, 0
1, 0
2, 2
2, 1
4, 8
16, 30
28, 33
13, 41
12, 13
5, 3
5, 1
2, 1
1, 3
3, 3
16, 6
14, 16
6, 6
3, 5
4, 2
2, 5
3, 5
3, 3
11, 13
13, 35
63, 44
99, 7
19, 3
7, 6
2, 8
11, 5
14, 11
13, 16
5, 12
18, 11
52, 38
64, 49
22, 20
38, 33
536, 554
2313, 2283
1755, 1265
237, 122
91, 19
96, 25
109, 107
349, 317
235, 190
36, 19
13, 18
20, 15
12, 11
7, 2
3, 3
3, 2
5, 5
7, 10
5, 7
5, 4
14, 8
9, 8
6, 2
1, 4
7, 4
3, 4
5, 5
1, 16
6, 22
3, 16
7, 2
4, 3
10, 2
15, 6
4, 5
7, 2
2, 2
1, 1
3, 2
3, 2
1, 4
1, 0
3, 4
2, 0
1, 2
5, 0
3, 6
1, 6
5, 2
2, 2
2, 3
3, 0
3, 0
1, 2
0, 0
2, 0
4, 0
0, 0
2, 4
5, 1
6, 4
2, 1
0, 2
2, 1
1, 1
3, 0
1, 1
0, 0
2, 4
3, 1
1, 1
2, 1
0, 0
1, 1
2, 1
0, 1
4, 0
1, 1
1, 0
0, 1
0, 2
1, 2
2, 0
0, 1
0, 1
2, 1
0, 1
1, 2
0, 1
1, 0
0, 1
0, 1
0, 0
0, 2
0, 0
0, 0
0, 0
0, 0
1, 0
0, 0
0, 0
0, 0
0, 0
0, 1
0, 0
1, 0
1, 0
2, 0
0, 0
1, 1
1, 0
1, 0
0, 0
0, 1
0, 0
1, 0
0, 0
0, 0
0, 0
0, 0
1, 0
0, 0
0, 0
0, 0
0, 0
0, 0
0, 0
1, 1
0, 0
0, 0
0, 0
0, 0
0, 0
0, 0
0, 0
0, 0
0, 0
0, 0
0, 0
0, 0
1, 0
0, 1
0, 0
0, 0
0, 0
0, 0
0, 0
0, 0
0, 0
0, 0
0, 0
0, 0
0, 0
0, 0
0, 0
0, 0
0, 0
0, 0
0, 1
0, 0
0, 0
0, 0
0, 0
0, 0
0, 0
0, 0
0, 0
0, 0
0, 0
0, 0
0, 0
0, 0
0, 0
0, 0
0, 0
0, 0
0, 0
0, 0
0, 0
0, 0
0, 0
0, 0
0, 0
0, 0
0, 0
0, 0
0, 0
0, 0
0, 0
0, 0
0, 0
0, 0
0, 0
0, 0
0, 0
0, 0
0, 0
0, 0
0, 0
0, 0
0, 0
0, 0
0, 0
0, 0
0, 0
0, 0
0, 0
0, 0
0, 0
0, 0
0, 0
0, 0
0, 0
0, 0
0, 0
0, 0
0, 0
0, 0
0, 0
0, 0
0, 0
0, 0
0, 0
0, 0
0, 0
0, 0
0, 0
0, 0
0, 0
0, 0
0, 0
0, 0
0, 0
0, 0
0, 0
0, 0
0, 0
#ENDOFDATA     end of spectrum data