File: host_upload/06-09-2024/ps_0852/dump3/ps__0852shot_2342.msa
#FORMAT      : EMSA/MAS spectral data file
#VERSION     : TC202v2.0 PIXL
#TITLE       : N/A
#DATE        :       Date in the format DD-MMM-YYYY, for example 07-JUL-2010
#TIME        :             The time of day at which the spectrum was recorded, in 24-hour format
#OWNER       : PIXL Flight Model       (PIXL will use this to indicate which instrument took the data.)
#NPOINTS     : 4096     Number of data points in the spectrum (This can be zero for configuration only files)
#NCOLUMNS    : 2     Number of data columns in the spectrum (This can be zero for configuration only files)
#XUNITS      : eV
#YUNITS      : COUNTS
#DATATYPE    : YY
#XPERCHAN    : 7.862, 7.881   eV per channel (separate by commas if more than one detector)
#OFFSET      : 18.5, -22.4         eV of first channel  (separate by commas if more than one detector
#SIGNALTYPE  : XRF
#YP_TEMP     : 2.332
#LIVETIME    : 8.5596, 8.34101   seconds (separate by commas if more than one detector)
#REALTIME    : 10, 10.0   seconds (separate by commas if more than one detector)
#SPECTRUM    : start of spectrum data
0, 0
0, 0
0, 0
0, 0
0, 0
0, 0
0, 0
0, 0
1, 2
0, 1
0, 4
34, 47
64, 63
6, 2
5, 1
64, 85
345, 351
88, 79
4, 7
4, 3
48, 60
295, 310
117, 127
30, 29
79, 62
94, 45
24, 31
16, 15
7, 9
3, 7
6, 8
1, 3
3, 2
22, 24
17, 25
4, 9
4, 3
14, 9
17, 9
11, 4
7, 8
7, 7
10, 7
13, 12
8, 11
4, 9
9, 7
7, 1
11, 10
18, 21
26, 21
14, 18
34, 18
116, 55
122, 65
32, 18
35, 42
473, 578
2105, 2279
1555, 1319
193, 156
14, 15
11, 21
73, 126
330, 370
247, 194
36, 22
7, 12
16, 21
19, 5
22, 6
5, 1
9, 3
9, 9
5, 5
5, 5
3, 3
6, 3
2, 6
5, 9
4, 4
5, 6
5, 3
2, 3
2, 6
8, 9
12, 6
3, 5
6, 6
4, 8
4, 5
4, 5
3, 4
4, 7
7, 5
2, 5
2, 2
3, 4
4, 3
7, 1
5, 2
4, 0
5, 3
1, 4
4, 1
3, 4
4, 5
5, 2
1, 2
1, 3
2, 1
2, 0
1, 2
0, 2
1, 0
2, 1
5, 5
1, 2
3, 3
3, 2
2, 2
1, 3
1, 4
1, 2
1, 1
3, 1
0, 0
1, 1
1, 0
3, 1
0, 1
0, 1
0, 1
1, 1
1, 1
0, 2
1, 1
1, 0
2, 0
0, 3
1, 2
0, 1
0, 1
1, 0
1, 0
0, 1
0, 0
1, 1
1, 0
1, 0
0, 1
0, 0
1, 0
0, 2
2, 0
1, 0
0, 0
0, 0
0, 1
1, 0
1, 0
0, 0
0, 1
0, 0
0, 1
0, 1
0, 0
0, 0
0, 0
1, 2
0, 0
0, 0
1, 0
0, 1
0, 0
0, 0
0, 1
0, 0
0, 0
0, 0
1, 0
0, 0
0, 0
0, 0
0, 0
0, 0
0, 0
0, 0
0, 0
0, 0
0, 0
0, 0
0, 0
0, 0
0, 0
0, 0
0, 0
0, 0
0, 0
0, 0
0, 0
0, 0
0, 0
0, 0
0, 0
0, 0
0, 0
0, 0
0, 0
0, 0
0, 0
0, 0
0, 0
0, 0
0, 0
0, 0
0, 0
0, 0
0, 0
0, 0
0, 0
0, 0
0, 0
0, 0
0, 0
0, 0
0, 0
0, 0
0, 0
0, 0
0, 0
0, 0
0, 0
0, 0
0, 0
0, 0
0, 0
0, 0
0, 0
0, 0
1, 0
0, 0
0, 0
0, 0
0, 0
0, 0
0, 0
0, 0
0, 0
0, 0
0, 0
0, 0
0, 0
0, 0
0, 0
0, 0
0, 0
0, 0
0, 0
0, 0
0, 0
0, 0
0, 0
0, 0
0, 0
0, 0
0, 0
0, 0
0, 0
0, 0
0, 0
0, 0
0, 0
0, 0
0, 0
0, 0
0, 0
0, 0
0, 0
0, 0
0, 0
0, 0
0, 0
0, 0
0, 0
0, 0
0, 0
0, 0
0, 0
0, 0
0, 0
0, 0
0, 0
0, 0
#ENDOFDATA     end of spectrum data