File: host_upload/06-09-2024/ps_0852/dump3/ps__0852shot_2547.msa
#FORMAT      : EMSA/MAS spectral data file
#VERSION     : TC202v2.0 PIXL
#TITLE       : N/A
#DATE        :       Date in the format DD-MMM-YYYY, for example 07-JUL-2010
#TIME        :             The time of day at which the spectrum was recorded, in 24-hour format
#OWNER       : PIXL Flight Model       (PIXL will use this to indicate which instrument took the data.)
#NPOINTS     : 4096     Number of data points in the spectrum (This can be zero for configuration only files)
#NCOLUMNS    : 2     Number of data columns in the spectrum (This can be zero for configuration only files)
#XUNITS      : eV
#YUNITS      : COUNTS
#DATATYPE    : YY
#XPERCHAN    : 7.862, 7.881   eV per channel (separate by commas if more than one detector)
#OFFSET      : 18.5, -22.4         eV of first channel  (separate by commas if more than one detector
#SIGNALTYPE  : XRF
#YP_TEMP     : 2.428
#LIVETIME    : 8.6037, 8.59768   seconds (separate by commas if more than one detector)
#REALTIME    : 10, 10.0   seconds (separate by commas if more than one detector)
#SPECTRUM    : start of spectrum data
0, 0
0, 0
0, 0
0, 0
0, 0
0, 0
0, 0
0, 1
0, 0
1, 3
0, 2
27, 39
47, 42
6, 3
4, 5
91, 107
513, 468
128, 94
9, 8
1, 1
5, 2
15, 12
8, 25
18, 19
45, 40
45, 39
26, 19
9, 13
2, 7
2, 5
0, 1
3, 4
14, 14
149, 186
261, 225
52, 34
33, 28
49, 26
11, 6
6, 3
5, 12
10, 12
18, 18
20, 37
7, 37
7, 15
13, 9
12, 4
14, 12
28, 27
31, 21
9, 6
15, 13
31, 60
63, 70
42, 21
45, 45
362, 487
1770, 1924
1263, 1094
141, 114
25, 28
35, 17
122, 99
299, 299
187, 135
27, 19
14, 11
11, 12
8, 9
4, 7
2, 0
5, 1
6, 9
6, 5
16, 4
22, 3
6, 3
8, 5
7, 7
8, 4
6, 4
4, 3
2, 3
6, 5
1, 7
3, 6
1, 3
3, 4
2, 1
2, 4
2, 3
3, 3
6, 2
3, 10
3, 5
1, 3
4, 1
3, 3
4, 0
3, 4
4, 4
3, 1
3, 1
1, 1
5, 1
2, 5
1, 2
2, 2
2, 0
1, 1
0, 1
2, 4
0, 0
0, 1
0, 4
4, 2
1, 3
1, 1
1, 0
0, 3
1, 2
3, 1
1, 4
0, 0
2, 0
3, 1
0, 0
4, 1
1, 0
1, 1
1, 0
1, 1
1, 2
2, 2
0, 2
0, 2
2, 1
0, 1
0, 3
0, 1
0, 1
0, 1
0, 0
0, 1
0, 0
2, 1
0, 0
0, 0
0, 0
0, 1
0, 2
2, 1
2, 0
1, 0
0, 1
1, 0
0, 0
0, 0
0, 0
1, 0
0, 0
0, 0
1, 0
0, 0
0, 1
1, 0
0, 1
0, 0
1, 0
0, 1
0, 0
1, 0
0, 0
0, 1
0, 1
0, 0
0, 0
1, 0
0, 1
0, 0
0, 0
0, 0
0, 1
0, 0
1, 0
0, 0
0, 0
0, 1
0, 1
0, 1
2, 0
0, 0
0, 0
0, 0
0, 0
0, 0
0, 0
0, 0
0, 0
0, 0
0, 0
0, 0
0, 0
0, 0
0, 0
0, 1
0, 0
0, 0
0, 0
0, 0
0, 0
0, 0
0, 0
0, 0
0, 0
0, 0
0, 0
0, 0
0, 0
0, 0
0, 0
0, 0
0, 0
0, 0
0, 0
0, 0
0, 0
0, 0
0, 0
0, 0
0, 0
0, 0
0, 0
0, 0
0, 0
0, 0
0, 0
0, 0
0, 0
0, 0
0, 0
0, 0
0, 0
0, 0
0, 0
0, 0
0, 0
0, 0
0, 0
0, 0
0, 0
0, 0
0, 0
0, 0
0, 0
0, 0
0, 0
0, 0
0, 0
0, 0
0, 0
0, 0
0, 0
0, 0
0, 0
0, 0
0, 0
0, 0
0, 0
0, 0
0, 0
0, 0
0, 0
0, 0
0, 0
0, 0
0, 0
0, 0
0, 0
0, 0
0, 0
0, 0
0, 0
0, 0
0, 0
0, 0
0, 0
0, 0
0, 0
0, 0
0, 0
0, 0
0, 0
#ENDOFDATA     end of spectrum data