File: host_upload/06-09-2024/ps_0852/dump3/ps__0852shot_2010.msa
#FORMAT      : EMSA/MAS spectral data file
#VERSION     : TC202v2.0 PIXL
#TITLE       : N/A
#DATE        :       Date in the format DD-MMM-YYYY, for example 07-JUL-2010
#TIME        :             The time of day at which the spectrum was recorded, in 24-hour format
#OWNER       : PIXL Flight Model       (PIXL will use this to indicate which instrument took the data.)
#NPOINTS     : 4096     Number of data points in the spectrum (This can be zero for configuration only files)
#NCOLUMNS    : 2     Number of data columns in the spectrum (This can be zero for configuration only files)
#XUNITS      : eV
#YUNITS      : COUNTS
#DATATYPE    : YY
#XPERCHAN    : 7.862, 7.881   eV per channel (separate by commas if more than one detector)
#OFFSET      : 18.5, -22.4         eV of first channel  (separate by commas if more than one detector
#SIGNALTYPE  : XRF
#YP_TEMP     : 2.203
#LIVETIME    : 8.5329, 8.60511   seconds (separate by commas if more than one detector)
#REALTIME    : 10, 10.0   seconds (separate by commas if more than one detector)
#SPECTRUM    : start of spectrum data
0, 0
0, 0
0, 0
0, 0
0, 0
0, 0
0, 0
1, 0
1, 0
1, 3
4, 3
37, 34
47, 33
5, 1
4, 4
70, 55
286, 250
107, 69
9, 10
3, 3
34, 42
270, 238
114, 93
27, 24
80, 59
65, 48
38, 25
23, 15
6, 10
5, 10
1, 5
2, 3
10, 1
14, 23
29, 27
6, 7
1, 1
15, 4
11, 8
7, 3
2, 1
19, 8
7, 5
13, 19
9, 12
14, 7
4, 4
8, 5
12, 8
18, 12
17, 9
17, 7
20, 8
51, 45
61, 64
32, 24
35, 39
535, 536
2401, 2019
1708, 1195
252, 119
18, 14
20, 19
115, 119
361, 302
262, 173
31, 16
9, 5
15, 11
10, 7
8, 3
3, 2
2, 3
4, 6
5, 3
9, 2
5, 9
2, 6
6, 5
9, 5
5, 4
2, 12
7, 12
5, 14
3, 24
3, 12
9, 5
8, 1
6, 2
5, 3
8, 0
5, 5
9, 7
2, 1
5, 1
4, 3
1, 2
2, 3
4, 1
2, 0
1, 0
3, 2
2, 3
2, 1
5, 1
2, 2
1, 4
2, 1
2, 0
3, 0
3, 0
2, 1
2, 0
0, 0
1, 1
0, 1
4, 5
4, 2
3, 0
2, 3
0, 0
2, 1
1, 6
0, 1
3, 0
1, 1
1, 1
3, 1
2, 1
1, 0
2, 1
1, 1
2, 0
2, 1
1, 0
1, 0
3, 1
2, 2
0, 0
0, 0
2, 1
0, 1
1, 2
2, 0
1, 1
2, 0
0, 0
0, 1
0, 0
0, 0
0, 1
0, 0
0, 0
0, 0
0, 1
1, 0
0, 0
1, 0
0, 0
0, 0
0, 2
0, 0
2, 0
0, 0
0, 0
0, 0
0, 0
0, 1
0, 0
0, 0
0, 0
0, 1
3, 0
0, 0
0, 0
0, 0
0, 0
0, 0
1, 0
0, 0
0, 0
0, 0
1, 1
0, 0
0, 0
0, 0
0, 0
0, 0
0, 1
0, 0
0, 0
1, 1
0, 0
0, 0
0, 1
0, 0
0, 0
0, 0
0, 0
0, 0
0, 0
0, 0
0, 0
0, 0
0, 0
0, 0
0, 0
0, 0
0, 0
0, 0
0, 0
0, 0
0, 0
0, 0
0, 0
0, 0
0, 0
0, 0
0, 0
0, 0
0, 0
0, 0
0, 0
0, 0
0, 0
0, 0
0, 0
0, 0
0, 0
0, 0
0, 0
0, 0
0, 0
0, 0
0, 0
0, 0
0, 0
0, 0
0, 0
0, 0
0, 0
0, 0
0, 0
0, 0
0, 0
0, 0
0, 0
0, 0
0, 0
0, 0
0, 0
0, 0
0, 0
0, 0
0, 0
0, 0
0, 0
0, 0
0, 0
0, 0
0, 0
0, 0
0, 0
0, 0
0, 0
0, 0
0, 0
0, 0
0, 0
0, 0
0, 0
0, 0
0, 0
0, 0
0, 0
0, 0
0, 0
0, 0
0, 0
0, 0
0, 0
0, 0
0, 0
0, 0
0, 0
0, 0
0, 0
0, 0
0, 0
0, 0
0, 0
0, 0
0, 0
0, 0
#ENDOFDATA     end of spectrum data