File: host_upload/06-09-2024/ps_0852/dump3/ps__0852shot_2564.msa
#FORMAT      : EMSA/MAS spectral data file
#VERSION     : TC202v2.0 PIXL
#TITLE       : N/A
#DATE        :       Date in the format DD-MMM-YYYY, for example 07-JUL-2010
#TIME        :             The time of day at which the spectrum was recorded, in 24-hour format
#OWNER       : PIXL Flight Model       (PIXL will use this to indicate which instrument took the data.)
#NPOINTS     : 4096     Number of data points in the spectrum (This can be zero for configuration only files)
#NCOLUMNS    : 2     Number of data columns in the spectrum (This can be zero for configuration only files)
#XUNITS      : eV
#YUNITS      : COUNTS
#DATATYPE    : YY
#XPERCHAN    : 7.862, 7.881   eV per channel (separate by commas if more than one detector)
#OFFSET      : 18.5, -22.4         eV of first channel  (separate by commas if more than one detector
#SIGNALTYPE  : XRF
#YP_TEMP     : 2.203
#LIVETIME    : 8.54644, 8.54687   seconds (separate by commas if more than one detector)
#REALTIME    : 10, 10.0   seconds (separate by commas if more than one detector)
#SPECTRUM    : start of spectrum data
0, 0
0, 0
0, 0
0, 0
0, 0
0, 0
0, 0
1, 0
0, 0
1, 0
3, 2
44, 51
63, 66
7, 8
7, 4
92, 98
426, 496
90, 103
8, 3
0, 2
2, 1
4, 2
3, 2
7, 5
16, 29
29, 18
26, 13
26, 8
7, 3
3, 2
0, 1
7, 0
2, 2
9, 9
21, 25
3, 3
8, 3
5, 6
5, 5
79, 4
105, 4
21, 10
11, 10
15, 11
6, 4
4, 6
4, 11
3, 16
5, 3
10, 16
24, 20
31, 9
93, 9
176, 43
124, 52
34, 30
38, 36
481, 551
2289, 2460
1567, 1436
179, 123
12, 18
12, 25
101, 111
328, 358
218, 198
42, 22
6, 10
13, 13
12, 12
8, 1
7, 2
2, 2
3, 4
10, 3
2, 6
5, 9
11, 12
14, 13
18, 7
21, 14
5, 33
6, 18
2, 1
4, 1
4, 1
0, 2
1, 2
0, 3
3, 6
6, 6
10, 5
13, 15
11, 25
5, 7
1, 2
1, 5
2, 6
3, 3
1, 2
2, 1
3, 2
2, 0
0, 5
4, 1
0, 0
1, 1
3, 1
4, 3
3, 3
4, 1
2, 2
8, 3
1, 2
2, 1
3, 1
2, 2
5, 1
3, 1
1, 1
1, 2
2, 4
1, 3
3, 0
3, 0
1, 0
2, 1
2, 1
1, 2
2, 0
0, 1
0, 1
1, 1
2, 0
0, 0
0, 0
0, 0
0, 1
1, 1
0, 1
2, 0
0, 1
1, 1
0, 0
0, 3
1, 1
0, 0
0, 1
1, 0
1, 1
0, 0
1, 1
1, 2
1, 0
2, 2
0, 1
1, 0
0, 1
0, 1
0, 1
0, 0
0, 0
0, 2
0, 0
1, 0
0, 0
0, 0
1, 2
1, 0
0, 0
0, 1
0, 0
0, 0
0, 0
0, 0
0, 0
0, 0
0, 0
0, 0
2, 0
0, 0
0, 1
1, 0
0, 0
0, 0
0, 0
2, 0
0, 0
0, 0
0, 1
0, 0
0, 0
0, 0
0, 0
0, 0
0, 0
0, 0
0, 1
0, 0
0, 0
0, 0
0, 0
0, 0
0, 0
0, 0
0, 0
0, 0
0, 0
0, 0
0, 0
0, 0
0, 0
0, 0
0, 0
0, 0
0, 0
0, 0
0, 0
0, 0
0, 0
0, 0
0, 0
0, 0
0, 0
0, 0
0, 0
0, 0
0, 0
0, 0
0, 0
0, 0
0, 0
0, 0
0, 0
0, 0
0, 0
0, 0
0, 0
0, 0
0, 0
0, 0
0, 0
0, 0
0, 0
0, 0
0, 0
0, 0
0, 0
0, 0
0, 0
0, 0
0, 0
0, 0
0, 0
0, 0
0, 0
0, 0
0, 0
0, 0
0, 0
0, 0
0, 0
0, 0
0, 0
0, 0
0, 0
0, 0
0, 0
0, 0
0, 0
0, 0
0, 0
0, 0
0, 0
0, 0
0, 0
0, 0
0, 0
0, 0
0, 0
0, 0
0, 0
0, 0
0, 0
0, 0
0, 0
0, 0
0, 0
0, 0
0, 0
0, 0
0, 0
0, 0
0, 0
#ENDOFDATA     end of spectrum data