File: host_upload/06-09-2024/ps_0852/dump3/ps__0852shot_2004.msa
#FORMAT      : EMSA/MAS spectral data file
#VERSION     : TC202v2.0 PIXL
#TITLE       : N/A
#DATE        :       Date in the format DD-MMM-YYYY, for example 07-JUL-2010
#TIME        :             The time of day at which the spectrum was recorded, in 24-hour format
#OWNER       : PIXL Flight Model       (PIXL will use this to indicate which instrument took the data.)
#NPOINTS     : 4096     Number of data points in the spectrum (This can be zero for configuration only files)
#NCOLUMNS    : 2     Number of data columns in the spectrum (This can be zero for configuration only files)
#XUNITS      : eV
#YUNITS      : COUNTS
#DATATYPE    : YY
#XPERCHAN    : 7.862, 7.881   eV per channel (separate by commas if more than one detector)
#OFFSET      : 18.5, -22.4         eV of first channel  (separate by commas if more than one detector
#SIGNALTYPE  : XRF
#YP_TEMP     : 2.3
#LIVETIME    : 8.53689, 8.5309   seconds (separate by commas if more than one detector)
#REALTIME    : 10, 10.0   seconds (separate by commas if more than one detector)
#SPECTRUM    : start of spectrum data
0, 0
0, 0
0, 0
0, 0
0, 0
0, 0
0, 0
2, 0
2, 1
0, 1
1, 1
47, 38
64, 54
7, 4
2, 7
93, 102
410, 442
114, 96
8, 8
0, 1
2, 3
14, 9
9, 5
12, 10
36, 46
39, 34
13, 22
9, 18
10, 3
3, 4
1, 4
5, 0
2, 2
36, 51
47, 51
10, 6
22, 10
18, 15
8, 9
5, 11
2, 9
9, 10
9, 15
14, 20
5, 16
16, 11
20, 13
12, 10
8, 12
22, 22
9, 15
5, 9
11, 18
38, 51
52, 76
28, 23
40, 40
438, 599
1993, 2168
1468, 1277
193, 160
23, 11
16, 19
107, 115
288, 310
195, 182
33, 32
9, 12
28, 10
23, 3
11, 6
5, 0
5, 3
5, 3
4, 3
4, 7
6, 6
10, 2
5, 4
7, 1
6, 4
5, 2
2, 6
3, 5
3, 2
3, 2
2, 4
2, 5
3, 8
3, 6
2, 5
6, 5
3, 1
2, 7
3, 4
2, 4
3, 2
4, 4
5, 4
3, 4
8, 7
3, 6
3, 2
3, 2
6, 2
1, 1
1, 2
1, 2
2, 0
0, 3
3, 0
3, 0
4, 3
3, 2
1, 1
2, 2
7, 5
2, 1
2, 0
2, 1
0, 0
0, 0
1, 1
3, 1
2, 0
1, 0
0, 1
0, 4
0, 2
2, 0
0, 0
0, 0
0, 1
0, 0
0, 2
1, 2
0, 1
1, 2
1, 2
1, 1
1, 0
1, 0
2, 0
0, 1
0, 0
0, 1
1, 0
0, 0
1, 0
0, 0
1, 0
1, 1
0, 0
0, 0
0, 1
0, 0
0, 0
1, 0
1, 0
0, 0
0, 0
1, 1
0, 0
0, 0
0, 0
0, 0
1, 0
0, 1
0, 0
1, 0
1, 0
2, 0
1, 1
1, 0
0, 2
0, 0
0, 0
0, 0
0, 0
0, 0
0, 0
0, 0
0, 0
0, 0
0, 0
0, 0
1, 0
0, 0
0, 0
0, 0
0, 0
0, 1
0, 0
0, 0
0, 1
0, 0
0, 0
0, 0
0, 0
0, 0
0, 0
0, 0
0, 0
0, 0
0, 0
0, 0
0, 0
0, 0
0, 0
0, 0
0, 0
0, 0
0, 0
0, 0
0, 0
0, 0
0, 0
0, 0
0, 0
0, 0
0, 0
0, 0
0, 0
0, 1
0, 0
0, 0
0, 0
0, 0
0, 0
0, 0
0, 0
0, 0
0, 0
0, 0
0, 0
0, 0
0, 0
0, 0
0, 0
0, 0
0, 0
0, 0
0, 0
0, 0
0, 0
0, 0
0, 0
0, 0
0, 0
0, 0
0, 0
0, 0
0, 0
0, 0
0, 0
0, 0
0, 0
0, 0
0, 0
0, 0
0, 0
0, 0
0, 0
0, 0
0, 0
0, 0
0, 0
0, 0
0, 0
0, 0
0, 0
0, 0
0, 0
0, 0
0, 0
0, 0
0, 0
0, 0
0, 0
0, 0
0, 0
0, 0
0, 0
0, 0
0, 0
0, 0
0, 0
0, 0
0, 0
0, 0
0, 0
0, 0
0, 0
0, 0
#ENDOFDATA     end of spectrum data