File: host_upload/06-09-2024/ps_0852/dump3/ps__0852shot_2095.msa
#FORMAT      : EMSA/MAS spectral data file
#VERSION     : TC202v2.0 PIXL
#TITLE       : N/A
#DATE        :       Date in the format DD-MMM-YYYY, for example 07-JUL-2010
#TIME        :             The time of day at which the spectrum was recorded, in 24-hour format
#OWNER       : PIXL Flight Model       (PIXL will use this to indicate which instrument took the data.)
#NPOINTS     : 4096     Number of data points in the spectrum (This can be zero for configuration only files)
#NCOLUMNS    : 2     Number of data columns in the spectrum (This can be zero for configuration only files)
#XUNITS      : eV
#YUNITS      : COUNTS
#DATATYPE    : YY
#XPERCHAN    : 7.862, 7.881   eV per channel (separate by commas if more than one detector)
#OFFSET      : 18.5, -22.4         eV of first channel  (separate by commas if more than one detector
#SIGNALTYPE  : XRF
#YP_TEMP     : 2.364
#LIVETIME    : 8.56787, 8.55595   seconds (separate by commas if more than one detector)
#REALTIME    : 10, 10.0   seconds (separate by commas if more than one detector)
#SPECTRUM    : start of spectrum data
0, 0
0, 0
0, 0
0, 0
0, 0
0, 0
0, 0
0, 0
0, 1
0, 0
7, 0
68, 32
70, 45
5, 5
5, 2
104, 64
449, 224
114, 54
8, 0
5, 4
53, 46
287, 249
129, 97
26, 21
21, 41
36, 22
26, 27
8, 8
2, 1
2, 2
3, 0
2, 2
5, 1
8, 6
21, 16
20, 10
35, 13
8, 8
3, 5
5, 3
6, 6
12, 9
12, 6
18, 8
5, 10
13, 6
20, 6
10, 3
3, 4
13, 10
16, 7
9, 14
8, 13
50, 34
67, 42
31, 15
36, 28
590, 416
2340, 1583
1810, 901
228, 95
12, 8
12, 16
98, 87
389, 248
278, 136
31, 19
6, 5
12, 7
15, 7
8, 5
12, 1
5, 7
4, 5
9, 2
9, 2
6, 4
5, 2
6, 2
3, 4
4, 4
4, 3
1, 3
6, 1
5, 2
8, 3
13, 1
11, 3
5, 3
4, 4
2, 3
3, 2
5, 2
4, 5
1, 8
3, 13
7, 6
1, 6
6, 2
3, 0
3, 2
4, 4
3, 1
1, 1
1, 2
2, 2
5, 2
1, 1
3, 3
2, 1
1, 0
2, 1
2, 2
3, 3
2, 0
3, 3
6, 5
3, 5
5, 2
1, 0
4, 1
3, 0
5, 0
0, 2
1, 2
3, 0
1, 0
1, 1
0, 2
0, 4
1, 3
1, 1
0, 3
2, 0
1, 0
3, 0
0, 1
0, 0
0, 0
1, 2
0, 0
0, 3
0, 2
0, 0
1, 1
0, 0
0, 0
1, 0
0, 0
1, 1
0, 0
0, 0
1, 0
0, 0
1, 0
0, 0
0, 0
1, 1
0, 0
0, 0
0, 0
0, 1
1, 0
0, 1
1, 0
2, 0
0, 1
1, 0
1, 0
0, 0
0, 0
0, 0
0, 0
0, 0
0, 0
1, 0
0, 0
0, 0
1, 0
1, 0
0, 0
0, 0
0, 0
0, 0
0, 0
0, 0
0, 0
0, 0
0, 0
0, 0
0, 0
0, 0
0, 0
0, 0
0, 0
0, 0
0, 0
0, 0
0, 0
0, 0
0, 0
0, 0
0, 0
0, 0
0, 0
0, 0
0, 0
0, 0
0, 0
0, 0
0, 0
0, 0
0, 0
0, 0
0, 0
0, 0
0, 0
0, 0
0, 0
0, 0
0, 0
0, 0
0, 0
0, 0
0, 0
0, 0
0, 0
0, 0
0, 0
0, 0
0, 0
0, 0
0, 0
0, 0
0, 0
0, 0
0, 0
0, 0
0, 0
0, 0
0, 0
0, 0
0, 0
0, 0
0, 0
0, 0
0, 0
0, 0
0, 0
0, 0
0, 0
0, 0
0, 0
0, 0
0, 0
0, 0
0, 0
0, 0
0, 0
0, 0
0, 0
0, 0
0, 0
0, 0
0, 0
0, 0
0, 0
0, 0
0, 0
0, 0
0, 0
0, 0
0, 0
0, 0
0, 0
0, 0
0, 0
0, 0
0, 0
0, 0
0, 0
0, 0
0, 0
0, 0
0, 0
0, 0
0, 0
0, 0
0, 0
0, 0
0, 0
0, 0
0, 0
0, 0
#ENDOFDATA     end of spectrum data