File: host_upload/06-09-2024/ps_0852/dump3/ps__0852shot_2114.msa
#FORMAT      : EMSA/MAS spectral data file
#VERSION     : TC202v2.0 PIXL
#TITLE       : N/A
#DATE        :       Date in the format DD-MMM-YYYY, for example 07-JUL-2010
#TIME        :             The time of day at which the spectrum was recorded, in 24-hour format
#OWNER       : PIXL Flight Model       (PIXL will use this to indicate which instrument took the data.)
#NPOINTS     : 4096     Number of data points in the spectrum (This can be zero for configuration only files)
#NCOLUMNS    : 2     Number of data columns in the spectrum (This can be zero for configuration only files)
#XUNITS      : eV
#YUNITS      : COUNTS
#DATATYPE    : YY
#XPERCHAN    : 7.862, 7.881   eV per channel (separate by commas if more than one detector)
#OFFSET      : 18.5, -22.4         eV of first channel  (separate by commas if more than one detector
#SIGNALTYPE  : XRF
#YP_TEMP     : 2.364
#LIVETIME    : 8.54513, 8.56   seconds (separate by commas if more than one detector)
#REALTIME    : 10, 10.0   seconds (separate by commas if more than one detector)
#SPECTRUM    : start of spectrum data
0, 0
0, 0
0, 0
0, 0
0, 0
0, 0
0, 0
0, 2
2, 2
1, 0
2, 0
26, 30
36, 35
6, 3
5, 6
91, 77
324, 323
82, 91
16, 7
7, 6
55, 75
335, 360
146, 168
31, 73
80, 82
54, 51
25, 21
15, 12
11, 6
3, 4
7, 13
2, 4
16, 27
146, 163
255, 274
54, 37
31, 34
52, 60
12, 12
5, 10
3, 18
11, 25
18, 20
9, 10
8, 8
6, 33
7, 24
5, 3
15, 14
33, 43
27, 43
5, 12
9, 10
32, 40
47, 48
23, 18
28, 32
379, 476
1734, 1764
1235, 1081
176, 131
13, 9
13, 13
81, 112
270, 283
182, 203
30, 19
7, 11
12, 15
11, 7
11, 5
3, 6
2, 4
7, 3
7, 3
13, 3
9, 6
9, 5
9, 0
7, 3
3, 5
2, 9
4, 16
3, 17
4, 13
3, 7
3, 4
4, 3
3, 3
3, 2
1, 8
1, 4
4, 7
3, 2
1, 8
5, 2
3, 5
3, 2
4, 3
2, 4
2, 3
3, 3
3, 4
3, 3
5, 4
2, 1
1, 4
2, 5
2, 1
1, 2
2, 2
3, 1
4, 0
0, 2
2, 1
5, 4
2, 6
3, 2
3, 4
2, 3
1, 2
1, 4
2, 1
2, 1
3, 1
2, 1
3, 1
1, 0
1, 1
0, 1
1, 0
0, 1
1, 4
0, 2
1, 1
1, 0
0, 0
0, 0
1, 2
0, 2
0, 1
1, 1
1, 0
0, 0
0, 0
1, 0
0, 0
2, 1
0, 0
0, 1
0, 0
0, 0
1, 0
0, 0
0, 0
0, 0
1, 1
0, 0
0, 0
1, 1
0, 0
0, 0
1, 0
0, 0
0, 0
0, 1
0, 1
0, 0
0, 0
0, 0
0, 0
0, 0
0, 0
0, 0
0, 0
0, 0
0, 0
0, 0
0, 0
0, 0
0, 0
0, 0
0, 0
0, 0
0, 1
0, 1
0, 0
0, 0
0, 0
0, 0
0, 0
2, 0
0, 0
0, 0
0, 0
0, 0
0, 0
0, 1
0, 0
0, 0
0, 0
0, 1
0, 0
0, 0
0, 0
0, 0
0, 0
0, 0
0, 0
0, 0
0, 0
1, 0
0, 0
0, 0
0, 0
0, 0
0, 0
0, 0
0, 0
0, 0
0, 0
0, 0
0, 0
0, 0
0, 0
0, 0
0, 0
0, 0
0, 0
0, 0
0, 0
0, 0
0, 0
0, 0
0, 0
0, 0
0, 0
0, 0
0, 0
0, 0
0, 0
0, 0
0, 0
0, 0
0, 0
0, 0
0, 0
0, 0
0, 0
0, 0
0, 0
0, 0
0, 0
0, 0
0, 0
0, 0
0, 0
0, 0
0, 0
0, 0
0, 0
0, 0
0, 0
0, 0
0, 0
0, 0
0, 0
0, 0
0, 0
0, 0
0, 0
0, 0
0, 0
0, 0
0, 0
0, 0
0, 0
0, 0
0, 0
0, 0
0, 0
0, 0
0, 0
0, 0
0, 0
0, 0
0, 0
0, 0
0, 0
0, 0
0, 0
0, 0
0, 0
0, 0
#ENDOFDATA     end of spectrum data