File: host_upload/06-09-2024/ps_0852/dump3/ps__0852shot_2328.msa
#FORMAT      : EMSA/MAS spectral data file
#VERSION     : TC202v2.0 PIXL
#TITLE       : N/A
#DATE        :       Date in the format DD-MMM-YYYY, for example 07-JUL-2010
#TIME        :             The time of day at which the spectrum was recorded, in 24-hour format
#OWNER       : PIXL Flight Model       (PIXL will use this to indicate which instrument took the data.)
#NPOINTS     : 4096     Number of data points in the spectrum (This can be zero for configuration only files)
#NCOLUMNS    : 2     Number of data columns in the spectrum (This can be zero for configuration only files)
#XUNITS      : eV
#YUNITS      : COUNTS
#DATATYPE    : YY
#XPERCHAN    : 7.862, 7.881   eV per channel (separate by commas if more than one detector)
#OFFSET      : 18.5, -22.4         eV of first channel  (separate by commas if more than one detector
#SIGNALTYPE  : XRF
#YP_TEMP     : 2.332
#LIVETIME    : 8.57972, 8.55791   seconds (separate by commas if more than one detector)
#REALTIME    : 10, 10.0   seconds (separate by commas if more than one detector)
#SPECTRUM    : start of spectrum data
0, 0
0, 0
0, 0
0, 0
0, 0
0, 0
0, 0
0, 0
0, 2
3, 1
4, 6
43, 50
63, 59
6, 1
2, 8
90, 102
413, 400
113, 86
7, 5
2, 0
5, 3
25, 24
16, 8
9, 5
31, 35
65, 21
40, 16
21, 9
5, 5
1, 4
2, 4
3, 5
7, 2
40, 31
65, 45
17, 6
5, 7
10, 8
8, 8
4, 2
2, 4
13, 6
17, 9
12, 12
4, 6
6, 10
8, 7
8, 8
7, 9
17, 11
35, 20
46, 17
15, 19
43, 42
62, 85
32, 39
26, 41
454, 571
2316, 2083
1605, 1198
203, 120
19, 20
16, 26
101, 110
358, 331
249, 195
39, 29
8, 13
11, 14
8, 8
7, 3
3, 6
7, 4
7, 4
7, 5
9, 7
6, 12
8, 11
8, 7
8, 8
1, 4
3, 2
1, 2
5, 5
6, 7
2, 6
6, 0
3, 3
3, 6
3, 8
3, 2
3, 3
0, 1
3, 2
2, 1
1, 5
6, 2
4, 1
6, 3
3, 4
5, 4
3, 1
3, 6
5, 3
3, 2
2, 4
2, 2
2, 3
1, 0
5, 2
4, 1
2, 1
4, 3
3, 1
1, 1
4, 3
5, 2
7, 5
1, 3
0, 1
4, 1
1, 1
2, 3
0, 1
0, 0
1, 2
0, 1
0, 1
2, 0
1, 0
2, 1
1, 0
0, 4
1, 3
0, 2
0, 1
1, 0
0, 0
0, 1
1, 1
1, 0
0, 3
0, 0
0, 0
0, 0
1, 1
2, 0
0, 0
0, 0
0, 0
0, 0
5, 2
1, 0
0, 0
0, 0
0, 0
0, 1
0, 0
0, 0
0, 1
0, 0
1, 1
0, 0
0, 0
1, 1
0, 0
0, 0
0, 1
2, 1
0, 0
0, 0
0, 0
0, 1
1, 0
0, 1
0, 0
1, 0
0, 0
0, 0
0, 0
0, 0
0, 0
0, 0
0, 0
0, 0
0, 1
0, 0
0, 0
0, 0
0, 0
0, 0
0, 1
0, 0
0, 0
0, 0
0, 0
0, 0
0, 0
0, 0
0, 0
0, 0
0, 0
0, 0
0, 0
0, 0
0, 0
0, 0
0, 0
0, 0
0, 0
0, 0
0, 0
0, 0
0, 0
0, 0
0, 0
0, 0
0, 0
0, 0
0, 0
0, 0
0, 0
0, 0
0, 0
0, 0
0, 0
0, 0
0, 0
0, 0
0, 0
0, 0
0, 0
0, 0
0, 0
0, 0
0, 0
0, 0
0, 0
0, 0
0, 0
0, 0
0, 0
1, 0
0, 0
0, 0
0, 0
0, 0
0, 0
0, 0
0, 0
0, 0
0, 0
0, 0
0, 0
0, 0
0, 0
0, 0
0, 0
0, 0
0, 0
0, 0
0, 0
0, 0
0, 0
0, 0
0, 0
0, 0
0, 0
0, 0
0, 0
0, 0
0, 0
0, 0
0, 0
0, 0
0, 0
0, 0
0, 0
0, 0
0, 0
0, 0
0, 0
0, 0
0, 0
0, 0
0, 0
0, 0
0, 0
0, 0
0, 0
0, 0
0, 0
0, 0
0, 0
#ENDOFDATA     end of spectrum data