File: host_upload/06-09-2024/ps_0852/dump3/ps__0852shot_2489.msa
#FORMAT      : EMSA/MAS spectral data file
#VERSION     : TC202v2.0 PIXL
#TITLE       : N/A
#DATE        :       Date in the format DD-MMM-YYYY, for example 07-JUL-2010
#TIME        :             The time of day at which the spectrum was recorded, in 24-hour format
#OWNER       : PIXL Flight Model       (PIXL will use this to indicate which instrument took the data.)
#NPOINTS     : 4096     Number of data points in the spectrum (This can be zero for configuration only files)
#NCOLUMNS    : 2     Number of data columns in the spectrum (This can be zero for configuration only files)
#XUNITS      : eV
#YUNITS      : COUNTS
#DATATYPE    : YY
#XPERCHAN    : 7.862, 7.881   eV per channel (separate by commas if more than one detector)
#OFFSET      : 18.5, -22.4         eV of first channel  (separate by commas if more than one detector
#SIGNALTYPE  : XRF
#YP_TEMP     : 2.492
#LIVETIME    : 8.55775, 8.55895   seconds (separate by commas if more than one detector)
#REALTIME    : 10, 10.0   seconds (separate by commas if more than one detector)
#SPECTRUM    : start of spectrum data
0, 0
0, 0
0, 0
0, 0
0, 0
0, 0
0, 0
0, 1
0, 2
6, 3
5, 1
43, 47
53, 65
8, 4
3, 6
76, 119
410, 454
89, 100
3, 7
3, 4
1, 11
35, 38
8, 13
11, 6
116, 41
128, 48
54, 20
26, 12
5, 3
3, 2
1, 2
2, 1
2, 2
16, 15
28, 32
5, 5
9, 5
4, 10
5, 1
5, 1
3, 4
7, 5
16, 8
9, 10
3, 6
6, 3
4, 6
5, 5
3, 7
10, 18
12, 12
6, 7
18, 11
41, 44
56, 61
16, 23
34, 40
422, 594
2139, 2447
1493, 1469
184, 143
9, 12
13, 14
101, 139
349, 372
226, 228
25, 27
5, 16
13, 13
4, 6
4, 2
1, 2
4, 1
4, 5
6, 1
6, 5
5, 2
4, 1
5, 7
1, 14
6, 7
2, 4
8, 4
2, 1
4, 4
2, 1
2, 4
3, 3
3, 2
3, 3
11, 2
27, 1
21, 3
1, 0
6, 3
2, 8
1, 3
1, 2
1, 0
0, 1
5, 2
4, 4
1, 4
3, 5
5, 0
8, 4
2, 2
3, 1
1, 0
1, 5
5, 1
1, 1
2, 1
2, 3
1, 1
2, 3
5, 5
1, 2
5, 0
0, 3
1, 2
1, 1
1, 4
0, 0
0, 2
1, 1
1, 2
3, 2
0, 1
0, 0
0, 1
1, 0
0, 0
3, 0
2, 2
0, 1
1, 3
0, 3
0, 0
1, 0
2, 0
0, 0
0, 0
0, 0
0, 0
0, 1
2, 0
1, 1
1, 0
1, 2
0, 0
1, 1
0, 1
0, 1
0, 0
0, 2
0, 0
0, 0
1, 0
0, 0
0, 0
0, 0
0, 0
0, 0
0, 0
0, 0
0, 0
0, 0
0, 0
0, 2
0, 0
1, 1
0, 0
0, 0
0, 0
0, 0
2, 0
0, 0
0, 0
0, 0
0, 0
0, 0
1, 0
2, 0
0, 2
0, 0
0, 1
0, 0
0, 0
0, 0
0, 0
0, 0
1, 0
0, 0
0, 0
0, 0
0, 0
1, 0
0, 0
0, 0
0, 1
1, 1
0, 0
0, 0
0, 0
0, 0
0, 0
0, 0
0, 0
0, 0
0, 0
0, 0
0, 0
0, 0
0, 0
0, 0
0, 0
0, 0
0, 0
0, 0
0, 0
0, 0
0, 0
0, 0
0, 0
0, 0
0, 0
0, 0
0, 0
0, 0
0, 0
0, 0
0, 0
0, 0
0, 0
0, 0
0, 0
0, 0
0, 0
0, 0
0, 0
0, 0
0, 0
0, 0
0, 0
0, 0
0, 0
0, 0
0, 0
0, 0
0, 0
0, 0
0, 0
0, 0
0, 0
0, 0
0, 0
0, 0
0, 0
0, 0
0, 0
0, 0
0, 0
0, 0
0, 0
0, 0
0, 0
0, 0
0, 0
0, 0
0, 0
0, 0
0, 0
0, 0
0, 0
0, 0
0, 0
0, 0
0, 0
0, 0
0, 0
0, 0
0, 0
0, 0
0, 0
0, 0
0, 0
0, 0
0, 0
0, 0
0, 0
0, 0
0, 0
0, 0
#ENDOFDATA     end of spectrum data