File: host_upload/06-09-2024/ps_0852/dump3/ps__0852shot_2055.msa
#FORMAT      : EMSA/MAS spectral data file
#VERSION     : TC202v2.0 PIXL
#TITLE       : N/A
#DATE        :       Date in the format DD-MMM-YYYY, for example 07-JUL-2010
#TIME        :             The time of day at which the spectrum was recorded, in 24-hour format
#OWNER       : PIXL Flight Model       (PIXL will use this to indicate which instrument took the data.)
#NPOINTS     : 4096     Number of data points in the spectrum (This can be zero for configuration only files)
#NCOLUMNS    : 2     Number of data columns in the spectrum (This can be zero for configuration only files)
#XUNITS      : eV
#YUNITS      : COUNTS
#DATATYPE    : YY
#XPERCHAN    : 7.862, 7.881   eV per channel (separate by commas if more than one detector)
#OFFSET      : 18.5, -22.4         eV of first channel  (separate by commas if more than one detector
#SIGNALTYPE  : XRF
#YP_TEMP     : 2.524
#LIVETIME    : 8.53877, 8.54231   seconds (separate by commas if more than one detector)
#REALTIME    : 10, 10.0   seconds (separate by commas if more than one detector)
#SPECTRUM    : start of spectrum data
0, 0
0, 0
0, 0
0, 0
0, 0
0, 0
0, 0
0, 0
1, 1
1, 1
4, 2
42, 43
50, 57
8, 5
2, 2
95, 112
374, 424
111, 102
7, 4
0, 5
2, 1
7, 2
2, 7
12, 41
16, 37
38, 39
15, 23
15, 8
3, 9
1, 6
3, 2
3, 3
4, 0
9, 15
14, 20
7, 21
5, 4
5, 6
3, 6
3, 5
6, 2
8, 11
5, 15
14, 12
10, 14
5, 37
10, 29
12, 15
9, 12
11, 24
9, 14
18, 9
31, 11
65, 40
54, 58
37, 23
40, 42
453, 620
2125, 2374
1548, 1398
181, 141
16, 15
28, 23
117, 124
317, 353
257, 215
25, 34
6, 14
12, 29
10, 38
9, 18
10, 9
11, 6
8, 9
4, 3
3, 7
4, 5
6, 8
5, 4
4, 3
6, 4
1, 6
5, 4
6, 7
2, 4
1, 6
0, 4
6, 4
4, 2
4, 4
6, 0
4, 8
4, 4
5, 5
0, 7
2, 3
2, 2
4, 1
1, 2
6, 2
3, 1
5, 1
3, 2
3, 1
3, 1
2, 0
3, 4
1, 3
5, 2
0, 1
1, 2
3, 3
2, 3
3, 2
0, 0
4, 2
4, 9
4, 5
1, 1
2, 5
3, 1
6, 0
4, 1
3, 2
1, 1
2, 0
0, 1
0, 1
0, 1
0, 0
0, 1
1, 0
2, 0
1, 0
0, 1
2, 2
0, 0
0, 0
1, 3
0, 0
1, 0
2, 1
1, 1
0, 0
0, 1
0, 1
0, 0
0, 0
1, 0
0, 0
0, 0
0, 0
2, 2
1, 0
0, 0
0, 0
0, 0
0, 0
1, 0
0, 0
0, 0
0, 2
0, 0
0, 0
0, 0
0, 0
0, 0
0, 0
1, 0
1, 0
0, 0
1, 3
0, 0
0, 0
0, 0
0, 0
0, 0
0, 0
0, 0
0, 0
0, 0
0, 0
0, 1
0, 0
0, 0
0, 0
0, 0
0, 0
0, 0
0, 0
0, 0
0, 0
0, 1
0, 1
0, 0
0, 0
0, 0
0, 0
0, 0
0, 0
0, 0
0, 0
0, 0
0, 0
0, 0
0, 0
0, 0
0, 0
0, 0
0, 0
0, 1
0, 0
0, 0
0, 0
0, 0
0, 0
0, 0
0, 0
0, 0
1, 0
0, 0
0, 0
0, 0
0, 0
0, 0
0, 0
0, 0
0, 0
0, 0
0, 0
0, 0
0, 0
0, 0
0, 0
0, 0
0, 0
0, 0
0, 0
0, 0
0, 0
0, 0
0, 0
0, 0
0, 0
0, 0
0, 0
0, 0
0, 0
0, 0
0, 0
0, 0
0, 0
0, 0
0, 0
0, 0
0, 0
0, 0
0, 0
0, 0
0, 0
0, 0
0, 0
0, 0
0, 0
0, 0
0, 0
0, 0
0, 0
0, 0
0, 0
0, 0
0, 0
0, 0
0, 0
0, 0
0, 0
0, 0
0, 0
0, 0
0, 0
0, 0
0, 0
0, 0
0, 0
0, 0
0, 0
0, 0
0, 0
0, 0
0, 0
0, 0
0, 0
0, 0
0, 0
#ENDOFDATA     end of spectrum data