File: host_upload/06-09-2024/ps_0852/dump3/ps__0852shot_2030.msa
#FORMAT      : EMSA/MAS spectral data file
#VERSION     : TC202v2.0 PIXL
#TITLE       : N/A
#DATE        :       Date in the format DD-MMM-YYYY, for example 07-JUL-2010
#TIME        :             The time of day at which the spectrum was recorded, in 24-hour format
#OWNER       : PIXL Flight Model       (PIXL will use this to indicate which instrument took the data.)
#NPOINTS     : 4096     Number of data points in the spectrum (This can be zero for configuration only files)
#NCOLUMNS    : 2     Number of data columns in the spectrum (This can be zero for configuration only files)
#XUNITS      : eV
#YUNITS      : COUNTS
#DATATYPE    : YY
#XPERCHAN    : 7.862, 7.881   eV per channel (separate by commas if more than one detector)
#OFFSET      : 18.5, -22.4         eV of first channel  (separate by commas if more than one detector
#SIGNALTYPE  : XRF
#YP_TEMP     : 2.3
#LIVETIME    : 8.57383, 8.55954   seconds (separate by commas if more than one detector)
#REALTIME    : 10, 10.0   seconds (separate by commas if more than one detector)
#SPECTRUM    : start of spectrum data
0, 0
0, 0
0, 0
0, 0
0, 0
0, 0
0, 0
0, 0
2, 1
2, 1
3, 3
33, 31
58, 48
7, 9
7, 3
100, 73
438, 327
104, 100
7, 5
4, 0
29, 36
142, 139
47, 51
20, 12
49, 40
110, 37
73, 25
15, 22
11, 4
3, 2
7, 2
5, 5
5, 0
16, 15
16, 19
5, 4
5, 2
13, 6
9, 4
11, 6
3, 8
10, 29
13, 18
12, 10
8, 4
17, 7
20, 10
8, 6
8, 9
12, 25
51, 15
73, 9
16, 11
49, 52
68, 57
21, 31
25, 40
460, 516
2238, 2023
1662, 1177
228, 123
25, 12
21, 20
99, 92
323, 279
227, 175
29, 23
10, 10
31, 18
28, 10
4, 2
4, 7
5, 6
8, 2
9, 5
8, 3
10, 1
7, 1
2, 8
3, 5
5, 3
2, 5
3, 2
6, 2
2, 1
3, 4
3, 6
3, 3
2, 5
6, 3
4, 1
4, 3
3, 3
4, 1
5, 1
1, 3
2, 2
2, 2
4, 3
1, 2
3, 5
2, 3
2, 2
2, 0
2, 3
1, 1
4, 3
3, 5
5, 1
3, 4
1, 2
6, 3
4, 4
3, 2
0, 2
4, 1
5, 3
1, 1
6, 0
1, 1
2, 1
3, 2
2, 2
2, 3
1, 0
5, 0
1, 1
0, 0
1, 0
0, 1
2, 1
1, 0
0, 2
1, 1
0, 1
0, 2
0, 2
1, 0
2, 1
2, 0
3, 0
0, 0
1, 2
1, 1
0, 1
1, 1
1, 1
0, 0
1, 0
0, 0
1, 0
1, 2
0, 1
0, 2
2, 0
0, 0
0, 0
0, 0
0, 0
0, 0
0, 0
0, 0
1, 0
0, 1
1, 1
0, 0
1, 1
0, 0
0, 0
2, 0
0, 0
0, 0
0, 0
0, 0
0, 0
0, 1
1, 0
0, 0
1, 0
0, 0
0, 0
0, 0
0, 0
0, 0
0, 1
0, 1
0, 0
0, 0
0, 0
0, 0
0, 0
0, 0
0, 0
0, 0
0, 0
0, 0
0, 0
0, 0
0, 0
0, 0
0, 0
0, 0
0, 0
0, 0
1, 0
0, 0
0, 0
0, 0
0, 0
0, 0
0, 0
0, 0
0, 0
0, 0
0, 0
0, 0
0, 0
0, 0
0, 0
0, 0
0, 0
0, 0
0, 0
0, 0
0, 0
0, 0
0, 0
0, 0
0, 0
0, 0
0, 0
0, 0
0, 0
0, 0
0, 0
0, 0
0, 0
0, 0
0, 0
0, 0
0, 0
0, 0
0, 0
0, 0
0, 0
0, 0
0, 0
0, 0
0, 0
0, 0
0, 0
0, 0
0, 0
0, 0
0, 0
0, 0
0, 0
0, 0
0, 0
0, 0
0, 0
0, 0
0, 0
0, 0
0, 0
0, 0
0, 0
0, 0
0, 0
0, 0
0, 0
0, 0
0, 0
0, 0
0, 0
0, 0
0, 0
0, 0
0, 0
0, 0
0, 0
0, 0
0, 0
0, 0
0, 0
0, 0
0, 0
0, 0
0, 0
0, 0
0, 0
0, 0
0, 0
0, 0
#ENDOFDATA     end of spectrum data