File: host_upload/06-09-2024/ps_0852/dump3/ps__0852shot_2374.msa
#FORMAT      : EMSA/MAS spectral data file
#VERSION     : TC202v2.0 PIXL
#TITLE       : N/A
#DATE        :       Date in the format DD-MMM-YYYY, for example 07-JUL-2010
#TIME        :             The time of day at which the spectrum was recorded, in 24-hour format
#OWNER       : PIXL Flight Model       (PIXL will use this to indicate which instrument took the data.)
#NPOINTS     : 4096     Number of data points in the spectrum (This can be zero for configuration only files)
#NCOLUMNS    : 2     Number of data columns in the spectrum (This can be zero for configuration only files)
#XUNITS      : eV
#YUNITS      : COUNTS
#DATATYPE    : YY
#XPERCHAN    : 7.862, 7.881   eV per channel (separate by commas if more than one detector)
#OFFSET      : 18.5, -22.4         eV of first channel  (separate by commas if more than one detector
#SIGNALTYPE  : XRF
#YP_TEMP     : 2.716
#LIVETIME    : 8.57772, 8.37371   seconds (separate by commas if more than one detector)
#REALTIME    : 10, 10.0   seconds (separate by commas if more than one detector)
#SPECTRUM    : start of spectrum data
0, 0
0, 0
0, 0
0, 0
0, 0
0, 0
0, 0
0, 0
1, 1
1, 0
1, 1
37, 20
68, 43
7, 8
4, 6
104, 94
537, 418
108, 93
8, 5
1, 1
0, 2
14, 7
8, 2
10, 13
62, 69
34, 48
25, 23
17, 14
7, 4
5, 2
2, 2
9, 1
21, 7
75, 56
103, 112
25, 18
13, 13
16, 21
7, 16
2, 15
4, 1
12, 7
19, 14
35, 19
28, 7
9, 6
10, 0
8, 6
11, 10
31, 27
24, 28
20, 8
12, 11
44, 45
71, 49
30, 26
37, 35
500, 507
2282, 1993
1671, 1230
225, 135
37, 13
51, 12
180, 112
386, 323
243, 152
27, 14
14, 6
17, 11
14, 16
2, 5
3, 2
5, 4
9, 8
7, 6
5, 11
4, 4
4, 5
3, 4
4, 5
3, 3
5, 1
5, 12
6, 5
5, 5
5, 15
10, 10
5, 2
5, 3
12, 0
16, 2
7, 1
2, 2
3, 1
3, 3
1, 1
4, 3
3, 1
6, 3
2, 0
1, 3
3, 0
3, 4
3, 2
1, 3
1, 1
2, 0
2, 5
1, 2
3, 3
3, 3
4, 1
1, 1
1, 1
2, 1
6, 1
6, 8
4, 3
0, 1
2, 0
2, 4
1, 1
3, 2
0, 1
5, 0
4, 1
1, 2
1, 0
2, 4
1, 0
4, 2
4, 1
2, 1
1, 1
2, 1
0, 0
2, 2
2, 2
1, 0
0, 0
0, 0
0, 0
1, 0
0, 1
0, 0
2, 0
2, 0
0, 0
4, 0
1, 0
0, 0
0, 1
1, 0
0, 0
1, 0
0, 0
2, 0
0, 0
1, 0
0, 0
0, 0
0, 0
0, 0
0, 0
0, 1
0, 0
0, 0
0, 0
0, 0
0, 0
0, 3
0, 0
0, 0
1, 0
0, 0
0, 0
0, 0
0, 0
0, 0
0, 0
0, 1
0, 1
0, 0
0, 0
0, 0
1, 0
0, 0
0, 0
0, 0
0, 0
0, 0
0, 0
0, 0
0, 0
0, 0
0, 0
0, 0
0, 0
0, 0
1, 0
0, 0
0, 0
0, 0
0, 0
0, 0
0, 0
0, 0
0, 0
0, 0
0, 0
0, 0
0, 0
0, 0
0, 0
0, 0
0, 0
0, 0
0, 0
0, 0
0, 0
0, 0
0, 0
0, 0
0, 0
0, 0
0, 0
0, 0
0, 0
0, 0
0, 0
0, 0
0, 0
0, 0
0, 0
0, 0
0, 0
0, 0
0, 0
0, 0
0, 0
0, 0
0, 0
0, 0
0, 0
0, 0
0, 0
0, 0
0, 0
0, 0
0, 0
0, 0
0, 0
0, 0
0, 0
0, 0
0, 0
0, 0
0, 0
0, 0
0, 0
0, 0
0, 0
0, 0
0, 0
0, 0
0, 0
0, 0
0, 0
0, 0
0, 0
0, 0
0, 0
0, 0
0, 0
0, 0
0, 0
0, 0
0, 0
0, 0
0, 0
0, 0
0, 0
0, 0
0, 0
0, 0
0, 0
0, 0
0, 0
0, 0
0, 0
0, 0
0, 0
0, 0
0, 0
#ENDOFDATA     end of spectrum data