File: host_upload/06-09-2024/ps_0852/dump3/ps__0852shot_2289.msa
#FORMAT      : EMSA/MAS spectral data file
#VERSION     : TC202v2.0 PIXL
#TITLE       : N/A
#DATE        :       Date in the format DD-MMM-YYYY, for example 07-JUL-2010
#TIME        :             The time of day at which the spectrum was recorded, in 24-hour format
#OWNER       : PIXL Flight Model       (PIXL will use this to indicate which instrument took the data.)
#NPOINTS     : 4096     Number of data points in the spectrum (This can be zero for configuration only files)
#NCOLUMNS    : 2     Number of data columns in the spectrum (This can be zero for configuration only files)
#XUNITS      : eV
#YUNITS      : COUNTS
#DATATYPE    : YY
#XPERCHAN    : 7.862, 7.881   eV per channel (separate by commas if more than one detector)
#OFFSET      : 18.5, -22.4         eV of first channel  (separate by commas if more than one detector
#SIGNALTYPE  : XRF
#YP_TEMP     : 2.3
#LIVETIME    : 8.57936, 8.58415   seconds (separate by commas if more than one detector)
#REALTIME    : 10, 10.0   seconds (separate by commas if more than one detector)
#SPECTRUM    : start of spectrum data
0, 0
0, 0
0, 0
0, 0
0, 0
0, 0
0, 0
0, 0
1, 1
0, 3
1, 4
38, 41
52, 48
4, 5
8, 9
88, 91
328, 353
75, 91
5, 9
2, 3
55, 55
250, 287
101, 137
35, 38
84, 90
59, 79
40, 37
12, 17
4, 7
0, 3
3, 7
4, 8
2, 4
13, 4
13, 16
7, 4
4, 3
3, 6
4, 11
4, 6
7, 5
11, 12
11, 14
13, 12
7, 7
8, 16
6, 12
7, 8
9, 14
9, 23
30, 14
16, 8
9, 15
35, 34
70, 74
23, 32
25, 32
449, 627
2143, 2366
1510, 1406
202, 138
23, 17
23, 26
109, 143
346, 370
236, 219
28, 23
8, 9
20, 10
16, 9
25, 5
9, 5
4, 3
4, 10
5, 18
3, 9
7, 21
5, 6
6, 4
13, 6
7, 0
8, 5
4, 3
4, 3
0, 10
1, 10
3, 3
3, 4
4, 4
4, 4
5, 8
1, 2
4, 3
7, 3
1, 5
2, 3
4, 2
1, 4
1, 2
3, 5
4, 3
2, 1
4, 2
3, 2
3, 0
0, 1
3, 3
4, 1
2, 2
3, 1
3, 5
4, 3
1, 5
1, 3
1, 2
3, 2
4, 6
4, 2
5, 2
6, 3
4, 3
1, 2
2, 3
1, 2
1, 0
1, 1
0, 3
0, 4
0, 0
1, 0
1, 1
0, 1
1, 2
0, 0
1, 0
2, 2
1, 0
0, 1
1, 0
2, 0
0, 1
0, 2
0, 0
1, 0
1, 1
0, 0
0, 1
0, 0
0, 1
0, 2
0, 0
0, 1
0, 0
0, 3
1, 0
0, 1
2, 0
0, 0
1, 0
0, 1
0, 1
1, 0
0, 0
0, 1
0, 1
1, 2
0, 0
0, 0
0, 0
0, 1
0, 1
1, 0
1, 0
1, 0
0, 0
1, 0
0, 0
0, 0
0, 0
0, 1
0, 0
0, 1
1, 0
0, 0
0, 0
0, 1
0, 0
0, 0
0, 0
0, 0
1, 0
0, 0
0, 0
0, 0
0, 0
0, 0
0, 0
0, 0
0, 0
0, 0
0, 0
0, 0
0, 0
0, 0
0, 0
0, 0
0, 1
0, 0
0, 0
0, 0
0, 0
0, 0
0, 0
0, 0
0, 0
0, 0
0, 0
0, 0
0, 0
0, 0
0, 0
0, 0
0, 0
0, 0
0, 0
0, 0
0, 0
0, 0
0, 0
0, 0
0, 0
0, 0
0, 0
0, 0
0, 0
0, 0
0, 0
0, 0
0, 0
0, 0
0, 0
0, 0
0, 0
0, 0
0, 0
0, 0
0, 0
0, 0
0, 0
0, 0
0, 0
0, 0
0, 0
0, 0
0, 0
0, 0
0, 0
0, 0
0, 0
0, 0
0, 0
0, 0
0, 0
0, 0
0, 0
0, 0
0, 0
0, 0
0, 0
0, 0
0, 0
0, 0
0, 0
0, 0
0, 0
0, 0
0, 0
0, 0
0, 0
0, 0
0, 0
0, 0
0, 0
0, 0
0, 0
0, 0
0, 0
0, 0
0, 0
0, 0
0, 0
0, 0
0, 0
0, 0
#ENDOFDATA     end of spectrum data