File: host_upload/06-09-2024/ps_0852/dump3/ps__0852shot_2195.msa
#FORMAT      : EMSA/MAS spectral data file
#VERSION     : TC202v2.0 PIXL
#TITLE       : N/A
#DATE        :       Date in the format DD-MMM-YYYY, for example 07-JUL-2010
#TIME        :             The time of day at which the spectrum was recorded, in 24-hour format
#OWNER       : PIXL Flight Model       (PIXL will use this to indicate which instrument took the data.)
#NPOINTS     : 4096     Number of data points in the spectrum (This can be zero for configuration only files)
#NCOLUMNS    : 2     Number of data columns in the spectrum (This can be zero for configuration only files)
#XUNITS      : eV
#YUNITS      : COUNTS
#DATATYPE    : YY
#XPERCHAN    : 7.862, 7.881   eV per channel (separate by commas if more than one detector)
#OFFSET      : 18.5, -22.4         eV of first channel  (separate by commas if more than one detector
#SIGNALTYPE  : XRF
#YP_TEMP     : 2.428
#LIVETIME    : 8.55937, 8.56376   seconds (separate by commas if more than one detector)
#REALTIME    : 10, 10.0   seconds (separate by commas if more than one detector)
#SPECTRUM    : start of spectrum data
0, 0
0, 0
0, 0
0, 0
0, 0
0, 0
0, 0
0, 0
0, 0
1, 1
3, 3
70, 35
59, 55
6, 4
8, 5
106, 84
395, 369
135, 96
8, 6
3, 2
0, 0
8, 3
3, 5
3, 5
43, 55
33, 78
16, 37
17, 14
4, 1
5, 0
4, 1
3, 1
3, 5
18, 17
28, 26
7, 6
7, 10
8, 13
8, 12
3, 3
3, 8
10, 12
22, 20
43, 28
45, 6
17, 5
7, 5
10, 6
7, 6
13, 16
19, 17
9, 7
9, 9
29, 51
60, 64
26, 17
49, 43
506, 588
2297, 2216
1665, 1320
225, 131
45, 16
53, 31
106, 110
321, 364
257, 180
30, 25
12, 16
15, 17
13, 9
4, 2
2, 4
5, 6
5, 6
6, 5
9, 4
7, 5
7, 1
5, 9
8, 4
6, 1
3, 3
6, 8
5, 8
8, 15
2, 16
2, 14
9, 3
3, 3
10, 4
8, 5
4, 1
4, 5
2, 3
5, 0
2, 5
7, 4
0, 1
2, 2
1, 1
1, 0
4, 4
3, 3
6, 3
1, 2
2, 3
2, 3
3, 2
2, 2
1, 1
2, 3
1, 2
3, 3
1, 1
1, 3
5, 1
3, 2
4, 3
1, 2
1, 4
1, 1
1, 3
2, 3
2, 2
1, 4
1, 0
1, 0
2, 0
0, 0
2, 0
2, 0
1, 0
3, 1
1, 1
0, 2
0, 0
0, 0
1, 0
0, 1
0, 0
0, 1
1, 2
1, 0
0, 0
0, 0
0, 0
0, 0
1, 0
0, 1
0, 0
0, 1
1, 0
0, 0
0, 0
1, 0
0, 0
0, 0
0, 2
1, 0
1, 1
0, 0
0, 0
0, 0
0, 1
0, 0
0, 0
0, 1
1, 2
1, 0
0, 0
0, 0
0, 0
1, 0
0, 0
0, 0
0, 0
0, 0
0, 0
0, 0
0, 0
0, 0
0, 0
0, 0
0, 0
0, 0
0, 1
0, 0
0, 0
0, 0
0, 0
0, 0
0, 0
0, 0
0, 0
1, 0
0, 0
0, 0
0, 0
0, 0
0, 1
1, 0
1, 0
0, 0
0, 0
0, 1
0, 0
0, 0
0, 0
0, 0
0, 1
0, 0
0, 0
0, 0
0, 0
0, 0
0, 0
0, 0
0, 0
0, 0
0, 0
0, 0
0, 0
0, 0
0, 0
0, 0
0, 0
0, 0
0, 0
0, 0
0, 0
0, 0
0, 0
0, 0
0, 0
0, 0
0, 0
0, 0
0, 0
0, 0
0, 0
0, 0
0, 0
0, 0
0, 0
0, 0
0, 0
0, 0
0, 0
0, 0
0, 0
0, 0
0, 0
0, 0
0, 0
0, 0
0, 0
0, 0
0, 0
0, 0
0, 0
0, 0
0, 0
0, 0
0, 0
0, 0
0, 0
0, 0
0, 0
0, 0
0, 0
0, 0
0, 0
0, 0
0, 0
0, 0
0, 0
0, 0
0, 0
0, 0
0, 0
0, 0
0, 0
0, 0
0, 0
0, 0
0, 0
0, 0
0, 0
0, 0
0, 0
0, 0
0, 0
0, 0
0, 0
#ENDOFDATA     end of spectrum data