File: host_upload/06-09-2024/ps_0852/dump3/ps__0852shot_2457.msa
#FORMAT      : EMSA/MAS spectral data file
#VERSION     : TC202v2.0 PIXL
#TITLE       : N/A
#DATE        :       Date in the format DD-MMM-YYYY, for example 07-JUL-2010
#TIME        :             The time of day at which the spectrum was recorded, in 24-hour format
#OWNER       : PIXL Flight Model       (PIXL will use this to indicate which instrument took the data.)
#NPOINTS     : 4096     Number of data points in the spectrum (This can be zero for configuration only files)
#NCOLUMNS    : 2     Number of data columns in the spectrum (This can be zero for configuration only files)
#XUNITS      : eV
#YUNITS      : COUNTS
#DATATYPE    : YY
#XPERCHAN    : 7.862, 7.881   eV per channel (separate by commas if more than one detector)
#OFFSET      : 18.5, -22.4         eV of first channel  (separate by commas if more than one detector
#SIGNALTYPE  : XRF
#YP_TEMP     : 2.332
#LIVETIME    : 8.52711, 8.5466   seconds (separate by commas if more than one detector)
#REALTIME    : 10, 10.0   seconds (separate by commas if more than one detector)
#SPECTRUM    : start of spectrum data
0, 0
0, 0
0, 0
0, 0
0, 0
0, 0
0, 0
0, 0
1, 1
0, 0
2, 2
46, 47
66, 48
6, 7
5, 3
89, 95
469, 401
98, 97
4, 8
1, 1
12, 11
70, 80
34, 27
21, 10
38, 28
38, 31
21, 20
15, 14
5, 10
1, 3
2, 0
5, 1
6, 1
35, 26
40, 52
4, 27
8, 20
7, 4
2, 3
5, 1
4, 5
7, 8
15, 18
9, 8
4, 8
6, 24
5, 18
4, 11
6, 8
29, 31
48, 31
18, 19
4, 11
51, 36
62, 63
37, 32
22, 46
442, 562
2080, 2347
1482, 1367
205, 124
23, 13
27, 18
101, 114
338, 340
215, 193
23, 24
8, 12
11, 12
10, 4
5, 9
7, 6
4, 5
3, 6
4, 5
5, 4
6, 7
6, 7
6, 5
7, 4
7, 5
9, 3
8, 3
14, 4
3, 7
7, 5
7, 5
6, 2
2, 4
2, 8
2, 4
3, 8
2, 10
4, 4
3, 2
7, 1
5, 2
3, 4
2, 4
1, 3
2, 2
4, 4
2, 3
3, 2
1, 2
2, 1
1, 2
3, 6
0, 7
1, 2
2, 2
1, 3
2, 1
2, 2
2, 1
1, 2
8, 3
4, 4
3, 1
2, 1
0, 0
3, 1
5, 4
0, 2
1, 1
1, 0
0, 2
0, 1
2, 2
1, 2
0, 2
1, 1
1, 2
3, 0
0, 2
1, 1
1, 1
0, 0
0, 0
1, 0
0, 0
1, 0
1, 2
1, 0
1, 0
1, 0
1, 0
0, 0
0, 2
1, 2
0, 0
1, 0
0, 0
0, 0
0, 0
1, 0
0, 0
0, 0
0, 1
0, 0
0, 0
0, 0
0, 0
1, 0
0, 1
1, 0
1, 1
0, 0
0, 0
0, 0
0, 0
0, 1
0, 0
0, 0
0, 0
0, 1
0, 0
0, 0
0, 0
0, 0
0, 0
0, 1
0, 0
0, 0
0, 0
0, 0
0, 0
1, 0
0, 0
0, 0
0, 0
0, 0
0, 0
0, 0
0, 0
0, 0
0, 0
0, 0
0, 0
0, 0
0, 0
0, 0
0, 0
0, 0
0, 0
0, 0
0, 0
0, 0
0, 0
0, 0
0, 0
0, 0
0, 0
0, 0
0, 0
0, 0
0, 0
0, 0
0, 0
0, 0
0, 0
0, 0
0, 0
0, 0
0, 0
0, 0
0, 0
0, 0
0, 0
0, 0
0, 0
0, 0
0, 0
0, 0
0, 0
0, 0
0, 0
0, 0
0, 0
0, 0
0, 0
0, 0
0, 0
0, 0
0, 0
0, 0
0, 0
0, 0
0, 0
0, 0
0, 0
0, 0
0, 0
0, 0
0, 0
0, 0
0, 0
0, 0
0, 0
0, 0
0, 0
0, 0
0, 0
0, 0
0, 0
0, 0
0, 0
0, 0
0, 0
0, 0
0, 0
0, 0
0, 0
0, 0
0, 0
0, 0
0, 0
0, 0
0, 0
0, 0
0, 0
0, 0
0, 0
0, 0
0, 0
0, 0
0, 0
0, 0
0, 0
0, 0
0, 0
0, 0
0, 0
0, 0
#ENDOFDATA     end of spectrum data