File: host_upload/06-09-2024/ps_0852/dump3/ps__0852shot_2252.msa
#FORMAT      : EMSA/MAS spectral data file
#VERSION     : TC202v2.0 PIXL
#TITLE       : N/A
#DATE        :       Date in the format DD-MMM-YYYY, for example 07-JUL-2010
#TIME        :             The time of day at which the spectrum was recorded, in 24-hour format
#OWNER       : PIXL Flight Model       (PIXL will use this to indicate which instrument took the data.)
#NPOINTS     : 4096     Number of data points in the spectrum (This can be zero for configuration only files)
#NCOLUMNS    : 2     Number of data columns in the spectrum (This can be zero for configuration only files)
#XUNITS      : eV
#YUNITS      : COUNTS
#DATATYPE    : YY
#XPERCHAN    : 7.862, 7.881   eV per channel (separate by commas if more than one detector)
#OFFSET      : 18.5, -22.4         eV of first channel  (separate by commas if more than one detector
#SIGNALTYPE  : XRF
#YP_TEMP     : 2.396
#LIVETIME    : 8.58823, 8.56648   seconds (separate by commas if more than one detector)
#REALTIME    : 10, 10.0   seconds (separate by commas if more than one detector)
#SPECTRUM    : start of spectrum data
0, 0
0, 0
0, 0
0, 0
0, 0
0, 0
0, 0
0, 0
1, 2
1, 0
4, 2
49, 34
57, 57
6, 4
6, 7
106, 100
489, 366
114, 110
7, 4
1, 1
2, 1
8, 8
5, 9
18, 20
64, 52
50, 64
22, 31
19, 15
5, 4
2, 4
4, 3
21, 3
42, 1
70, 32
61, 47
7, 16
14, 13
6, 6
12, 3
4, 3
8, 5
14, 16
7, 8
13, 11
6, 4
5, 9
6, 6
6, 4
19, 12
47, 46
19, 37
7, 26
13, 7
35, 29
54, 42
17, 19
28, 41
517, 625
2253, 2235
1699, 1381
204, 180
25, 28
95, 9
276, 106
419, 335
262, 189
37, 18
12, 5
17, 12
8, 4
7, 3
8, 0
19, 5
9, 5
6, 6
6, 1
7, 2
4, 2
2, 3
7, 5
5, 6
5, 2
3, 4
2, 1
4, 3
6, 3
1, 3
7, 2
3, 4
6, 1
1, 6
3, 4
6, 3
3, 1
6, 3
4, 4
4, 5
1, 3
4, 1
4, 3
4, 1
2, 3
0, 3
7, 0
7, 3
2, 1
2, 2
0, 3
0, 2
0, 1
1, 3
1, 1
2, 3
3, 3
4, 1
1, 2
3, 4
5, 0
0, 5
0, 0
0, 1
0, 2
1, 2
1, 3
1, 0
1, 1
1, 0
1, 0
1, 2
1, 1
0, 2
1, 1
0, 0
1, 2
0, 5
0, 0
1, 0
0, 0
1, 0
1, 0
0, 0
1, 0
0, 3
0, 0
0, 0
0, 0
1, 0
1, 0
0, 0
0, 0
0, 0
0, 0
2, 0
1, 0
1, 1
0, 0
2, 0
0, 0
0, 1
0, 0
0, 0
0, 0
1, 0
1, 1
0, 0
0, 0
0, 0
2, 1
0, 0
2, 0
1, 0
0, 1
0, 1
0, 0
0, 0
0, 0
0, 1
0, 1
0, 0
0, 0
0, 0
0, 0
0, 0
0, 0
0, 0
0, 0
0, 0
0, 0
0, 0
0, 0
0, 0
0, 0
0, 0
0, 0
0, 0
0, 0
0, 0
0, 0
0, 0
0, 0
0, 0
0, 0
0, 0
0, 0
0, 0
0, 0
0, 0
0, 1
0, 0
0, 0
0, 0
0, 0
0, 0
0, 0
0, 0
0, 0
0, 0
0, 0
0, 0
0, 0
0, 0
0, 0
0, 0
0, 0
0, 0
0, 0
0, 0
0, 0
0, 0
0, 0
0, 0
0, 0
0, 0
0, 0
0, 0
0, 0
0, 0
0, 0
0, 0
0, 0
0, 0
0, 0
0, 0
0, 0
0, 0
0, 0
0, 0
0, 0
0, 0
0, 0
0, 0
0, 0
0, 0
0, 0
0, 0
0, 0
0, 0
0, 0
0, 0
0, 0
0, 0
0, 0
0, 0
0, 0
0, 0
0, 0
0, 0
0, 0
0, 0
0, 0
0, 0
0, 0
0, 0
0, 0
0, 0
0, 0
0, 0
0, 0
0, 0
0, 0
0, 0
0, 0
0, 0
0, 0
0, 0
0, 0
0, 0
0, 0
0, 0
0, 0
0, 0
0, 0
0, 0
0, 0
#ENDOFDATA     end of spectrum data