File: host_upload/06-09-2024/ps_0852/dump3/ps__0852shot_2165.msa
#FORMAT      : EMSA/MAS spectral data file
#VERSION     : TC202v2.0 PIXL
#TITLE       : N/A
#DATE        :       Date in the format DD-MMM-YYYY, for example 07-JUL-2010
#TIME        :             The time of day at which the spectrum was recorded, in 24-hour format
#OWNER       : PIXL Flight Model       (PIXL will use this to indicate which instrument took the data.)
#NPOINTS     : 4096     Number of data points in the spectrum (This can be zero for configuration only files)
#NCOLUMNS    : 2     Number of data columns in the spectrum (This can be zero for configuration only files)
#XUNITS      : eV
#YUNITS      : COUNTS
#DATATYPE    : YY
#XPERCHAN    : 7.862, 7.881   eV per channel (separate by commas if more than one detector)
#OFFSET      : 18.5, -22.4         eV of first channel  (separate by commas if more than one detector
#SIGNALTYPE  : XRF
#YP_TEMP     : 2.3
#LIVETIME    : 8.57271, 8.37379   seconds (separate by commas if more than one detector)
#REALTIME    : 10, 10.0   seconds (separate by commas if more than one detector)
#SPECTRUM    : start of spectrum data
0, 0
0, 0
0, 0
0, 0
0, 0
0, 0
0, 0
0, 1
0, 1
2, 4
3, 2
51, 51
52, 66
9, 8
1, 5
73, 104
354, 405
82, 88
5, 5
6, 5
55, 63
288, 357
143, 141
48, 29
67, 73
43, 55
18, 30
17, 21
8, 8
5, 3
8, 11
7, 13
4, 5
26, 49
49, 64
20, 9
4, 8
17, 11
16, 7
15, 6
3, 4
12, 11
17, 16
10, 9
7, 6
8, 9
7, 8
6, 11
7, 12
23, 32
22, 11
7, 5
42, 10
73, 43
91, 56
32, 24
27, 42
384, 545
1782, 2122
1381, 1262
188, 128
19, 15
18, 17
78, 109
304, 297
174, 206
35, 34
11, 16
19, 25
11, 4
4, 4
1, 3
3, 4
5, 5
5, 8
8, 9
13, 5
9, 3
1, 4
2, 3
5, 1
0, 6
4, 7
8, 8
8, 7
3, 6
6, 4
2, 8
1, 4
8, 4
5, 5
5, 2
5, 5
2, 8
2, 3
2, 3
1, 6
4, 5
2, 2
1, 0
3, 2
3, 5
2, 1
3, 2
3, 2
3, 1
3, 4
3, 1
3, 1
1, 3
2, 2
4, 0
2, 3
1, 2
4, 3
1, 4
3, 5
1, 2
3, 2
1, 2
3, 0
2, 0
3, 1
1, 3
0, 2
0, 0
3, 2
1, 2
0, 0
1, 2
3, 0
0, 1
0, 1
1, 1
3, 2
1, 1
1, 1
1, 1
0, 1
1, 0
0, 2
1, 0
0, 1
1, 0
1, 0
1, 1
1, 0
1, 1
0, 1
0, 0
0, 0
1, 0
1, 0
1, 1
1, 0
0, 0
0, 1
0, 2
0, 0
0, 0
1, 0
0, 0
0, 1
0, 0
0, 1
0, 0
0, 0
0, 1
1, 0
0, 0
0, 0
1, 0
0, 0
1, 0
0, 0
0, 0
0, 0
0, 0
0, 0
0, 0
0, 0
1, 0
0, 1
0, 0
0, 0
0, 0
0, 0
0, 0
0, 0
0, 0
0, 0
0, 0
0, 0
0, 0
0, 0
0, 0
0, 0
0, 0
0, 0
0, 0
0, 0
0, 0
0, 0
0, 0
0, 0
0, 0
0, 0
0, 0
0, 0
0, 0
1, 0
0, 0
0, 0
0, 0
0, 0
0, 0
0, 0
0, 0
0, 0
0, 0
0, 0
0, 0
0, 0
0, 0
0, 0
0, 0
0, 0
0, 0
0, 0
0, 0
0, 0
0, 0
0, 0
0, 0
0, 0
0, 0
0, 0
0, 0
0, 0
0, 0
0, 0
0, 0
0, 0
0, 0
0, 0
0, 0
0, 0
0, 0
0, 0
0, 0
0, 0
0, 0
0, 0
0, 0
0, 0
0, 0
0, 0
0, 0
0, 0
0, 0
0, 0
0, 0
0, 0
0, 0
0, 0
0, 0
0, 0
0, 0
0, 0
0, 0
0, 0
0, 0
0, 0
0, 0
0, 0
0, 0
0, 0
0, 0
0, 0
0, 0
0, 0
0, 0
0, 0
0, 0
0, 0
0, 0
0, 0
0, 0
0, 0
0, 0
0, 0
0, 0
0, 0
0, 0
#ENDOFDATA     end of spectrum data