File: host_upload/06-09-2024/ps_0852/dump3/ps__0852shot_2523.msa
#FORMAT      : EMSA/MAS spectral data file
#VERSION     : TC202v2.0 PIXL
#TITLE       : N/A
#DATE        :       Date in the format DD-MMM-YYYY, for example 07-JUL-2010
#TIME        :             The time of day at which the spectrum was recorded, in 24-hour format
#OWNER       : PIXL Flight Model       (PIXL will use this to indicate which instrument took the data.)
#NPOINTS     : 4096     Number of data points in the spectrum (This can be zero for configuration only files)
#NCOLUMNS    : 2     Number of data columns in the spectrum (This can be zero for configuration only files)
#XUNITS      : eV
#YUNITS      : COUNTS
#DATATYPE    : YY
#XPERCHAN    : 7.862, 7.881   eV per channel (separate by commas if more than one detector)
#OFFSET      : 18.5, -22.4         eV of first channel  (separate by commas if more than one detector
#SIGNALTYPE  : XRF
#YP_TEMP     : 2.364
#LIVETIME    : 8.5415, 8.54807   seconds (separate by commas if more than one detector)
#REALTIME    : 10, 10.0   seconds (separate by commas if more than one detector)
#SPECTRUM    : start of spectrum data
0, 0
0, 0
0, 0
0, 0
0, 0
0, 0
0, 0
0, 0
1, 1
0, 1
2, 1
59, 61
59, 65
6, 4
8, 9
96, 90
501, 400
124, 89
7, 0
0, 0
0, 2
18, 14
5, 7
9, 2
14, 16
31, 27
11, 14
6, 9
2, 0
4, 2
0, 0
2, 0
4, 3
13, 8
17, 17
4, 4
4, 3
1, 2
2, 2
4, 1
0, 5
11, 10
15, 8
10, 8
6, 5
5, 2
10, 3
4, 3
11, 6
53, 16
111, 9
38, 4
15, 5
68, 42
106, 54
49, 20
34, 40
493, 504
2284, 2148
1737, 1228
196, 124
11, 11
21, 12
99, 116
333, 311
221, 155
34, 18
10, 6
13, 16
5, 5
4, 2
2, 4
6, 6
8, 7
7, 6
5, 1
4, 4
7, 2
8, 2
5, 6
12, 7
17, 3
15, 12
4, 6
2, 4
3, 0
3, 5
2, 4
10, 1
4, 2
4, 0
2, 4
2, 2
4, 3
1, 1
2, 3
2, 2
1, 4
3, 0
8, 2
8, 1
5, 0
5, 0
5, 2
3, 3
1, 2
0, 3
1, 2
5, 2
2, 1
0, 1
2, 3
3, 1
0, 5
2, 2
0, 0
13, 3
1, 4
1, 1
1, 3
2, 3
0, 3
3, 2
1, 4
1, 0
2, 2
1, 0
3, 0
0, 0
1, 1
1, 1
1, 0
1, 1
0, 1
2, 1
1, 0
1, 1
1, 2
0, 0
0, 1
2, 2
0, 0
0, 2
0, 0
0, 3
1, 0
0, 0
0, 0
0, 0
0, 0
0, 1
0, 0
0, 0
0, 3
0, 2
0, 0
0, 0
0, 0
0, 0
0, 1
0, 0
0, 1
0, 1
0, 0
1, 0
0, 0
0, 0
0, 0
0, 0
0, 2
0, 0
0, 0
0, 0
1, 0
1, 1
1, 0
1, 0
0, 0
0, 0
0, 0
0, 1
0, 0
0, 0
0, 0
0, 1
0, 0
0, 0
0, 0
0, 0
0, 0
0, 0
1, 0
0, 0
0, 0
0, 0
0, 0
0, 0
0, 0
0, 1
1, 0
0, 0
0, 1
0, 0
0, 0
0, 0
0, 0
0, 1
0, 0
0, 0
0, 0
0, 0
0, 0
0, 0
0, 0
0, 0
0, 0
0, 0
0, 0
0, 0
0, 0
0, 0
0, 0
0, 0
0, 0
0, 0
0, 0
0, 0
0, 0
0, 0
0, 0
0, 0
0, 0
0, 0
0, 0
0, 0
0, 0
0, 0
0, 0
0, 0
0, 0
0, 0
0, 0
0, 0
0, 0
0, 0
0, 0
0, 0
0, 0
0, 0
0, 0
0, 0
0, 0
0, 0
0, 0
0, 0
0, 0
0, 0
0, 0
0, 0
0, 0
0, 0
0, 0
0, 0
0, 0
0, 0
0, 0
0, 0
0, 0
0, 0
0, 0
0, 0
0, 0
0, 0
0, 0
0, 0
0, 0
0, 0
0, 0
0, 0
0, 0
0, 0
0, 0
0, 0
0, 0
0, 0
0, 0
0, 0
0, 0
0, 0
0, 0
0, 0
0, 0
0, 0
0, 0
#ENDOFDATA     end of spectrum data