File: host_upload/06-09-2024/ps_0852/dump3/ps__0852shot_2089.msa
#FORMAT      : EMSA/MAS spectral data file
#VERSION     : TC202v2.0 PIXL
#TITLE       : N/A
#DATE        :       Date in the format DD-MMM-YYYY, for example 07-JUL-2010
#TIME        :             The time of day at which the spectrum was recorded, in 24-hour format
#OWNER       : PIXL Flight Model       (PIXL will use this to indicate which instrument took the data.)
#NPOINTS     : 4096     Number of data points in the spectrum (This can be zero for configuration only files)
#NCOLUMNS    : 2     Number of data columns in the spectrum (This can be zero for configuration only files)
#XUNITS      : eV
#YUNITS      : COUNTS
#DATATYPE    : YY
#XPERCHAN    : 7.862, 7.881   eV per channel (separate by commas if more than one detector)
#OFFSET      : 18.5, -22.4         eV of first channel  (separate by commas if more than one detector
#SIGNALTYPE  : XRF
#YP_TEMP     : 2.62
#LIVETIME    : 8.59829, 8.56476   seconds (separate by commas if more than one detector)
#REALTIME    : 10, 10.0   seconds (separate by commas if more than one detector)
#SPECTRUM    : start of spectrum data
0, 0
0, 0
0, 0
0, 0
0, 0
0, 0
0, 0
0, 0
0, 1
0, 1
0, 3
44, 55
70, 49
6, 5
6, 1
85, 104
424, 435
120, 105
8, 6
3, 3
3, 8
19, 24
9, 8
7, 14
49, 59
98, 50
46, 20
16, 9
10, 3
6, 4
5, 5
2, 3
3, 9
51, 58
96, 106
22, 20
14, 17
17, 26
6, 6
2, 3
2, 9
7, 11
15, 17
16, 14
15, 21
7, 13
11, 8
9, 8
19, 10
48, 16
82, 20
53, 19
14, 33
44, 63
56, 83
23, 27
38, 37
422, 595
1884, 2130
1414, 1234
191, 160
39, 20
37, 13
88, 135
288, 328
221, 190
29, 32
6, 9
14, 15
19, 13
12, 8
4, 11
5, 7
6, 12
5, 11
6, 3
0, 7
8, 1
6, 10
3, 6
5, 6
3, 5
7, 3
7, 8
4, 5
1, 4
1, 1
2, 6
2, 3
3, 1
5, 4
2, 6
4, 2
1, 2
4, 9
5, 4
2, 3
1, 3
1, 9
0, 9
1, 6
1, 2
6, 1
1, 2
0, 3
4, 1
1, 3
3, 3
4, 1
4, 1
1, 2
7, 3
2, 2
2, 2
0, 3
6, 4
2, 7
5, 2
1, 2
1, 2
0, 3
2, 1
2, 2
2, 2
1, 1
0, 2
1, 0
1, 0
0, 0
0, 2
1, 1
0, 0
0, 1
1, 1
3, 3
1, 0
0, 3
0, 2
1, 0
3, 0
0, 0
0, 0
1, 1
0, 0
0, 0
0, 0
2, 0
3, 0
1, 0
0, 1
0, 1
0, 0
0, 0
0, 0
0, 0
0, 0
0, 0
1, 1
1, 0
0, 0
2, 0
0, 0
0, 0
1, 1
1, 1
2, 0
0, 1
0, 0
0, 1
1, 1
0, 0
0, 0
0, 1
0, 0
0, 0
0, 0
0, 0
0, 0
0, 0
0, 0
0, 0
0, 0
0, 0
0, 0
1, 0
0, 0
0, 0
0, 0
0, 0
0, 0
0, 0
0, 0
0, 0
0, 0
0, 0
0, 0
0, 0
0, 0
0, 0
0, 0
0, 0
0, 0
0, 1
0, 0
0, 0
0, 0
0, 0
0, 0
0, 0
0, 0
0, 0
0, 0
0, 0
0, 0
0, 0
0, 0
0, 0
0, 0
0, 0
0, 0
0, 0
0, 0
0, 0
0, 0
0, 0
0, 0
0, 0
0, 0
0, 0
0, 0
0, 0
0, 0
0, 0
0, 0
0, 0
0, 0
0, 0
0, 0
0, 0
0, 0
0, 0
0, 0
0, 0
0, 0
0, 0
0, 0
0, 0
0, 0
0, 0
0, 0
0, 0
0, 0
0, 0
0, 0
0, 0
0, 0
0, 0
0, 0
0, 0
0, 0
0, 0
0, 0
0, 0
0, 0
0, 0
0, 0
0, 0
0, 0
0, 0
0, 0
0, 0
0, 0
0, 0
0, 0
0, 0
0, 0
0, 0
0, 0
0, 0
0, 0
0, 0
0, 0
0, 0
0, 0
0, 0
0, 0
0, 0
0, 0
0, 0
0, 0
0, 0
0, 0
0, 0
0, 0
#ENDOFDATA     end of spectrum data