File: host_upload/06-09-2024/ps_0852/dump3/ps__0852shot_2199.msa
#FORMAT      : EMSA/MAS spectral data file
#VERSION     : TC202v2.0 PIXL
#TITLE       : N/A
#DATE        :       Date in the format DD-MMM-YYYY, for example 07-JUL-2010
#TIME        :             The time of day at which the spectrum was recorded, in 24-hour format
#OWNER       : PIXL Flight Model       (PIXL will use this to indicate which instrument took the data.)
#NPOINTS     : 4096     Number of data points in the spectrum (This can be zero for configuration only files)
#NCOLUMNS    : 2     Number of data columns in the spectrum (This can be zero for configuration only files)
#XUNITS      : eV
#YUNITS      : COUNTS
#DATATYPE    : YY
#XPERCHAN    : 7.862, 7.881   eV per channel (separate by commas if more than one detector)
#OFFSET      : 18.5, -22.4         eV of first channel  (separate by commas if more than one detector
#SIGNALTYPE  : XRF
#YP_TEMP     : 2.332
#LIVETIME    : 8.5747, 8.5701   seconds (separate by commas if more than one detector)
#REALTIME    : 10, 10.0   seconds (separate by commas if more than one detector)
#SPECTRUM    : start of spectrum data
0, 0
0, 0
0, 0
0, 0
0, 0
0, 0
0, 0
0, 1
0, 0
0, 1
6, 1
38, 50
68, 51
10, 5
2, 5
96, 90
433, 412
109, 114
6, 6
2, 1
2, 0
7, 8
2, 2
9, 2
24, 22
26, 30
17, 11
19, 9
7, 1
3, 1
2, 0
6, 0
20, 3
18, 11
12, 18
6, 7
4, 5
2, 5
2, 4
4, 4
5, 16
10, 27
12, 15
9, 10
6, 3
5, 1
10, 8
7, 2
9, 7
14, 11
16, 9
9, 13
12, 7
38, 48
71, 56
41, 16
31, 36
478, 584
2290, 2259
1706, 1389
234, 110
18, 17
19, 37
87, 132
330, 370
248, 211
31, 25
8, 7
15, 13
9, 9
3, 9
3, 4
3, 3
5, 7
3, 16
2, 8
6, 4
1, 2
6, 5
6, 8
4, 8
11, 3
16, 6
12, 7
10, 7
6, 6
6, 7
4, 3
4, 4
3, 3
5, 2
4, 3
7, 4
4, 2
6, 2
2, 2
4, 5
2, 2
4, 3
5, 2
1, 0
3, 3
4, 2
3, 3
3, 5
1, 2
4, 4
3, 2
5, 0
2, 2
3, 2
5, 2
2, 1
4, 1
1, 1
2, 2
6, 2
4, 3
3, 1
1, 3
1, 1
1, 2
1, 3
3, 1
1, 0
2, 1
0, 3
0, 1
2, 0
2, 3
1, 2
2, 0
0, 2
0, 1
1, 0
2, 1
0, 1
0, 2
1, 2
1, 0
1, 0
1, 1
2, 0
1, 0
1, 1
0, 1
1, 0
0, 0
2, 0
0, 0
0, 0
2, 0
0, 0
0, 1
0, 0
0, 0
0, 1
0, 1
0, 1
0, 0
1, 0
0, 0
0, 0
0, 1
2, 0
0, 0
0, 0
0, 0
0, 0
0, 0
0, 0
1, 0
1, 0
0, 0
0, 0
0, 0
0, 0
0, 0
0, 0
0, 1
1, 0
0, 0
1, 1
0, 0
0, 0
0, 0
0, 0
0, 0
0, 0
0, 0
0, 1
0, 0
0, 0
0, 0
0, 0
0, 0
0, 0
0, 0
0, 0
0, 0
0, 0
0, 0
0, 0
0, 0
1, 0
0, 0
0, 0
0, 0
0, 0
0, 0
0, 0
0, 0
0, 0
0, 0
0, 0
1, 0
0, 0
0, 0
0, 0
0, 0
0, 0
0, 0
0, 0
0, 0
0, 0
0, 0
0, 0
0, 0
0, 0
0, 0
0, 0
0, 0
0, 0
0, 0
0, 0
0, 0
0, 0
0, 0
0, 0
0, 0
0, 0
0, 0
0, 0
0, 0
0, 0
0, 0
0, 0
0, 0
0, 0
0, 0
0, 0
0, 0
0, 0
0, 0
0, 0
0, 0
0, 0
0, 0
0, 0
0, 0
0, 0
0, 0
0, 0
0, 0
0, 0
0, 0
0, 0
0, 0
0, 0
0, 0
0, 0
0, 0
0, 0
0, 0
0, 0
0, 0
0, 0
0, 0
0, 0
0, 0
0, 0
0, 0
0, 0
0, 0
0, 0
0, 0
0, 0
0, 0
0, 0
0, 0
0, 0
0, 0
0, 0
0, 0
#ENDOFDATA     end of spectrum data