File: host_upload/06-09-2024/ps_0852/dump3/ps__0852shot_2032.msa
#FORMAT      : EMSA/MAS spectral data file
#VERSION     : TC202v2.0 PIXL
#TITLE       : N/A
#DATE        :       Date in the format DD-MMM-YYYY, for example 07-JUL-2010
#TIME        :             The time of day at which the spectrum was recorded, in 24-hour format
#OWNER       : PIXL Flight Model       (PIXL will use this to indicate which instrument took the data.)
#NPOINTS     : 4096     Number of data points in the spectrum (This can be zero for configuration only files)
#NCOLUMNS    : 2     Number of data columns in the spectrum (This can be zero for configuration only files)
#XUNITS      : eV
#YUNITS      : COUNTS
#DATATYPE    : YY
#XPERCHAN    : 7.862, 7.881   eV per channel (separate by commas if more than one detector)
#OFFSET      : 18.5, -22.4         eV of first channel  (separate by commas if more than one detector
#SIGNALTYPE  : XRF
#YP_TEMP     : 2.171
#LIVETIME    : 8.58652, 8.5777   seconds (separate by commas if more than one detector)
#REALTIME    : 10, 10.0   seconds (separate by commas if more than one detector)
#SPECTRUM    : start of spectrum data
0, 0
0, 0
0, 0
0, 0
0, 0
0, 0
0, 0
0, 1
0, 1
1, 1
3, 5
53, 51
59, 64
9, 5
5, 11
102, 81
439, 413
126, 87
4, 5
1, 3
4, 4
6, 8
5, 5
18, 10
41, 36
43, 36
167, 19
206, 13
28, 7
2, 2
1, 1
5, 3
11, 3
11, 9
15, 15
5, 1
0, 2
9, 5
4, 2
6, 2
17, 4
7, 11
7, 16
11, 11
7, 5
8, 3
10, 3
7, 5
9, 11
13, 23
9, 20
15, 4
51, 10
86, 51
102, 55
19, 21
29, 42
479, 598
2203, 2268
1569, 1333
206, 145
21, 17
27, 25
157, 124
368, 341
250, 191
30, 27
10, 21
17, 14
8, 10
8, 1
1, 5
4, 1
2, 6
5, 5
1, 8
4, 6
4, 5
10, 4
8, 3
6, 3
4, 5
3, 6
5, 2
7, 4
2, 4
6, 4
3, 4
3, 2
4, 5
1, 4
3, 2
3, 5
4, 8
4, 2
4, 3
3, 1
2, 4
4, 4
0, 2
2, 1
3, 0
2, 4
1, 3
1, 3
10, 2
3, 1
5, 2
1, 2
3, 1
2, 5
1, 1
3, 0
2, 3
0, 2
2, 1
2, 6
8, 3
5, 1
0, 2
0, 1
3, 4
1, 1
1, 0
2, 1
1, 1
1, 0
0, 2
1, 1
3, 2
3, 1
0, 0
0, 1
0, 1
3, 1
1, 1
1, 1
0, 1
1, 0
1, 1
1, 0
0, 1
2, 0
0, 2
0, 0
0, 1
0, 0
3, 1
0, 0
0, 0
0, 0
0, 1
1, 1
0, 0
1, 1
1, 0
0, 0
0, 0
0, 1
0, 0
0, 0
0, 1
0, 0
0, 0
0, 3
2, 0
0, 0
0, 0
0, 1
0, 0
0, 1
0, 1
0, 1
1, 0
0, 0
0, 1
1, 0
0, 1
0, 0
0, 0
0, 0
0, 0
1, 0
0, 0
1, 0
0, 0
0, 0
0, 0
0, 0
0, 0
0, 0
0, 0
0, 0
0, 0
0, 0
0, 0
0, 0
0, 0
0, 0
0, 0
0, 0
0, 0
0, 1
0, 0
0, 0
0, 0
0, 0
0, 0
0, 0
0, 0
0, 0
0, 0
0, 0
0, 0
0, 0
0, 0
0, 0
0, 0
0, 0
0, 0
0, 0
0, 0
0, 0
0, 0
0, 0
0, 0
0, 0
0, 0
0, 0
0, 0
0, 0
0, 0
0, 0
0, 0
0, 0
0, 0
0, 0
0, 0
0, 0
0, 0
0, 0
0, 0
0, 0
0, 0
0, 0
0, 0
0, 0
0, 0
0, 0
0, 0
0, 0
0, 0
0, 0
0, 0
0, 0
0, 0
0, 0
0, 0
0, 0
0, 0
0, 0
0, 0
0, 0
0, 0
0, 0
0, 0
0, 0
0, 0
0, 0
0, 0
0, 0
0, 0
0, 0
0, 0
0, 0
0, 0
0, 0
0, 0
0, 0
0, 0
0, 0
0, 0
0, 0
0, 0
0, 0
0, 0
0, 0
0, 0
0, 0
0, 0
0, 0
0, 0
0, 0
0, 0
#ENDOFDATA     end of spectrum data