File: host_upload/06-09-2024/ps_0852/dump3/ps__0852shot_2102.msa
#FORMAT      : EMSA/MAS spectral data file
#VERSION     : TC202v2.0 PIXL
#TITLE       : N/A
#DATE        :       Date in the format DD-MMM-YYYY, for example 07-JUL-2010
#TIME        :             The time of day at which the spectrum was recorded, in 24-hour format
#OWNER       : PIXL Flight Model       (PIXL will use this to indicate which instrument took the data.)
#NPOINTS     : 4096     Number of data points in the spectrum (This can be zero for configuration only files)
#NCOLUMNS    : 2     Number of data columns in the spectrum (This can be zero for configuration only files)
#XUNITS      : eV
#YUNITS      : COUNTS
#DATATYPE    : YY
#XPERCHAN    : 7.862, 7.881   eV per channel (separate by commas if more than one detector)
#OFFSET      : 18.5, -22.4         eV of first channel  (separate by commas if more than one detector
#SIGNALTYPE  : XRF
#YP_TEMP     : 2.3
#LIVETIME    : 8.53373, 8.55658   seconds (separate by commas if more than one detector)
#REALTIME    : 10, 10.0   seconds (separate by commas if more than one detector)
#SPECTRUM    : start of spectrum data
0, 0
0, 0
0, 0
0, 0
0, 0
0, 0
0, 0
0, 0
1, 1
1, 1
1, 4
54, 62
64, 42
10, 4
4, 2
96, 106
395, 443
102, 104
3, 5
1, 0
2, 6
35, 24
4, 18
7, 7
24, 35
29, 35
15, 17
19, 16
2, 4
1, 3
1, 0
4, 0
0, 1
8, 8
7, 10
7, 4
3, 2
5, 4
0, 0
3, 0
5, 6
5, 12
13, 7
8, 9
5, 6
2, 5
5, 2
5, 6
4, 7
38, 17
93, 7
42, 6
13, 12
50, 30
101, 55
50, 16
43, 46
480, 599
1973, 2355
1536, 1343
211, 147
18, 15
17, 20
95, 140
324, 357
233, 174
33, 36
6, 9
16, 13
8, 4
6, 4
3, 5
10, 21
7, 10
2, 3
2, 2
4, 4
5, 7
9, 4
5, 4
19, 5
26, 11
17, 10
7, 6
6, 3
5, 1
2, 2
3, 3
5, 5
3, 5
5, 4
1, 2
6, 3
7, 4
8, 1
5, 3
2, 2
3, 3
1, 3
2, 1
6, 5
2, 5
3, 3
3, 1
3, 0
1, 4
0, 1
2, 3
2, 2
1, 1
1, 4
0, 3
2, 6
2, 6
2, 1
4, 4
7, 2
1, 2
0, 0
2, 0
1, 1
0, 1
2, 1
3, 3
0, 1
0, 1
5, 3
0, 1
1, 0
0, 0
0, 0
0, 0
1, 0
0, 0
0, 1
0, 3
0, 0
1, 0
0, 1
0, 2
0, 1
0, 1
0, 1
1, 1
1, 1
0, 0
0, 2
0, 1
0, 2
0, 2
1, 0
1, 0
0, 0
0, 0
1, 0
0, 0
0, 0
1, 0
1, 0
0, 1
0, 0
0, 0
0, 0
0, 0
0, 0
0, 0
0, 0
0, 0
0, 0
0, 2
0, 0
0, 0
0, 1
0, 0
0, 0
0, 0
0, 1
0, 0
0, 0
0, 0
1, 0
0, 0
0, 0
0, 0
0, 1
0, 0
0, 0
0, 0
0, 0
0, 0
0, 0
0, 0
0, 1
0, 0
0, 0
0, 0
0, 0
0, 0
0, 0
0, 0
0, 0
0, 0
0, 0
0, 0
0, 0
0, 0
0, 0
0, 0
0, 0
0, 0
0, 0
0, 0
0, 0
0, 0
0, 0
0, 0
0, 0
0, 0
0, 0
0, 0
0, 0
0, 0
0, 0
0, 0
0, 0
0, 0
0, 0
0, 0
0, 0
0, 0
0, 0
0, 0
0, 0
0, 0
0, 0
0, 0
0, 0
0, 0
0, 0
0, 0
0, 0
0, 0
0, 0
0, 0
0, 0
0, 0
0, 0
0, 0
0, 0
0, 0
0, 0
0, 0
0, 0
0, 0
0, 0
0, 0
0, 0
0, 0
0, 0
0, 0
0, 0
0, 0
0, 0
0, 0
0, 0
0, 0
0, 0
0, 0
0, 0
0, 0
0, 0
0, 0
0, 0
0, 0
0, 0
0, 0
0, 0
0, 0
0, 0
0, 0
0, 0
0, 0
0, 0
0, 0
0, 0
0, 0
0, 0
0, 0
0, 0
0, 0
0, 0
0, 0
0, 0
0, 0
#ENDOFDATA     end of spectrum data