File: host_upload/06-09-2024/ps_0852/dump3/ps__0852shot_2028.msa
#FORMAT      : EMSA/MAS spectral data file
#VERSION     : TC202v2.0 PIXL
#TITLE       : N/A
#DATE        :       Date in the format DD-MMM-YYYY, for example 07-JUL-2010
#TIME        :             The time of day at which the spectrum was recorded, in 24-hour format
#OWNER       : PIXL Flight Model       (PIXL will use this to indicate which instrument took the data.)
#NPOINTS     : 4096     Number of data points in the spectrum (This can be zero for configuration only files)
#NCOLUMNS    : 2     Number of data columns in the spectrum (This can be zero for configuration only files)
#XUNITS      : eV
#YUNITS      : COUNTS
#DATATYPE    : YY
#XPERCHAN    : 7.862, 7.881   eV per channel (separate by commas if more than one detector)
#OFFSET      : 18.5, -22.4         eV of first channel  (separate by commas if more than one detector
#SIGNALTYPE  : XRF
#YP_TEMP     : 2.235
#LIVETIME    : 8.55544, 8.56008   seconds (separate by commas if more than one detector)
#REALTIME    : 10, 10.0   seconds (separate by commas if more than one detector)
#SPECTRUM    : start of spectrum data
0, 0
0, 0
0, 0
0, 0
0, 0
0, 0
0, 0
1, 1
0, 1
2, 1
3, 2
22, 36
41, 49
14, 6
0, 10
120, 131
502, 517
135, 124
10, 6
7, 4
42, 13
110, 78
47, 41
15, 22
47, 64
50, 30
41, 20
19, 17
6, 1
4, 10
4, 5
2, 1
11, 21
251, 289
381, 406
71, 77
56, 44
75, 59
38, 15
38, 8
19, 18
14, 39
10, 17
3, 7
8, 4
9, 10
3, 3
6, 9
7, 20
42, 42
36, 34
9, 23
20, 24
41, 52
59, 60
24, 23
24, 37
288, 408
1349, 1448
1077, 948
160, 89
24, 9
20, 12
61, 88
193, 223
128, 145
23, 25
3, 14
9, 19
9, 11
4, 5
7, 6
7, 8
5, 7
11, 9
4, 11
4, 21
3, 16
6, 4
15, 3
4, 5
4, 8
3, 7
3, 4
5, 4
3, 1
5, 3
1, 12
2, 7
4, 5
6, 6
5, 4
7, 3
5, 5
3, 5
6, 3
1, 4
4, 2
5, 5
3, 3
1, 4
4, 2
3, 2
0, 1
3, 1
4, 3
0, 2
1, 2
5, 1
0, 2
1, 1
2, 2
4, 5
5, 4
3, 3
1, 3
2, 6
3, 1
2, 1
2, 1
4, 0
0, 0
1, 3
1, 3
5, 0
3, 3
0, 1
0, 0
0, 0
1, 0
0, 0
1, 0
3, 1
0, 0
1, 0
0, 0
0, 0
2, 1
0, 0
0, 1
1, 1
0, 1
0, 0
0, 1
1, 2
1, 1
0, 1
0, 2
0, 0
1, 0
1, 0
0, 0
0, 2
1, 2
0, 0
0, 0
0, 1
0, 1
0, 0
0, 0
0, 0
0, 2
0, 0
0, 0
0, 0
0, 0
0, 0
0, 0
0, 0
0, 0
0, 1
0, 0
0, 0
2, 0
0, 1
0, 0
0, 0
1, 0
0, 1
0, 0
0, 0
0, 0
1, 0
2, 0
0, 0
0, 0
0, 0
0, 0
0, 0
0, 0
0, 0
0, 0
0, 0
0, 0
0, 0
0, 0
1, 0
0, 0
0, 0
0, 0
0, 0
0, 0
0, 0
0, 0
0, 0
0, 0
0, 0
0, 0
0, 0
0, 0
0, 0
0, 0
0, 0
0, 0
0, 0
0, 0
0, 0
0, 0
0, 0
0, 1
0, 0
0, 0
0, 0
0, 0
0, 0
0, 0
0, 0
0, 0
0, 0
0, 0
0, 0
0, 0
0, 0
0, 0
0, 0
0, 0
0, 0
0, 0
0, 0
0, 0
0, 0
0, 0
0, 0
0, 0
0, 0
0, 0
0, 0
0, 0
0, 0
0, 0
0, 0
0, 0
0, 0
0, 0
0, 0
0, 0
0, 0
0, 0
0, 0
0, 0
0, 0
0, 0
0, 0
0, 0
0, 0
0, 0
0, 0
0, 0
0, 0
0, 0
0, 0
0, 0
0, 0
0, 0
0, 0
0, 0
0, 0
0, 0
0, 0
0, 0
0, 0
0, 0
0, 0
0, 0
0, 0
0, 0
0, 0
0, 0
0, 0
0, 0
0, 0
0, 0
0, 0
0, 0
#ENDOFDATA     end of spectrum data