File: host_upload/06-09-2024/ps_0852/dump3/ps__0852shot_2484.msa
#FORMAT      : EMSA/MAS spectral data file
#VERSION     : TC202v2.0 PIXL
#TITLE       : N/A
#DATE        :       Date in the format DD-MMM-YYYY, for example 07-JUL-2010
#TIME        :             The time of day at which the spectrum was recorded, in 24-hour format
#OWNER       : PIXL Flight Model       (PIXL will use this to indicate which instrument took the data.)
#NPOINTS     : 4096     Number of data points in the spectrum (This can be zero for configuration only files)
#NCOLUMNS    : 2     Number of data columns in the spectrum (This can be zero for configuration only files)
#XUNITS      : eV
#YUNITS      : COUNTS
#DATATYPE    : YY
#XPERCHAN    : 7.862, 7.881   eV per channel (separate by commas if more than one detector)
#OFFSET      : 18.5, -22.4         eV of first channel  (separate by commas if more than one detector
#SIGNALTYPE  : XRF
#YP_TEMP     : 2.332
#LIVETIME    : 8.56292, 8.36737   seconds (separate by commas if more than one detector)
#REALTIME    : 10, 10.0   seconds (separate by commas if more than one detector)
#SPECTRUM    : start of spectrum data
0, 0
0, 0
0, 0
0, 0
0, 0
0, 0
0, 0
0, 0
0, 0
1, 0
1, 4
34, 32
54, 68
3, 5
4, 9
94, 80
377, 486
100, 104
7, 6
0, 2
3, 5
6, 3
3, 1
10, 13
48, 50
35, 37
24, 28
7, 21
8, 7
1, 1
1, 1
1, 1
4, 3
36, 34
48, 51
38, 10
71, 9
37, 9
1, 5
4, 6
6, 6
17, 18
18, 24
8, 15
5, 7
8, 6
4, 8
4, 17
18, 23
81, 101
59, 45
13, 11
14, 9
48, 49
61, 78
27, 25
35, 48
422, 594
2021, 2404
1449, 1375
154, 150
10, 10
23, 18
103, 119
323, 396
197, 195
29, 26
9, 5
14, 20
8, 20
17, 8
52, 3
58, 4
14, 9
11, 12
6, 11
5, 2
3, 3
3, 5
1, 6
6, 4
5, 3
5, 3
3, 7
3, 8
3, 2
11, 3
8, 4
1, 4
1, 2
2, 7
1, 3
3, 2
2, 3
1, 2
4, 5
4, 6
1, 4
1, 4
2, 6
2, 3
1, 5
4, 5
1, 5
1, 2
2, 6
3, 6
1, 3
2, 3
1, 2
3, 2
0, 2
1, 1
1, 1
0, 2
2, 2
6, 2
8, 3
3, 1
1, 1
0, 4
3, 0
0, 4
2, 4
1, 3
1, 0
1, 2
0, 0
2, 2
0, 0
1, 0
1, 2
1, 1
3, 0
2, 1
2, 1
2, 2
1, 0
0, 1
0, 0
0, 2
0, 0
1, 1
2, 0
1, 0
0, 0
0, 2
0, 0
0, 0
2, 1
0, 0
1, 0
0, 0
2, 0
0, 0
0, 0
0, 0
0, 0
0, 0
0, 0
0, 1
1, 0
0, 0
0, 0
1, 0
0, 1
1, 0
0, 0
0, 0
0, 0
0, 1
0, 0
1, 0
0, 0
0, 1
0, 0
0, 0
0, 0
0, 0
0, 0
0, 1
0, 0
0, 0
0, 0
0, 0
1, 0
0, 0
0, 0
0, 0
0, 0
0, 0
0, 0
0, 0
0, 0
0, 1
0, 0
0, 0
0, 0
0, 0
0, 0
0, 0
0, 0
0, 0
0, 0
0, 1
0, 0
0, 0
0, 0
0, 0
0, 0
0, 0
0, 0
0, 0
0, 0
0, 0
0, 0
0, 0
0, 0
0, 0
0, 0
0, 0
0, 0
0, 0
0, 0
0, 0
0, 0
0, 0
0, 0
0, 0
0, 0
0, 0
0, 0
0, 0
0, 0
0, 0
0, 0
0, 0
0, 0
0, 0
0, 0
0, 0
0, 0
0, 0
0, 0
0, 0
0, 0
0, 0
0, 0
0, 0
0, 0
0, 0
0, 0
0, 0
0, 0
0, 0
0, 0
0, 0
0, 0
0, 0
0, 0
0, 0
0, 0
0, 0
0, 0
0, 0
0, 0
0, 0
0, 0
0, 0
0, 0
0, 0
0, 0
0, 0
0, 0
0, 0
0, 0
0, 0
0, 0
0, 0
0, 0
0, 0
0, 0
0, 0
0, 0
0, 0
0, 0
0, 0
0, 0
0, 0
0, 0
0, 0
0, 0
0, 0
0, 0
#ENDOFDATA     end of spectrum data