File: host_upload/06-09-2024/ps_0852/dump3/ps__0852shot_2316.msa
#FORMAT      : EMSA/MAS spectral data file
#VERSION     : TC202v2.0 PIXL
#TITLE       : N/A
#DATE        :       Date in the format DD-MMM-YYYY, for example 07-JUL-2010
#TIME        :             The time of day at which the spectrum was recorded, in 24-hour format
#OWNER       : PIXL Flight Model       (PIXL will use this to indicate which instrument took the data.)
#NPOINTS     : 4096     Number of data points in the spectrum (This can be zero for configuration only files)
#NCOLUMNS    : 2     Number of data columns in the spectrum (This can be zero for configuration only files)
#XUNITS      : eV
#YUNITS      : COUNTS
#DATATYPE    : YY
#XPERCHAN    : 7.862, 7.881   eV per channel (separate by commas if more than one detector)
#OFFSET      : 18.5, -22.4         eV of first channel  (separate by commas if more than one detector
#SIGNALTYPE  : XRF
#YP_TEMP     : 2.203
#LIVETIME    : 8.57638, 8.56464   seconds (separate by commas if more than one detector)
#REALTIME    : 10, 10.0   seconds (separate by commas if more than one detector)
#SPECTRUM    : start of spectrum data
0, 0
0, 0
0, 0
0, 0
0, 0
0, 0
0, 0
0, 0
1, 1
1, 1
2, 2
44, 49
60, 46
5, 3
5, 8
101, 115
403, 445
102, 80
6, 10
2, 1
4, 2
16, 28
12, 10
12, 10
101, 45
107, 38
53, 22
53, 10
6, 3
2, 3
1, 5
3, 4
2, 2
16, 15
24, 30
9, 1
8, 6
8, 5
4, 5
5, 4
3, 5
12, 7
31, 13
18, 9
9, 9
4, 5
8, 3
4, 4
16, 7
24, 15
11, 6
3, 7
13, 13
47, 40
70, 65
30, 23
37, 47
456, 607
2186, 2466
1626, 1472
220, 154
11, 19
17, 23
108, 135
362, 387
222, 195
33, 17
15, 9
15, 12
8, 13
3, 6
3, 1
2, 5
8, 2
3, 7
7, 0
3, 4
7, 7
7, 7
5, 13
4, 3
0, 3
5, 4
7, 2
0, 1
3, 5
1, 3
4, 6
2, 1
2, 3
14, 0
28, 3
32, 1
5, 3
1, 4
2, 6
3, 4
5, 2
1, 3
1, 2
3, 2
2, 2
1, 0
4, 2
4, 1
5, 0
7, 3
3, 1
2, 2
2, 3
0, 1
2, 1
1, 4
0, 3
4, 2
3, 5
2, 2
2, 5
0, 0
2, 1
1, 2
2, 2
1, 2
2, 0
0, 1
1, 1
0, 0
1, 2
0, 2
0, 1
1, 1
1, 0
0, 1
0, 1
1, 1
1, 0
2, 0
0, 2
1, 1
0, 0
1, 1
2, 0
1, 1
0, 0
0, 2
1, 0
3, 1
0, 0
0, 0
1, 0
0, 2
1, 0
0, 0
1, 0
0, 0
0, 1
0, 0
0, 0
0, 0
0, 0
0, 0
0, 0
0, 0
1, 0
0, 0
0, 0
0, 0
0, 0
0, 0
0, 0
0, 1
0, 1
0, 0
0, 0
0, 0
0, 0
0, 0
0, 0
0, 0
0, 0
0, 0
0, 1
0, 0
0, 0
0, 0
0, 0
0, 0
0, 0
0, 0
1, 1
0, 0
0, 0
0, 0
0, 0
0, 0
0, 0
0, 0
0, 0
0, 1
0, 0
0, 0
0, 0
0, 0
0, 0
0, 0
0, 0
0, 0
0, 0
0, 0
0, 0
0, 0
0, 0
0, 0
0, 0
0, 0
0, 0
0, 0
0, 0
0, 0
0, 0
0, 0
0, 0
0, 0
0, 0
0, 0
0, 0
0, 0
0, 0
0, 0
0, 0
0, 0
0, 0
0, 0
0, 0
0, 0
0, 0
0, 0
0, 0
0, 0
0, 0
0, 0
0, 0
0, 0
0, 0
0, 0
0, 0
0, 0
0, 0
0, 0
0, 0
0, 0
0, 0
0, 0
0, 0
0, 0
0, 0
0, 0
0, 0
0, 0
0, 0
0, 0
0, 0
0, 0
0, 0
0, 0
0, 0
0, 0
0, 0
0, 0
0, 0
0, 0
0, 0
0, 0
0, 0
0, 0
0, 0
0, 0
0, 0
0, 0
0, 0
0, 0
0, 0
0, 0
0, 0
0, 0
0, 0
0, 0
0, 0
0, 0
0, 0
0, 0
0, 0
0, 0
0, 0
#ENDOFDATA     end of spectrum data