File: host_upload/06-09-2024/ps_0852/dump3/ps__0852shot_2476.msa
#FORMAT      : EMSA/MAS spectral data file
#VERSION     : TC202v2.0 PIXL
#TITLE       : N/A
#DATE        :       Date in the format DD-MMM-YYYY, for example 07-JUL-2010
#TIME        :             The time of day at which the spectrum was recorded, in 24-hour format
#OWNER       : PIXL Flight Model       (PIXL will use this to indicate which instrument took the data.)
#NPOINTS     : 4096     Number of data points in the spectrum (This can be zero for configuration only files)
#NCOLUMNS    : 2     Number of data columns in the spectrum (This can be zero for configuration only files)
#XUNITS      : eV
#YUNITS      : COUNTS
#DATATYPE    : YY
#XPERCHAN    : 7.862, 7.881   eV per channel (separate by commas if more than one detector)
#OFFSET      : 18.5, -22.4         eV of first channel  (separate by commas if more than one detector
#SIGNALTYPE  : XRF
#YP_TEMP     : 2.46
#LIVETIME    : 8.55906, 8.55545   seconds (separate by commas if more than one detector)
#REALTIME    : 10, 10.0   seconds (separate by commas if more than one detector)
#SPECTRUM    : start of spectrum data
0, 0
0, 0
0, 0
0, 0
0, 0
0, 0
0, 0
0, 0
1, 1
0, 1
2, 3
39, 38
55, 41
5, 9
4, 7
114, 85
420, 412
100, 90
3, 4
1, 2
10, 9
25, 29
12, 10
9, 6
39, 35
70, 33
66, 33
17, 22
2, 3
1, 3
1, 2
8, 2
1, 2
13, 15
16, 9
4, 6
7, 3
3, 4
9, 5
3, 4
5, 8
4, 6
10, 18
7, 7
2, 4
7, 4
5, 5
2, 7
4, 6
16, 19
45, 13
63, 8
22, 16
44, 53
59, 77
25, 59
39, 55
477, 595
2304, 2282
1671, 1377
203, 151
18, 23
25, 31
94, 131
352, 386
230, 208
26, 40
5, 14
9, 17
11, 7
6, 1
3, 7
5, 5
5, 5
2, 9
7, 9
16, 23
15, 13
8, 7
5, 3
6, 3
6, 4
1, 2
3, 1
4, 0
1, 4
3, 5
5, 4
5, 3
3, 4
4, 2
0, 3
3, 6
6, 1
3, 3
3, 1
3, 1
3, 5
1, 2
3, 1
1, 1
3, 4
5, 3
2, 0
3, 3
1, 1
2, 1
0, 3
3, 3
1, 3
3, 2
1, 4
0, 5
1, 3
1, 2
1, 2
1, 1
2, 2
3, 1
0, 2
2, 2
2, 1
1, 3
2, 0
1, 1
0, 1
3, 0
1, 2
3, 1
1, 0
1, 0
1, 0
1, 0
0, 3
1, 1
0, 1
1, 0
1, 0
2, 1
0, 1
1, 1
1, 0
0, 1
1, 0
0, 0
0, 1
1, 1
2, 1
0, 0
0, 1
1, 1
0, 0
0, 1
0, 1
0, 0
0, 1
0, 0
0, 0
0, 2
0, 0
0, 0
1, 0
0, 2
1, 0
1, 1
0, 0
2, 0
0, 0
0, 0
0, 0
0, 0
0, 0
0, 0
0, 1
1, 0
0, 0
0, 0
0, 0
0, 0
0, 2
0, 0
0, 0
0, 0
0, 0
0, 1
0, 1
0, 0
0, 0
0, 0
0, 0
0, 0
0, 0
0, 1
0, 1
0, 0
0, 0
0, 0
0, 0
0, 1
0, 0
0, 0
0, 0
0, 0
0, 0
0, 0
0, 0
0, 0
0, 0
0, 0
1, 0
0, 0
0, 0
0, 0
0, 0
0, 0
0, 0
0, 0
0, 0
0, 0
0, 0
0, 0
0, 0
0, 0
0, 0
0, 0
0, 0
0, 0
0, 0
0, 0
0, 0
0, 0
0, 0
0, 0
0, 0
0, 0
0, 0
0, 0
0, 0
0, 0
0, 0
0, 0
0, 0
0, 0
0, 0
0, 0
0, 0
0, 0
0, 0
0, 0
0, 0
0, 0
0, 0
0, 0
0, 0
0, 0
0, 0
0, 0
0, 0
0, 0
0, 0
0, 0
0, 0
0, 0
0, 0
0, 0
0, 0
0, 0
0, 0
0, 0
0, 0
0, 0
0, 0
0, 0
0, 0
0, 0
0, 0
0, 0
0, 0
0, 0
0, 0
0, 0
0, 0
0, 0
0, 0
0, 0
0, 0
0, 0
0, 0
0, 0
0, 0
0, 0
0, 0
0, 0
0, 0
#ENDOFDATA     end of spectrum data