File: host_upload/06-09-2024/ps_0852/dump3/ps__0852shot_2398.msa
#FORMAT      : EMSA/MAS spectral data file
#VERSION     : TC202v2.0 PIXL
#TITLE       : N/A
#DATE        :       Date in the format DD-MMM-YYYY, for example 07-JUL-2010
#TIME        :             The time of day at which the spectrum was recorded, in 24-hour format
#OWNER       : PIXL Flight Model       (PIXL will use this to indicate which instrument took the data.)
#NPOINTS     : 4096     Number of data points in the spectrum (This can be zero for configuration only files)
#NCOLUMNS    : 2     Number of data columns in the spectrum (This can be zero for configuration only files)
#XUNITS      : eV
#YUNITS      : COUNTS
#DATATYPE    : YY
#XPERCHAN    : 7.862, 7.881   eV per channel (separate by commas if more than one detector)
#OFFSET      : 18.5, -22.4         eV of first channel  (separate by commas if more than one detector
#SIGNALTYPE  : XRF
#YP_TEMP     : 2.364
#LIVETIME    : 8.55976, 8.56682   seconds (separate by commas if more than one detector)
#REALTIME    : 10, 10.0   seconds (separate by commas if more than one detector)
#SPECTRUM    : start of spectrum data
0, 0
0, 0
0, 0
0, 0
0, 0
0, 0
0, 0
0, 0
1, 8
1, 24
2, 3
43, 49
66, 53
3, 5
4, 5
104, 97
433, 415
108, 91
6, 4
1, 0
2, 4
3, 4
5, 9
5, 68
45, 919
28, 1284
16, 133
10, 15
7, 7
9, 2
5, 4
4, 2
1, 5
9, 5
13, 12
6, 5
11, 5
4, 8
5, 25
6, 29
2, 8
10, 6
12, 14
29, 13
62, 6
34, 10
7, 6
5, 13
8, 40
16, 65
9, 14
19, 8
24, 12
33, 37
59, 59
19, 11
32, 30
552, 524
2310, 2225
1666, 1331
219, 141
25, 20
21, 41
90, 127
387, 341
228, 197
37, 22
4, 9
9, 13
9, 9
6, 3
4, 6
7, 21
13, 28
14, 16
3, 6
7, 3
2, 3
7, 3
5, 4
2, 2
12, 1
4, 5
7, 7
1, 5
1, 8
5, 4
5, 4
3, 2
8, 1
2, 2
5, 5
1, 3
6, 0
6, 2
12, 2
7, 1
3, 3
2, 5
1, 2
1, 3
5, 0
3, 1
7, 3
1, 2
4, 0
2, 5
1, 1
3, 2
2, 2
1, 1
1, 1
0, 2
3, 1
2, 2
2, 6
2, 2
4, 1
4, 3
1, 2
0, 0
1, 5
1, 0
3, 2
4, 1
0, 2
1, 0
1, 0
0, 0
1, 2
1, 0
3, 0
2, 1
1, 1
0, 1
2, 3
1, 2
0, 1
1, 0
2, 1
0, 0
1, 0
1, 1
0, 1
1, 1
1, 1
0, 0
3, 2
2, 0
1, 0
0, 0
0, 0
2, 0
0, 0
1, 2
1, 0
0, 0
0, 0
2, 1
0, 0
0, 0
0, 1
0, 1
1, 0
0, 0
0, 2
0, 1
1, 1
0, 0
0, 0
0, 1
1, 0
0, 0
0, 0
0, 0
0, 0
0, 0
0, 1
0, 0
0, 0
0, 0
0, 0
1, 1
0, 0
0, 0
0, 0
0, 0
0, 0
0, 0
0, 0
0, 2
0, 0
0, 1
0, 0
0, 0
0, 0
0, 0
1, 0
0, 0
0, 0
0, 0
0, 0
0, 0
0, 0
0, 0
0, 0
0, 0
0, 0
0, 0
0, 0
0, 0
0, 0
0, 0
0, 0
0, 0
0, 0
0, 0
0, 0
0, 0
0, 0
0, 0
0, 0
0, 0
0, 0
0, 0
0, 0
0, 0
0, 0
0, 0
0, 0
0, 0
0, 0
0, 0
0, 0
0, 0
0, 0
0, 0
0, 0
0, 0
0, 0
0, 0
0, 0
0, 0
0, 0
0, 0
0, 0
0, 0
0, 0
0, 0
0, 0
0, 0
0, 0
0, 0
0, 0
0, 0
0, 0
0, 0
0, 0
0, 0
0, 0
0, 0
0, 0
0, 0
0, 0
0, 0
0, 0
0, 0
0, 0
0, 0
0, 0
0, 0
0, 0
0, 0
0, 0
0, 0
0, 0
0, 0
0, 0
0, 0
0, 0
0, 0
0, 0
0, 0
0, 0
0, 0
0, 0
0, 0
0, 0
0, 0
0, 0
0, 0
0, 0
0, 0
0, 0
#ENDOFDATA     end of spectrum data