File: host_upload/06-09-2024/ps_0852/dump3/ps__0852shot_2424.msa
#FORMAT      : EMSA/MAS spectral data file
#VERSION     : TC202v2.0 PIXL
#TITLE       : N/A
#DATE        :       Date in the format DD-MMM-YYYY, for example 07-JUL-2010
#TIME        :             The time of day at which the spectrum was recorded, in 24-hour format
#OWNER       : PIXL Flight Model       (PIXL will use this to indicate which instrument took the data.)
#NPOINTS     : 4096     Number of data points in the spectrum (This can be zero for configuration only files)
#NCOLUMNS    : 2     Number of data columns in the spectrum (This can be zero for configuration only files)
#XUNITS      : eV
#YUNITS      : COUNTS
#DATATYPE    : YY
#XPERCHAN    : 7.862, 7.881   eV per channel (separate by commas if more than one detector)
#OFFSET      : 18.5, -22.4         eV of first channel  (separate by commas if more than one detector
#SIGNALTYPE  : XRF
#YP_TEMP     : 2.139
#LIVETIME    : 8.56051, 8.56594   seconds (separate by commas if more than one detector)
#REALTIME    : 10, 10.0   seconds (separate by commas if more than one detector)
#SPECTRUM    : start of spectrum data
0, 0
0, 0
0, 0
0, 0
0, 0
0, 0
0, 0
0, 0
4, 0
3, 0
2, 3
51, 51
72, 52
9, 3
5, 3
86, 107
465, 430
106, 99
9, 7
1, 0
2, 2
2, 3
5, 5
16, 6
193, 18
262, 28
43, 22
12, 28
8, 5
1, 1
1, 1
1, 0
8, 3
6, 7
34, 10
80, 3
30, 6
3, 8
2, 2
5, 3
5, 7
6, 25
9, 20
7, 6
4, 7
7, 3
4, 4
10, 4
27, 4
27, 14
16, 12
7, 48
8, 100
36, 80
57, 58
29, 21
32, 38
477, 569
2245, 2244
1572, 1364
198, 123
23, 12
28, 25
95, 104
343, 357
210, 213
23, 30
8, 28
16, 26
15, 5
14, 3
10, 6
9, 5
10, 2
4, 5
11, 5
4, 3
1, 12
7, 14
4, 12
4, 3
1, 7
8, 2
6, 9
8, 2
12, 4
4, 4
4, 5
2, 1
4, 0
2, 5
1, 6
1, 12
3, 7
6, 7
4, 8
7, 3
4, 1
2, 2
4, 1
0, 1
4, 1
4, 2
2, 2
6, 4
1, 4
3, 2
6, 3
8, 3
2, 2
6, 0
2, 2
4, 0
2, 2
1, 1
3, 0
1, 3
0, 3
2, 0
3, 2
0, 0
6, 0
0, 2
2, 3
1, 1
1, 1
3, 1
1, 0
2, 0
0, 2
1, 0
2, 1
2, 1
2, 0
1, 0
2, 0
2, 0
1, 0
0, 1
1, 1
1, 0
1, 1
0, 1
0, 1
1, 1
0, 3
2, 0
2, 0
0, 0
0, 1
0, 2
0, 0
0, 0
1, 0
0, 0
1, 1
0, 0
0, 0
0, 0
0, 0
0, 0
0, 0
0, 0
1, 0
1, 0
0, 0
0, 0
0, 0
0, 0
0, 1
0, 0
0, 0
0, 0
0, 1
3, 0
0, 0
1, 0
0, 0
0, 0
0, 0
0, 0
0, 0
0, 0
0, 0
0, 0
0, 0
0, 0
0, 0
0, 0
0, 0
0, 0
0, 1
1, 0
1, 0
0, 0
0, 0
0, 0
0, 0
0, 0
0, 0
0, 0
0, 0
1, 0
0, 0
0, 0
0, 0
0, 0
0, 1
0, 0
0, 0
0, 0
0, 0
0, 0
0, 0
0, 0
0, 0
1, 0
0, 0
0, 0
0, 0
0, 0
0, 0
0, 0
0, 0
0, 0
0, 0
0, 0
0, 0
0, 0
0, 0
0, 0
0, 0
0, 0
0, 0
0, 0
0, 0
0, 0
0, 0
0, 0
0, 0
0, 0
0, 0
0, 0
0, 0
0, 0
0, 0
0, 0
0, 0
0, 0
0, 0
0, 0
0, 0
0, 0
0, 0
0, 0
0, 0
0, 0
0, 0
0, 0
0, 0
0, 0
0, 0
0, 0
0, 0
0, 0
0, 0
0, 0
0, 0
0, 0
0, 0
0, 0
0, 0
0, 0
0, 0
0, 0
0, 0
0, 0
0, 0
0, 0
0, 0
0, 0
0, 0
0, 0
0, 0
0, 0
0, 0
0, 0
0, 0
0, 0
0, 0
0, 0
0, 0
0, 0
0, 0
#ENDOFDATA     end of spectrum data