File: host_upload/06-09-2024/ps_0852/dump3/ps__0852shot_2533.msa
#FORMAT      : EMSA/MAS spectral data file
#VERSION     : TC202v2.0 PIXL
#TITLE       : N/A
#DATE        :       Date in the format DD-MMM-YYYY, for example 07-JUL-2010
#TIME        :             The time of day at which the spectrum was recorded, in 24-hour format
#OWNER       : PIXL Flight Model       (PIXL will use this to indicate which instrument took the data.)
#NPOINTS     : 4096     Number of data points in the spectrum (This can be zero for configuration only files)
#NCOLUMNS    : 2     Number of data columns in the spectrum (This can be zero for configuration only files)
#XUNITS      : eV
#YUNITS      : COUNTS
#DATATYPE    : YY
#XPERCHAN    : 7.862, 7.881   eV per channel (separate by commas if more than one detector)
#OFFSET      : 18.5, -22.4         eV of first channel  (separate by commas if more than one detector
#SIGNALTYPE  : XRF
#YP_TEMP     : 2.203
#LIVETIME    : 8.55839, 8.55984   seconds (separate by commas if more than one detector)
#REALTIME    : 10, 10.0   seconds (separate by commas if more than one detector)
#SPECTRUM    : start of spectrum data
0, 0
0, 0
0, 0
0, 0
0, 0
0, 0
0, 0
0, 1
0, 3
1, 1
1, 3
33, 47
79, 50
7, 3
1, 6
86, 107
478, 446
85, 85
6, 3
0, 0
3, 6
14, 22
8, 8
10, 10
30, 43
53, 29
21, 20
13, 11
2, 1
3, 5
2, 1
0, 4
2, 1
7, 4
12, 9
7, 3
2, 9
7, 12
12, 6
2, 4
6, 5
4, 9
17, 19
8, 11
11, 9
9, 4
3, 2
10, 5
5, 8
18, 11
12, 11
8, 9
11, 10
42, 54
60, 52
21, 38
38, 80
477, 607
2271, 2220
1649, 1393
182, 110
19, 16
21, 19
115, 126
354, 324
214, 181
40, 29
16, 5
12, 13
8, 9
3, 4
5, 2
11, 2
4, 4
6, 3
19, 4
5, 5
3, 5
5, 5
4, 5
5, 3
5, 2
2, 1
3, 2
6, 4
3, 2
3, 3
6, 4
13, 5
3, 4
1, 6
2, 2
4, 3
0, 4
1, 5
4, 1
2, 2
5, 0
2, 2
1, 2
5, 2
7, 3
3, 5
4, 3
0, 2
3, 5
2, 2
3, 1
2, 1
3, 0
4, 1
2, 0
4, 2
3, 1
2, 0
4, 6
5, 4
1, 3
7, 4
2, 1
1, 1
1, 4
1, 1
1, 4
0, 2
1, 0
0, 1
5, 0
0, 2
0, 1
1, 1
1, 0
1, 1
2, 1
0, 0
1, 0
1, 0
1, 1
0, 1
3, 0
1, 1
0, 0
0, 0
1, 0
0, 1
0, 1
1, 1
0, 0
0, 0
0, 0
0, 0
0, 0
0, 0
0, 0
0, 0
0, 0
1, 0
0, 0
0, 1
1, 0
0, 1
0, 0
2, 0
0, 1
0, 0
0, 1
0, 0
1, 0
0, 0
0, 1
0, 1
0, 0
0, 0
0, 1
0, 0
0, 0
1, 0
0, 1
0, 1
0, 0
0, 0
0, 0
0, 0
0, 0
0, 0
1, 0
1, 0
0, 0
0, 0
0, 0
0, 0
0, 0
0, 0
0, 0
0, 0
0, 0
0, 0
0, 0
0, 0
0, 0
0, 0
0, 0
0, 0
0, 0
0, 0
0, 0
0, 0
0, 0
0, 0
0, 0
0, 0
0, 0
0, 1
0, 0
0, 0
0, 0
0, 0
0, 0
0, 0
0, 0
0, 0
0, 0
0, 0
0, 0
0, 0
0, 0
0, 0
0, 0
0, 0
0, 0
0, 0
0, 0
0, 0
0, 0
0, 0
0, 0
0, 0
0, 0
0, 0
0, 0
0, 0
0, 0
0, 0
0, 0
0, 0
0, 0
0, 0
0, 0
0, 0
0, 0
0, 0
0, 0
0, 0
0, 0
0, 0
0, 0
0, 0
0, 0
0, 0
0, 0
0, 0
0, 0
0, 0
0, 0
0, 0
0, 0
0, 0
0, 0
0, 0
0, 0
0, 0
0, 0
0, 0
0, 0
0, 0
0, 0
0, 0
0, 0
0, 0
0, 0
0, 0
0, 0
0, 0
0, 0
0, 0
0, 0
0, 0
0, 0
0, 0
0, 0
0, 0
0, 0
0, 0
0, 0
#ENDOFDATA     end of spectrum data