File: host_upload/06-09-2024/ps_0852/dump3/ps__0852shot_2383.msa
#FORMAT      : EMSA/MAS spectral data file
#VERSION     : TC202v2.0 PIXL
#TITLE       : N/A
#DATE        :       Date in the format DD-MMM-YYYY, for example 07-JUL-2010
#TIME        :             The time of day at which the spectrum was recorded, in 24-hour format
#OWNER       : PIXL Flight Model       (PIXL will use this to indicate which instrument took the data.)
#NPOINTS     : 4096     Number of data points in the spectrum (This can be zero for configuration only files)
#NCOLUMNS    : 2     Number of data columns in the spectrum (This can be zero for configuration only files)
#XUNITS      : eV
#YUNITS      : COUNTS
#DATATYPE    : YY
#XPERCHAN    : 7.862, 7.881   eV per channel (separate by commas if more than one detector)
#OFFSET      : 18.5, -22.4         eV of first channel  (separate by commas if more than one detector
#SIGNALTYPE  : XRF
#YP_TEMP     : 2.332
#LIVETIME    : 8.55261, 8.58354   seconds (separate by commas if more than one detector)
#REALTIME    : 10, 10.0   seconds (separate by commas if more than one detector)
#SPECTRUM    : start of spectrum data
0, 0
0, 0
0, 0
0, 0
0, 0
0, 0
0, 0
0, 0
0, 1
1, 1
3, 3
42, 49
58, 57
5, 9
4, 6
98, 115
443, 426
110, 79
11, 7
6, 3
3, 0
4, 9
6, 15
11, 18
47, 34
57, 31
25, 26
18, 28
4, 6
0, 4
0, 1
2, 1
6, 3
18, 27
27, 20
14, 4
8, 3
4, 1
4, 6
5, 5
4, 9
11, 11
12, 19
14, 31
6, 5
5, 15
7, 13
9, 5
4, 8
13, 18
23, 15
14, 7
14, 18
39, 55
75, 48
38, 18
42, 39
506, 559
2330, 2409
1731, 1388
216, 137
22, 18
33, 25
110, 140
341, 371
249, 203
39, 31
13, 7
16, 11
12, 11
1, 8
4, 4
4, 5
8, 11
8, 11
8, 5
9, 8
2, 4
3, 5
4, 5
1, 3
5, 6
11, 4
6, 8
7, 4
4, 5
4, 5
10, 5
9, 4
3, 5
6, 1
5, 4
5, 5
2, 1
1, 3
4, 4
5, 1
1, 4
7, 2
3, 1
7, 1
0, 2
3, 1
2, 0
0, 1
4, 3
0, 6
4, 2
3, 1
2, 3
2, 1
1, 6
1, 3
1, 3
3, 1
3, 2
2, 4
5, 6
4, 2
2, 3
0, 0
3, 3
2, 4
5, 2
2, 1
2, 2
1, 2
3, 2
1, 0
1, 2
1, 0
1, 0
3, 0
0, 2
3, 1
4, 1
1, 2
0, 0
1, 0
0, 0
0, 5
0, 1
1, 0
2, 0
0, 1
2, 1
1, 0
0, 1
0, 1
0, 0
0, 1
0, 1
0, 0
0, 1
0, 0
0, 0
2, 0
0, 0
0, 0
1, 0
0, 0
0, 0
0, 0
1, 0
2, 0
0, 0
0, 0
0, 1
0, 0
1, 0
1, 0
0, 0
0, 0
1, 0
0, 0
0, 0
0, 0
0, 0
0, 0
0, 0
0, 0
0, 0
0, 0
0, 0
0, 1
0, 0
0, 0
0, 0
0, 0
0, 0
0, 0
0, 0
0, 0
0, 0
0, 0
0, 0
0, 0
0, 0
0, 0
0, 0
0, 0
0, 0
0, 0
0, 0
0, 0
0, 0
0, 0
0, 0
0, 0
0, 0
0, 0
0, 0
0, 0
0, 0
0, 0
0, 0
0, 0
0, 0
0, 0
0, 0
0, 0
0, 0
0, 0
0, 0
0, 0
0, 0
0, 0
0, 0
0, 0
0, 0
0, 0
0, 0
0, 0
0, 0
0, 0
0, 0
0, 0
0, 0
0, 0
0, 0
0, 0
0, 0
0, 0
0, 0
0, 0
0, 0
0, 0
0, 0
0, 0
0, 0
0, 0
0, 0
0, 0
0, 0
0, 0
0, 0
0, 0
0, 0
0, 0
0, 0
0, 0
0, 0
0, 0
0, 0
0, 0
0, 0
0, 0
0, 0
0, 0
0, 0
0, 0
0, 0
0, 0
0, 0
0, 0
0, 0
0, 0
0, 0
0, 0
0, 0
0, 0
0, 0
0, 0
0, 0
0, 0
0, 0
0, 0
0, 0
0, 0
0, 0
0, 0
0, 0
0, 0
0, 0
#ENDOFDATA     end of spectrum data