File: host_upload/06-09-2024/ps_0852/dump3/ps__0852shot_2175.msa
#FORMAT      : EMSA/MAS spectral data file
#VERSION     : TC202v2.0 PIXL
#TITLE       : N/A
#DATE        :       Date in the format DD-MMM-YYYY, for example 07-JUL-2010
#TIME        :             The time of day at which the spectrum was recorded, in 24-hour format
#OWNER       : PIXL Flight Model       (PIXL will use this to indicate which instrument took the data.)
#NPOINTS     : 4096     Number of data points in the spectrum (This can be zero for configuration only files)
#NCOLUMNS    : 2     Number of data columns in the spectrum (This can be zero for configuration only files)
#XUNITS      : eV
#YUNITS      : COUNTS
#DATATYPE    : YY
#XPERCHAN    : 7.862, 7.881   eV per channel (separate by commas if more than one detector)
#OFFSET      : 18.5, -22.4         eV of first channel  (separate by commas if more than one detector
#SIGNALTYPE  : XRF
#YP_TEMP     : 2.235
#LIVETIME    : 8.54674, 8.56011   seconds (separate by commas if more than one detector)
#REALTIME    : 10, 10.0   seconds (separate by commas if more than one detector)
#SPECTRUM    : start of spectrum data
0, 0
0, 0
0, 0
0, 0
0, 0
0, 0
0, 0
0, 0
0, 0
3, 1
0, 3
23, 46
32, 64
4, 6
3, 6
67, 98
295, 459
67, 113
5, 7
1, 4
22, 37
161, 168
70, 70
19, 34
53, 75
34, 47
15, 29
9, 19
8, 11
2, 2
3, 6
2, 2
0, 2
6, 15
9, 12
2, 12
4, 22
4, 10
8, 7
2, 7
1, 8
19, 16
16, 32
16, 28
5, 16
7, 7
6, 9
9, 8
7, 14
10, 15
8, 9
5, 8
9, 13
30, 38
45, 71
30, 29
22, 44
375, 697
1495, 2658
1088, 1592
139, 174
11, 19
16, 24
76, 135
240, 378
143, 221
24, 28
12, 6
18, 18
5, 7
3, 13
6, 16
9, 10
4, 9
5, 6
4, 11
5, 4
0, 2
7, 2
2, 6
2, 11
0, 2
5, 4
0, 7
8, 11
2, 14
9, 5
1, 7
7, 4
2, 7
1, 3
3, 4
0, 5
0, 1
0, 3
1, 3
0, 4
5, 6
3, 1
1, 2
1, 7
2, 2
2, 5
3, 3
2, 11
2, 6
1, 2
2, 6
1, 2
2, 3
0, 2
0, 6
2, 3
3, 1
2, 5
2, 4
1, 3
1, 5
0, 3
1, 2
2, 2
0, 3
1, 4
2, 2
0, 1
0, 1
2, 2
1, 2
0, 2
0, 0
2, 1
0, 2
1, 0
1, 1
0, 0
0, 1
1, 2
0, 1
0, 0
0, 1
0, 0
0, 1
0, 0
0, 0
0, 0
0, 0
1, 1
0, 0
0, 0
1, 2
0, 1
0, 1
1, 1
0, 1
0, 1
0, 0
0, 0
0, 0
1, 2
0, 0
0, 0
1, 0
1, 0
0, 1
0, 0
0, 0
0, 0
0, 1
0, 0
1, 0
1, 0
0, 1
0, 0
0, 2
0, 0
0, 0
0, 0
0, 0
0, 0
0, 0
0, 0
0, 0
0, 0
0, 1
0, 0
0, 0
0, 0
0, 0
0, 1
0, 0
0, 0
0, 0
0, 0
0, 0
0, 0
0, 0
0, 0
0, 0
0, 0
0, 0
0, 0
0, 0
0, 0
0, 0
0, 0
0, 0
0, 0
0, 0
0, 0
0, 0
0, 0
0, 0
0, 0
0, 0
0, 0
0, 0
0, 0
0, 1
0, 0
0, 0
0, 0
0, 0
0, 0
0, 0
0, 0
0, 0
0, 0
0, 0
0, 0
0, 0
0, 0
0, 0
0, 0
0, 0
0, 0
0, 0
0, 0
0, 0
0, 0
0, 0
0, 0
0, 0
0, 0
0, 0
0, 0
0, 0
0, 0
0, 0
0, 0
0, 0
0, 0
0, 0
0, 0
0, 0
0, 0
0, 0
0, 0
0, 0
0, 0
0, 0
0, 0
0, 0
0, 0
0, 0
0, 0
0, 0
0, 0
0, 0
0, 0
0, 0
0, 0
0, 0
0, 0
0, 0
0, 0
0, 0
0, 0
0, 0
0, 0
0, 0
0, 0
0, 0
0, 0
0, 0
0, 0
0, 0
0, 0
0, 0
0, 0
0, 0
0, 0
0, 0
0, 0
0, 0
#ENDOFDATA     end of spectrum data