File: host_upload/06-09-2024/ps_0852/dump3/ps__0852shot_2566.msa
#FORMAT      : EMSA/MAS spectral data file
#VERSION     : TC202v2.0 PIXL
#TITLE       : N/A
#DATE        :       Date in the format DD-MMM-YYYY, for example 07-JUL-2010
#TIME        :             The time of day at which the spectrum was recorded, in 24-hour format
#OWNER       : PIXL Flight Model       (PIXL will use this to indicate which instrument took the data.)
#NPOINTS     : 4096     Number of data points in the spectrum (This can be zero for configuration only files)
#NCOLUMNS    : 2     Number of data columns in the spectrum (This can be zero for configuration only files)
#XUNITS      : eV
#YUNITS      : COUNTS
#DATATYPE    : YY
#XPERCHAN    : 7.862, 7.881   eV per channel (separate by commas if more than one detector)
#OFFSET      : 18.5, -22.4         eV of first channel  (separate by commas if more than one detector
#SIGNALTYPE  : XRF
#YP_TEMP     : 2.3
#LIVETIME    : 8.56328, 8.54419   seconds (separate by commas if more than one detector)
#REALTIME    : 10, 10.0   seconds (separate by commas if more than one detector)
#SPECTRUM    : start of spectrum data
0, 0
0, 0
0, 0
0, 0
0, 0
0, 0
0, 1
1, 0
2, 2
2, 0
0, 2
57, 41
63, 66
8, 2
8, 4
118, 89
434, 409
107, 102
2, 3
1, 0
4, 0
2, 6
3, 1
6, 5
69, 16
94, 20
21, 12
21, 12
3, 4
5, 0
2, 1
3, 3
2, 5
9, 17
35, 25
7, 3
4, 1
11, 6
10, 4
9, 1
17, 2
21, 5
13, 5
6, 5
5, 7
4, 7
1, 29
4, 28
7, 12
9, 53
17, 49
15, 11
27, 15
67, 45
75, 72
27, 19
35, 44
514, 580
2350, 2250
1662, 1288
178, 126
19, 19
30, 20
96, 127
357, 334
215, 167
43, 18
12, 6
17, 10
9, 10
4, 2
5, 1
3, 1
3, 2
5, 9
14, 3
4, 4
4, 11
6, 9
10, 4
8, 6
5, 3
2, 7
7, 0
4, 4
2, 4
3, 3
5, 4
2, 3
5, 7
14, 5
12, 3
8, 9
5, 6
2, 11
2, 6
2, 4
0, 3
1, 2
1, 2
2, 3
2, 5
4, 3
5, 1
7, 1
5, 1
2, 2
4, 2
0, 5
0, 3
1, 5
4, 2
4, 4
3, 2
1, 0
4, 0
11, 1
9, 7
2, 1
2, 0
1, 0
2, 1
1, 3
4, 1
2, 1
1, 0
0, 1
0, 0
0, 1
3, 0
1, 0
1, 0
0, 1
0, 3
1, 0
0, 0
1, 0
0, 0
3, 0
1, 0
0, 1
1, 0
1, 1
0, 1
0, 4
0, 1
2, 1
0, 1
0, 0
0, 1
0, 1
1, 0
0, 0
1, 0
0, 0
0, 1
0, 1
0, 0
1, 0
0, 0
1, 0
0, 1
0, 1
0, 0
0, 0
0, 0
0, 0
0, 0
1, 0
1, 0
0, 1
0, 1
1, 0
0, 1
0, 0
0, 0
1, 0
1, 0
0, 0
1, 0
0, 0
0, 0
0, 0
0, 0
0, 0
0, 0
0, 0
0, 0
0, 0
0, 0
0, 0
0, 0
0, 0
0, 0
0, 0
0, 0
0, 0
0, 0
0, 0
0, 0
0, 0
0, 0
0, 0
0, 0
0, 0
0, 0
0, 0
0, 0
0, 0
0, 0
0, 0
0, 0
0, 0
0, 0
0, 0
0, 0
0, 0
0, 0
0, 0
0, 0
0, 0
0, 0
0, 0
0, 0
0, 0
0, 0
0, 0
0, 0
0, 0
0, 0
0, 0
0, 0
0, 0
0, 0
0, 0
0, 0
0, 0
0, 0
0, 0
0, 0
0, 0
0, 0
0, 0
0, 0
0, 0
0, 0
0, 0
0, 0
0, 0
0, 0
0, 0
0, 0
0, 0
0, 0
0, 0
0, 0
0, 0
0, 0
0, 0
0, 0
0, 0
0, 0
0, 0
0, 0
0, 0
0, 0
0, 0
0, 0
0, 0
0, 0
0, 0
0, 0
0, 0
0, 0
0, 0
0, 0
0, 0
0, 0
0, 0
0, 0
0, 0
0, 0
0, 0
0, 0
0, 0
0, 0
0, 0
0, 0
0, 0
0, 0
0, 0
0, 0
0, 0
0, 0
#ENDOFDATA     end of spectrum data