File: host_upload/06-09-2024/ps_0852/dump3/ps__0852shot_2258.msa
#FORMAT      : EMSA/MAS spectral data file
#VERSION     : TC202v2.0 PIXL
#TITLE       : N/A
#DATE        :       Date in the format DD-MMM-YYYY, for example 07-JUL-2010
#TIME        :             The time of day at which the spectrum was recorded, in 24-hour format
#OWNER       : PIXL Flight Model       (PIXL will use this to indicate which instrument took the data.)
#NPOINTS     : 4096     Number of data points in the spectrum (This can be zero for configuration only files)
#NCOLUMNS    : 2     Number of data columns in the spectrum (This can be zero for configuration only files)
#XUNITS      : eV
#YUNITS      : COUNTS
#DATATYPE    : YY
#XPERCHAN    : 7.862, 7.881   eV per channel (separate by commas if more than one detector)
#OFFSET      : 18.5, -22.4         eV of first channel  (separate by commas if more than one detector
#SIGNALTYPE  : XRF
#YP_TEMP     : 2.267
#LIVETIME    : 8.5591, 8.56514   seconds (separate by commas if more than one detector)
#REALTIME    : 10, 10.0   seconds (separate by commas if more than one detector)
#SPECTRUM    : start of spectrum data
0, 0
0, 0
0, 0
0, 0
0, 0
0, 0
0, 0
0, 0
6, 0
6, 0
2, 1
49, 41
63, 58
6, 4
2, 7
90, 95
428, 465
107, 109
12, 2
1, 1
2, 0
3, 5
5, 2
23, 2
274, 29
405, 42
69, 12
16, 15
2, 6
1, 2
1, 0
1, 2
2, 3
26, 16
35, 27
4, 7
12, 5
34, 6
45, 4
14, 5
2, 6
7, 6
13, 17
19, 79
6, 106
9, 23
3, 6
7, 10
7, 11
19, 27
30, 15
31, 2
19, 8
34, 50
54, 55
18, 29
35, 58
448, 617
2050, 2458
1576, 1491
178, 193
26, 19
83, 27
153, 137
332, 412
213, 179
35, 23
7, 8
9, 16
6, 4
2, 3
1, 6
1, 14
7, 3
19, 6
66, 6
75, 3
13, 2
4, 7
3, 7
2, 3
2, 3
2, 7
2, 6
3, 5
2, 5
2, 3
3, 8
1, 4
3, 3
6, 8
2, 7
2, 1
4, 2
1, 2
5, 3
1, 4
3, 2
2, 6
1, 5
3, 7
7, 1
2, 1
2, 2
0, 1
1, 7
5, 2
2, 0
0, 0
1, 2
0, 0
3, 3
3, 1
4, 1
5, 0
0, 4
3, 7
2, 3
1, 6
2, 0
0, 1
3, 4
5, 2
1, 1
1, 1
2, 3
2, 1
0, 0
3, 1
2, 2
2, 3
0, 0
1, 0
2, 1
0, 0
0, 0
0, 1
4, 2
1, 1
0, 2
2, 1
0, 2
0, 0
0, 1
0, 0
1, 1
1, 1
0, 1
0, 0
0, 0
0, 0
0, 2
0, 0
0, 0
0, 0
0, 0
0, 0
0, 0
0, 0
0, 1
0, 0
0, 0
0, 0
0, 1
1, 0
0, 0
1, 0
0, 0
0, 0
0, 1
0, 0
0, 0
0, 1
1, 0
1, 0
0, 0
0, 0
0, 0
0, 0
0, 0
1, 0
1, 0
0, 0
1, 0
0, 0
0, 0
0, 0
0, 0
1, 0
0, 0
0, 0
0, 0
0, 0
0, 0
0, 0
0, 0
0, 0
0, 0
0, 0
0, 1
0, 0
0, 0
0, 0
0, 0
0, 0
0, 0
0, 0
0, 0
0, 0
1, 0
0, 0
0, 0
0, 0
1, 0
0, 0
0, 0
0, 0
0, 0
0, 0
0, 0
0, 0
0, 0
0, 0
0, 0
0, 0
0, 0
0, 0
0, 0
0, 0
0, 0
0, 0
0, 0
0, 0
0, 0
0, 0
0, 0
0, 0
0, 0
0, 0
0, 0
0, 0
0, 0
0, 0
0, 0
0, 0
0, 0
0, 0
0, 0
0, 0
0, 0
0, 0
0, 0
0, 0
0, 0
0, 0
0, 0
0, 0
0, 0
0, 0
0, 0
0, 0
0, 0
0, 0
0, 0
0, 0
0, 0
0, 0
0, 0
0, 0
0, 0
0, 0
0, 0
0, 0
0, 0
0, 0
0, 0
0, 0
0, 0
0, 0
0, 0
0, 0
0, 0
0, 0
0, 0
0, 0
0, 0
0, 0
0, 0
0, 0
0, 0
0, 0
0, 0
0, 0
0, 0
#ENDOFDATA     end of spectrum data