File: host_upload/06-09-2024/ps_0852/dump3/ps__0852shot_2023.msa
#FORMAT      : EMSA/MAS spectral data file
#VERSION     : TC202v2.0 PIXL
#TITLE       : N/A
#DATE        :       Date in the format DD-MMM-YYYY, for example 07-JUL-2010
#TIME        :             The time of day at which the spectrum was recorded, in 24-hour format
#OWNER       : PIXL Flight Model       (PIXL will use this to indicate which instrument took the data.)
#NPOINTS     : 4096     Number of data points in the spectrum (This can be zero for configuration only files)
#NCOLUMNS    : 2     Number of data columns in the spectrum (This can be zero for configuration only files)
#XUNITS      : eV
#YUNITS      : COUNTS
#DATATYPE    : YY
#XPERCHAN    : 7.862, 7.881   eV per channel (separate by commas if more than one detector)
#OFFSET      : 18.5, -22.4         eV of first channel  (separate by commas if more than one detector
#SIGNALTYPE  : XRF
#YP_TEMP     : 2.364
#LIVETIME    : 8.56576, 8.54819   seconds (separate by commas if more than one detector)
#REALTIME    : 10, 10.0   seconds (separate by commas if more than one detector)
#SPECTRUM    : start of spectrum data
0, 0
0, 0
0, 0
0, 0
0, 0
0, 0
0, 0
0, 0
1, 1
1, 2
3, 2
31, 37
48, 70
6, 6
6, 6
93, 120
369, 450
94, 117
4, 3
0, 2
2, 2
8, 5
2, 2
9, 6
49, 45
65, 64
32, 37
12, 17
7, 6
1, 2
4, 1
4, 2
2, 5
18, 23
20, 25
9, 9
9, 3
8, 7
8, 14
16, 11
13, 11
8, 21
12, 15
17, 16
9, 12
7, 10
6, 14
6, 7
13, 11
23, 24
19, 26
5, 20
14, 17
36, 63
60, 77
27, 49
31, 61
416, 663
1935, 2524
1416, 1591
210, 165
16, 14
13, 24
102, 152
295, 370
186, 217
30, 29
15, 10
17, 17
11, 7
2, 5
1, 6
5, 6
10, 9
5, 7
9, 11
7, 11
5, 6
5, 7
4, 6
5, 12
3, 6
0, 7
6, 8
6, 3
2, 1
5, 4
9, 12
6, 3
0, 5
3, 6
2, 3
1, 5
4, 5
3, 10
4, 3
1, 7
7, 2
5, 3
2, 3
4, 3
2, 5
0, 2
3, 4
1, 4
4, 3
2, 7
0, 1
6, 2
2, 5
3, 2
0, 1
1, 3
4, 3
1, 3
3, 2
4, 4
1, 2
2, 3
1, 1
0, 0
0, 2
2, 2
1, 2
3, 1
2, 1
0, 1
2, 3
0, 3
1, 0
0, 3
1, 0
0, 1
1, 1
1, 0
3, 0
2, 1
1, 1
1, 1
0, 0
0, 0
1, 0
1, 0
0, 0
0, 2
0, 2
0, 2
1, 0
0, 0
0, 0
0, 0
0, 0
1, 1
0, 0
0, 1
0, 0
1, 0
0, 1
0, 0
0, 0
1, 1
0, 0
0, 0
1, 0
0, 0
0, 0
0, 0
0, 0
1, 0
2, 0
0, 0
0, 0
0, 0
0, 0
0, 0
1, 0
1, 0
0, 0
0, 0
0, 0
0, 0
0, 0
1, 0
0, 0
0, 0
0, 0
0, 0
0, 0
0, 0
0, 0
0, 0
1, 0
0, 0
0, 0
0, 0
0, 0
0, 0
0, 0
0, 0
0, 0
0, 0
0, 0
0, 0
0, 0
0, 0
0, 0
0, 0
0, 0
0, 0
0, 0
1, 0
0, 0
0, 0
0, 0
0, 0
0, 0
0, 0
0, 0
0, 0
0, 0
0, 0
0, 0
0, 0
0, 0
0, 0
0, 0
0, 0
0, 0
0, 0
0, 0
0, 0
0, 0
0, 0
0, 0
0, 0
0, 0
0, 0
0, 0
0, 0
0, 0
0, 0
0, 0
0, 0
0, 0
0, 0
0, 0
0, 0
0, 0
0, 0
0, 0
0, 0
0, 0
0, 0
0, 0
0, 0
0, 0
0, 0
0, 0
0, 0
0, 0
0, 0
0, 0
0, 0
0, 0
0, 0
0, 0
0, 0
0, 0
0, 0
0, 0
0, 0
0, 0
0, 0
0, 0
0, 0
0, 0
0, 0
0, 0
0, 0
0, 0
0, 0
0, 0
0, 0
0, 0
0, 0
0, 0
0, 0
0, 0
0, 0
0, 0
0, 0
0, 0
0, 0
0, 0
#ENDOFDATA     end of spectrum data