File: host_upload/06-09-2024/ps_0852/dump3/ps__0852shot_2120.msa
#FORMAT      : EMSA/MAS spectral data file
#VERSION     : TC202v2.0 PIXL
#TITLE       : N/A
#DATE        :       Date in the format DD-MMM-YYYY, for example 07-JUL-2010
#TIME        :             The time of day at which the spectrum was recorded, in 24-hour format
#OWNER       : PIXL Flight Model       (PIXL will use this to indicate which instrument took the data.)
#NPOINTS     : 4096     Number of data points in the spectrum (This can be zero for configuration only files)
#NCOLUMNS    : 2     Number of data columns in the spectrum (This can be zero for configuration only files)
#XUNITS      : eV
#YUNITS      : COUNTS
#DATATYPE    : YY
#XPERCHAN    : 7.862, 7.881   eV per channel (separate by commas if more than one detector)
#OFFSET      : 18.5, -22.4         eV of first channel  (separate by commas if more than one detector
#SIGNALTYPE  : XRF
#YP_TEMP     : 2.46
#LIVETIME    : 8.57087, 8.55321   seconds (separate by commas if more than one detector)
#REALTIME    : 10, 10.0   seconds (separate by commas if more than one detector)
#SPECTRUM    : start of spectrum data
0, 0
0, 0
0, 0
0, 0
0, 0
0, 0
0, 0
0, 0
0, 1
3, 1
1, 6
45, 44
55, 58
9, 6
3, 1
90, 110
468, 419
109, 97
9, 3
2, 1
1, 2
8, 9
8, 6
11, 10
40, 39
44, 54
33, 44
21, 16
3, 3
1, 0
4, 3
1, 7
10, 6
76, 74
114, 100
22, 17
14, 15
16, 16
18, 15
8, 11
4, 7
13, 13
26, 30
15, 16
12, 18
8, 8
8, 12
4, 5
22, 11
49, 34
57, 22
19, 13
17, 17
48, 43
56, 42
28, 24
37, 50
456, 523
1981, 1957
1435, 1281
190, 127
28, 14
44, 26
90, 106
298, 365
201, 179
31, 24
6, 17
10, 18
6, 10
4, 4
3, 8
7, 4
6, 3
7, 3
7, 8
4, 7
3, 9
6, 9
12, 4
6, 7
9, 5
4, 4
3, 4
7, 11
5, 5
1, 6
2, 2
1, 1
5, 3
8, 4
8, 2
6, 2
6, 4
3, 2
3, 1
4, 1
4, 4
0, 3
9, 1
2, 1
3, 4
0, 4
3, 0
0, 3
6, 3
6, 6
3, 2
0, 3
3, 3
0, 2
0, 1
2, 1
0, 3
3, 0
3, 3
1, 4
5, 0
2, 2
2, 3
1, 1
2, 1
3, 5
1, 1
1, 1
1, 0
0, 1
2, 1
1, 1
0, 3
1, 1
0, 2
0, 2
2, 0
1, 0
0, 0
0, 1
0, 0
0, 1
1, 0
1, 1
1, 0
0, 0
0, 0
1, 2
0, 1
0, 1
1, 2
1, 1
0, 0
1, 0
0, 0
0, 0
2, 0
2, 0
2, 0
0, 0
0, 0
2, 0
0, 0
0, 0
0, 0
1, 0
1, 0
0, 0
0, 0
1, 0
1, 0
0, 1
0, 0
0, 0
0, 1
0, 0
0, 0
0, 0
0, 0
1, 0
0, 0
0, 0
0, 0
0, 0
0, 0
1, 0
1, 0
0, 0
0, 0
1, 0
0, 0
0, 0
0, 0
0, 0
0, 0
0, 0
0, 0
0, 0
0, 0
0, 0
0, 0
0, 0
0, 0
0, 0
0, 0
0, 0
0, 0
0, 0
0, 0
0, 0
0, 0
0, 1
0, 0
0, 0
0, 0
0, 0
0, 0
0, 0
0, 0
0, 0
0, 0
0, 0
0, 0
0, 0
0, 0
0, 0
0, 0
0, 0
0, 0
0, 0
0, 0
0, 0
0, 0
0, 0
0, 0
0, 0
0, 0
0, 0
0, 0
0, 0
0, 0
0, 0
0, 0
0, 0
0, 0
0, 0
0, 0
0, 0
0, 0
0, 0
0, 0
0, 0
0, 0
0, 0
0, 0
0, 0
0, 0
0, 0
0, 0
0, 0
0, 0
0, 0
0, 0
0, 0
0, 0
0, 0
0, 0
0, 0
0, 0
0, 0
0, 0
0, 0
0, 0
0, 0
0, 0
0, 0
0, 0
0, 0
0, 0
0, 0
0, 0
0, 0
0, 0
0, 0
0, 0
0, 0
0, 0
0, 0
0, 0
0, 0
0, 0
0, 0
0, 0
0, 0
0, 0
0, 0
0, 0
#ENDOFDATA     end of spectrum data