File: host_upload/06-09-2024/ps_0852/dump3/ps__0852shot_2207.msa
#FORMAT      : EMSA/MAS spectral data file
#VERSION     : TC202v2.0 PIXL
#TITLE       : N/A
#DATE        :       Date in the format DD-MMM-YYYY, for example 07-JUL-2010
#TIME        :             The time of day at which the spectrum was recorded, in 24-hour format
#OWNER       : PIXL Flight Model       (PIXL will use this to indicate which instrument took the data.)
#NPOINTS     : 4096     Number of data points in the spectrum (This can be zero for configuration only files)
#NCOLUMNS    : 2     Number of data columns in the spectrum (This can be zero for configuration only files)
#XUNITS      : eV
#YUNITS      : COUNTS
#DATATYPE    : YY
#XPERCHAN    : 7.862, 7.881   eV per channel (separate by commas if more than one detector)
#OFFSET      : 18.5, -22.4         eV of first channel  (separate by commas if more than one detector
#SIGNALTYPE  : XRF
#YP_TEMP     : 2.396
#LIVETIME    : 8.56201, 8.56683   seconds (separate by commas if more than one detector)
#REALTIME    : 10, 10.0   seconds (separate by commas if more than one detector)
#SPECTRUM    : start of spectrum data
0, 0
0, 0
0, 0
0, 0
0, 0
0, 0
0, 0
0, 0
1, 1
3, 2
4, 2
41, 42
55, 62
10, 5
3, 7
121, 83
462, 452
121, 107
6, 5
5, 0
9, 1
17, 8
2, 1
18, 9
57, 49
34, 35
19, 19
13, 12
4, 2
5, 3
3, 1
1, 1
2, 1
23, 19
31, 31
5, 5
3, 2
5, 9
7, 3
8, 7
3, 8
8, 8
11, 13
8, 11
11, 2
18, 10
16, 2
11, 1
8, 13
21, 23
36, 12
22, 9
13, 16
38, 50
69, 62
30, 23
29, 59
473, 680
2061, 2411
1627, 1408
202, 146
24, 17
22, 11
111, 126
327, 361
216, 176
31, 23
13, 12
23, 10
21, 12
15, 3
2, 4
5, 6
11, 8
10, 8
4, 4
5, 2
3, 4
5, 3
7, 3
2, 4
16, 18
21, 19
21, 10
7, 3
5, 1
5, 1
2, 4
1, 4
5, 6
4, 4
3, 1
5, 5
2, 4
3, 2
5, 6
8, 3
0, 2
2, 3
3, 4
4, 2
4, 3
5, 2
2, 3
3, 4
2, 4
1, 4
1, 4
1, 3
3, 2
0, 1
1, 1
2, 0
2, 3
1, 2
1, 3
2, 8
3, 1
2, 3
0, 0
5, 1
0, 5
1, 7
3, 1
1, 1
1, 2
1, 3
1, 2
1, 0
2, 1
1, 1
1, 1
0, 2
0, 0
0, 3
0, 1
0, 0
0, 1
0, 2
0, 1
1, 0
0, 0
4, 1
0, 0
0, 1
0, 0
3, 0
0, 1
0, 0
0, 0
0, 1
0, 1
2, 0
1, 2
0, 0
0, 0
0, 0
1, 0
1, 0
1, 0
1, 0
0, 1
0, 1
0, 0
2, 0
0, 0
0, 1
0, 0
0, 0
0, 0
0, 0
0, 0
0, 0
0, 0
0, 0
0, 0
0, 0
0, 0
0, 0
0, 0
1, 0
0, 0
0, 1
0, 0
2, 0
0, 0
0, 0
0, 0
0, 0
0, 0
0, 0
0, 1
0, 0
0, 0
0, 0
0, 0
0, 0
0, 0
0, 0
0, 0
0, 0
0, 0
0, 0
0, 0
0, 0
0, 0
0, 0
0, 0
0, 0
0, 0
0, 0
0, 0
0, 0
0, 0
0, 0
0, 0
0, 0
0, 0
0, 0
0, 0
0, 0
0, 0
0, 0
0, 0
0, 0
0, 0
0, 0
0, 0
0, 0
0, 0
0, 0
0, 0
0, 0
0, 0
0, 0
0, 0
0, 0
0, 0
0, 0
0, 0
0, 0
0, 0
0, 0
0, 0
0, 0
0, 0
0, 0
0, 0
0, 0
0, 0
0, 0
0, 0
0, 0
0, 0
0, 0
0, 0
0, 0
0, 0
0, 0
0, 0
0, 0
0, 0
0, 0
0, 0
0, 0
0, 0
0, 0
0, 0
0, 0
0, 0
0, 0
0, 0
0, 0
0, 0
0, 0
0, 0
0, 0
0, 0
0, 0
0, 0
0, 0
0, 0
0, 0
0, 0
0, 0
0, 0
0, 0
0, 0
0, 0
0, 0
0, 0
0, 0
0, 0
0, 0
#ENDOFDATA     end of spectrum data