File: host_upload/06-09-2024/ps_0852/dump3/ps__0852shot_2068.msa
#FORMAT      : EMSA/MAS spectral data file
#VERSION     : TC202v2.0 PIXL
#TITLE       : N/A
#DATE        :       Date in the format DD-MMM-YYYY, for example 07-JUL-2010
#TIME        :             The time of day at which the spectrum was recorded, in 24-hour format
#OWNER       : PIXL Flight Model       (PIXL will use this to indicate which instrument took the data.)
#NPOINTS     : 4096     Number of data points in the spectrum (This can be zero for configuration only files)
#NCOLUMNS    : 2     Number of data columns in the spectrum (This can be zero for configuration only files)
#XUNITS      : eV
#YUNITS      : COUNTS
#DATATYPE    : YY
#XPERCHAN    : 7.862, 7.881   eV per channel (separate by commas if more than one detector)
#OFFSET      : 18.5, -22.4         eV of first channel  (separate by commas if more than one detector
#SIGNALTYPE  : XRF
#YP_TEMP     : 2.46
#LIVETIME    : 8.54494, 8.56135   seconds (separate by commas if more than one detector)
#REALTIME    : 10, 10.0   seconds (separate by commas if more than one detector)
#SPECTRUM    : start of spectrum data
0, 0
0, 0
0, 0
0, 0
0, 0
0, 0
0, 0
0, 0
0, 2
0, 3
3, 5
40, 37
57, 53
12, 7
3, 2
74, 107
382, 521
111, 99
9, 6
1, 2
3, 1
2, 5
3, 4
4, 7
26, 142
41, 189
27, 63
7, 17
7, 3
1, 4
1, 6
0, 5
3, 11
5, 28
12, 17
8, 2
23, 5
38, 3
5, 3
4, 4
9, 1
30, 9
21, 12
8, 11
10, 5
13, 12
8, 22
7, 14
7, 16
6, 18
12, 84
7, 74
7, 16
38, 37
62, 73
23, 30
31, 72
459, 612
1996, 2412
1529, 1418
200, 153
24, 20
25, 30
105, 115
321, 378
224, 226
41, 29
12, 9
12, 11
9, 11
8, 1
4, 3
3, 9
8, 4
6, 7
4, 8
2, 3
3, 5
1, 2
2, 5
5, 5
9, 4
7, 0
5, 2
9, 4
4, 4
4, 9
6, 5
4, 1
3, 4
2, 4
5, 2
3, 5
7, 3
5, 3
2, 2
3, 2
2, 5
2, 6
4, 0
5, 6
5, 2
3, 1
2, 4
3, 3
3, 1
1, 0
2, 2
5, 3
2, 4
2, 3
3, 2
1, 2
2, 1
0, 3
3, 2
5, 7
2, 3
5, 2
2, 1
2, 4
3, 2
5, 0
3, 5
2, 3
1, 0
0, 2
1, 0
0, 3
2, 0
2, 0
1, 0
1, 1
0, 0
0, 3
0, 0
1, 0
0, 0
0, 2
0, 0
0, 2
0, 0
0, 1
1, 2
1, 0
0, 0
0, 0
0, 0
1, 1
1, 0
0, 0
0, 0
0, 1
1, 0
1, 0
0, 0
0, 0
1, 0
1, 0
1, 1
0, 1
0, 0
0, 0
0, 0
0, 1
0, 0
0, 0
0, 1
1, 0
0, 0
1, 0
0, 0
0, 0
0, 1
0, 0
1, 0
0, 0
0, 0
0, 0
0, 0
0, 2
0, 0
0, 0
0, 0
0, 0
0, 0
0, 0
1, 0
0, 0
0, 0
0, 0
0, 0
0, 0
0, 0
0, 0
0, 0
0, 0
0, 0
0, 0
0, 0
0, 0
0, 0
0, 0
0, 0
0, 0
0, 0
0, 0
0, 0
0, 0
0, 0
0, 0
0, 0
0, 0
0, 1
0, 0
0, 0
0, 0
0, 0
0, 0
0, 1
0, 0
0, 0
0, 0
0, 0
0, 0
0, 0
0, 0
0, 0
0, 0
0, 0
0, 0
0, 0
0, 0
0, 0
0, 0
0, 0
0, 0
0, 0
0, 0
0, 0
0, 0
0, 0
0, 0
0, 0
0, 0
0, 0
0, 0
0, 0
0, 0
0, 0
0, 0
0, 0
0, 0
0, 0
0, 0
0, 0
0, 0
0, 0
0, 0
0, 0
0, 0
0, 0
0, 0
0, 0
0, 0
0, 0
0, 0
0, 0
0, 0
0, 0
0, 0
0, 0
0, 0
0, 0
0, 0
0, 0
0, 0
0, 0
0, 0
0, 0
0, 0
0, 0
0, 0
0, 0
0, 0
0, 0
0, 0
0, 0
0, 0
0, 0
0, 0
0, 0
0, 0
0, 0
#ENDOFDATA     end of spectrum data