File: host_upload/06-09-2024/ps_0852/dump3/ps__0852shot_2057.msa
#FORMAT      : EMSA/MAS spectral data file
#VERSION     : TC202v2.0 PIXL
#TITLE       : N/A
#DATE        :       Date in the format DD-MMM-YYYY, for example 07-JUL-2010
#TIME        :             The time of day at which the spectrum was recorded, in 24-hour format
#OWNER       : PIXL Flight Model       (PIXL will use this to indicate which instrument took the data.)
#NPOINTS     : 4096     Number of data points in the spectrum (This can be zero for configuration only files)
#NCOLUMNS    : 2     Number of data columns in the spectrum (This can be zero for configuration only files)
#XUNITS      : eV
#YUNITS      : COUNTS
#DATATYPE    : YY
#XPERCHAN    : 7.862, 7.881   eV per channel (separate by commas if more than one detector)
#OFFSET      : 18.5, -22.4         eV of first channel  (separate by commas if more than one detector
#SIGNALTYPE  : XRF
#YP_TEMP     : 2.46
#LIVETIME    : 8.5394, 8.53793   seconds (separate by commas if more than one detector)
#REALTIME    : 10, 10.0   seconds (separate by commas if more than one detector)
#SPECTRUM    : start of spectrum data
0, 0
0, 0
0, 0
0, 0
0, 0
0, 0
0, 0
1, 0
2, 0
2, 0
2, 0
56, 45
64, 53
7, 4
13, 3
104, 96
426, 388
110, 93
12, 2
0, 2
4, 1
6, 2
3, 2
18, 3
93, 40
116, 37
31, 17
12, 16
2, 1
4, 2
1, 3
1, 4
3, 4
7, 12
22, 11
7, 8
9, 5
9, 7
6, 8
4, 6
5, 2
14, 9
15, 15
18, 19
8, 13
7, 18
4, 16
1, 15
8, 10
22, 21
22, 34
24, 33
30, 13
44, 44
69, 46
28, 21
29, 34
493, 483
2317, 2049
1653, 1238
236, 132
14, 15
18, 29
122, 111
369, 371
235, 176
46, 21
8, 19
14, 19
7, 14
9, 7
5, 5
2, 3
6, 1
6, 4
5, 5
12, 1
4, 1
12, 7
3, 5
5, 2
5, 3
3, 7
2, 5
5, 5
5, 4
2, 3
4, 5
4, 4
6, 4
6, 4
5, 1
1, 5
2, 4
3, 1
4, 5
0, 7
1, 2
2, 1
4, 4
0, 3
2, 4
2, 1
4, 1
4, 5
4, 4
2, 2
1, 3
3, 0
2, 0
2, 4
1, 1
4, 4
1, 6
2, 4
4, 3
3, 7
6, 5
2, 0
2, 3
2, 1
1, 1
4, 0
2, 2
0, 2
2, 4
1, 2
0, 2
0, 0
1, 2
1, 0
0, 1
0, 0
0, 1
1, 0
0, 0
1, 2
0, 1
0, 1
1, 3
2, 1
2, 0
2, 1
0, 0
0, 1
0, 1
0, 0
2, 2
0, 0
0, 0
2, 1
0, 0
0, 1
0, 1
0, 1
0, 0
0, 0
1, 0
0, 0
0, 0
0, 0
1, 0
0, 1
0, 0
0, 0
0, 0
0, 0
1, 0
0, 1
1, 1
1, 0
1, 1
0, 0
0, 0
0, 0
0, 0
0, 0
0, 0
0, 0
0, 0
0, 0
0, 1
0, 0
0, 0
1, 0
0, 0
0, 0
0, 0
0, 0
0, 0
0, 0
0, 0
0, 0
0, 0
0, 0
0, 0
0, 0
0, 0
0, 0
0, 0
0, 0
0, 1
0, 0
0, 0
0, 0
0, 0
0, 0
0, 0
0, 0
0, 0
1, 0
0, 0
0, 0
0, 0
0, 0
0, 0
0, 0
0, 0
0, 0
0, 0
0, 0
0, 0
0, 0
0, 0
0, 0
0, 0
0, 0
0, 0
0, 0
0, 0
0, 0
0, 0
0, 0
0, 0
0, 0
0, 0
0, 0
0, 0
0, 0
0, 0
0, 0
0, 0
0, 0
0, 0
0, 0
0, 0
0, 0
0, 0
0, 0
0, 0
0, 0
0, 0
0, 0
0, 0
0, 0
0, 0
0, 0
0, 0
0, 0
0, 0
0, 0
0, 0
0, 0
0, 0
0, 0
0, 0
0, 0
0, 0
0, 0
0, 0
0, 0
0, 0
0, 0
0, 0
0, 0
0, 0
0, 0
0, 0
0, 0
0, 0
0, 0
0, 0
0, 0
0, 0
0, 0
0, 0
0, 0
0, 0
0, 0
0, 0
0, 0
0, 0
0, 0
0, 0
#ENDOFDATA     end of spectrum data