File: host_upload/06-09-2024/ps_0852/dump3/ps__0852shot_2213.msa
#FORMAT      : EMSA/MAS spectral data file
#VERSION     : TC202v2.0 PIXL
#TITLE       : N/A
#DATE        :       Date in the format DD-MMM-YYYY, for example 07-JUL-2010
#TIME        :             The time of day at which the spectrum was recorded, in 24-hour format
#OWNER       : PIXL Flight Model       (PIXL will use this to indicate which instrument took the data.)
#NPOINTS     : 4096     Number of data points in the spectrum (This can be zero for configuration only files)
#NCOLUMNS    : 2     Number of data columns in the spectrum (This can be zero for configuration only files)
#XUNITS      : eV
#YUNITS      : COUNTS
#DATATYPE    : YY
#XPERCHAN    : 7.862, 7.881   eV per channel (separate by commas if more than one detector)
#OFFSET      : 18.5, -22.4         eV of first channel  (separate by commas if more than one detector
#SIGNALTYPE  : XRF
#YP_TEMP     : 2.107
#LIVETIME    : 8.54456, 8.57125   seconds (separate by commas if more than one detector)
#REALTIME    : 10, 10.0   seconds (separate by commas if more than one detector)
#SPECTRUM    : start of spectrum data
0, 0
0, 0
0, 0
0, 0
0, 0
0, 0
0, 0
0, 0
0, 0
3, 1
1, 0
67, 37
66, 55
10, 7
4, 4
99, 103
467, 414
108, 81
5, 5
2, 1
2, 2
6, 5
1, 4
7, 3
33, 18
35, 26
32, 17
14, 11
7, 3
3, 2
3, 1
1, 3
2, 1
10, 15
22, 20
3, 1
4, 4
13, 4
23, 4
27, 3
32, 2
21, 10
22, 24
8, 45
7, 26
4, 13
0, 12
6, 10
8, 7
16, 13
30, 7
44, 3
61, 10
97, 45
75, 48
22, 21
25, 33
473, 563
2312, 2197
1652, 1318
208, 153
13, 25
25, 16
111, 114
359, 341
237, 217
37, 35
8, 7
13, 7
8, 5
1, 3
2, 1
4, 7
6, 0
11, 4
21, 4
26, 8
11, 17
9, 11
15, 4
9, 5
4, 12
3, 8
3, 4
1, 6
1, 1
1, 6
5, 2
2, 5
2, 5
5, 7
4, 3
4, 6
9, 13
6, 15
0, 6
2, 4
0, 4
2, 0
4, 0
6, 2
7, 0
4, 2
4, 2
6, 1
1, 0
0, 3
2, 6
2, 2
0, 0
3, 0
2, 1
2, 1
1, 1
2, 3
4, 2
9, 1
5, 3
2, 2
3, 2
1, 1
3, 3
2, 2
0, 2
2, 0
1, 0
1, 0
1, 2
1, 2
2, 0
1, 2
2, 0
2, 0
2, 0
0, 1
0, 2
0, 1
1, 0
1, 0
0, 0
0, 1
4, 1
0, 0
1, 1
2, 0
0, 1
0, 1
1, 0
1, 1
0, 1
0, 1
0, 0
0, 0
0, 0
0, 0
2, 1
1, 0
0, 2
0, 1
0, 0
0, 0
0, 0
1, 0
0, 0
0, 1
0, 1
0, 0
0, 0
0, 0
1, 0
1, 0
0, 0
0, 0
0, 1
1, 0
0, 1
0, 0
0, 0
0, 0
0, 0
0, 0
0, 0
0, 0
2, 0
0, 0
0, 0
0, 0
0, 0
0, 0
0, 0
0, 0
0, 0
0, 1
0, 0
0, 0
0, 0
0, 0
0, 0
0, 0
0, 0
0, 0
0, 1
0, 0
0, 0
0, 0
0, 0
0, 0
0, 0
0, 0
0, 0
0, 0
0, 0
0, 0
0, 0
0, 0
0, 0
0, 0
0, 0
0, 0
0, 0
0, 0
0, 0
0, 0
0, 0
0, 0
0, 0
0, 0
0, 0
0, 0
0, 0
0, 0
0, 0
0, 0
0, 0
0, 0
0, 0
0, 0
0, 0
0, 0
0, 0
0, 0
0, 0
0, 0
0, 0
0, 0
0, 0
0, 0
0, 0
0, 0
0, 0
0, 0
0, 0
0, 0
0, 0
0, 0
0, 0
0, 0
0, 0
0, 0
0, 0
0, 0
0, 0
0, 0
0, 0
0, 0
0, 0
0, 0
0, 0
0, 0
0, 0
0, 0
0, 0
0, 0
0, 0
0, 0
0, 0
0, 0
0, 0
0, 0
0, 0
0, 0
0, 0
0, 0
0, 0
0, 0
0, 0
0, 0
0, 0
0, 0
0, 0
0, 0
0, 0
0, 0
0, 0
#ENDOFDATA     end of spectrum data