File: host_upload/06-09-2024/ps_0852/dump3/ps__0852shot_2359.msa
#FORMAT      : EMSA/MAS spectral data file
#VERSION     : TC202v2.0 PIXL
#TITLE       : N/A
#DATE        :       Date in the format DD-MMM-YYYY, for example 07-JUL-2010
#TIME        :             The time of day at which the spectrum was recorded, in 24-hour format
#OWNER       : PIXL Flight Model       (PIXL will use this to indicate which instrument took the data.)
#NPOINTS     : 4096     Number of data points in the spectrum (This can be zero for configuration only files)
#NCOLUMNS    : 2     Number of data columns in the spectrum (This can be zero for configuration only files)
#XUNITS      : eV
#YUNITS      : COUNTS
#DATATYPE    : YY
#XPERCHAN    : 7.862, 7.881   eV per channel (separate by commas if more than one detector)
#OFFSET      : 18.5, -22.4         eV of first channel  (separate by commas if more than one detector
#SIGNALTYPE  : XRF
#YP_TEMP     : 2.3
#LIVETIME    : 8.55549, 8.53388   seconds (separate by commas if more than one detector)
#REALTIME    : 10, 10.0   seconds (separate by commas if more than one detector)
#SPECTRUM    : start of spectrum data
0, 0
0, 0
0, 0
0, 0
0, 0
0, 0
0, 0
0, 0
1, 0
1, 1
1, 1
43, 41
63, 64
6, 8
4, 2
106, 108
396, 418
92, 87
6, 4
3, 0
3, 2
8, 9
7, 6
6, 6
31, 42
44, 55
16, 32
10, 13
5, 6
2, 5
5, 6
4, 3
2, 4
13, 7
21, 13
10, 11
8, 17
6, 8
29, 12
29, 19
8, 8
10, 10
12, 18
34, 26
112, 48
50, 26
12, 7
6, 4
7, 8
33, 19
18, 19
9, 12
12, 18
38, 47
68, 74
16, 33
34, 36
474, 642
2140, 2409
1499, 1498
210, 134
24, 19
16, 25
101, 132
369, 381
198, 224
42, 24
4, 11
20, 13
8, 8
4, 3
2, 9
13, 14
26, 10
22, 13
12, 11
5, 8
4, 7
4, 4
2, 4
4, 8
3, 7
7, 2
7, 1
5, 3
2, 3
2, 10
4, 6
7, 7
4, 5
1, 3
1, 2
4, 7
4, 5
8, 2
4, 5
4, 4
5, 0
3, 6
1, 3
2, 3
2, 1
2, 0
3, 1
3, 4
3, 4
0, 4
1, 3
3, 4
3, 2
5, 3
3, 2
0, 2
4, 0
2, 2
1, 5
5, 1
7, 3
1, 1
4, 3
1, 2
1, 1
3, 2
0, 2
0, 2
1, 1
1, 1
1, 1
0, 0
1, 2
0, 0
0, 1
0, 0
1, 4
1, 0
5, 1
0, 1
2, 0
1, 0
0, 0
1, 0
0, 1
0, 0
1, 2
1, 2
0, 0
1, 1
0, 0
0, 3
0, 2
0, 1
0, 0
1, 1
0, 1
0, 0
0, 0
0, 1
0, 1
1, 0
0, 0
1, 0
1, 0
0, 0
2, 0
0, 0
0, 0
0, 1
0, 2
0, 1
1, 0
1, 0
1, 0
0, 0
0, 0
0, 1
0, 0
0, 1
0, 0
0, 0
0, 0
0, 0
0, 0
0, 0
0, 0
0, 0
0, 0
0, 0
0, 1
0, 0
0, 0
0, 0
0, 0
1, 0
0, 0
0, 0
0, 0
0, 0
0, 0
1, 0
0, 0
0, 0
1, 0
0, 1
0, 1
0, 0
0, 0
0, 0
0, 0
0, 0
0, 0
0, 0
0, 0
0, 0
0, 0
0, 0
0, 0
0, 0
0, 0
0, 0
0, 0
0, 0
0, 0
0, 0
0, 0
0, 0
0, 0
0, 0
0, 0
0, 0
0, 0
0, 0
0, 0
0, 0
0, 0
0, 0
0, 0
0, 0
0, 0
0, 0
0, 0
0, 0
0, 0
0, 0
0, 0
0, 0
0, 0
0, 0
0, 0
0, 0
0, 0
0, 0
0, 0
0, 0
0, 0
0, 0
0, 0
0, 0
0, 0
0, 0
0, 0
0, 0
0, 0
0, 0
0, 0
0, 0
0, 0
0, 0
0, 0
0, 0
0, 0
0, 0
0, 0
0, 0
0, 0
0, 0
0, 0
0, 0
0, 0
0, 0
0, 0
0, 0
0, 0
0, 0
0, 0
0, 0
0, 0
0, 0
0, 0
0, 0
0, 0
0, 0
0, 0
0, 0
0, 0
#ENDOFDATA     end of spectrum data