File: host_upload/06-09-2024/ps_0852/dump3/ps__0852shot_2100.msa
#FORMAT      : EMSA/MAS spectral data file
#VERSION     : TC202v2.0 PIXL
#TITLE       : N/A
#DATE        :       Date in the format DD-MMM-YYYY, for example 07-JUL-2010
#TIME        :             The time of day at which the spectrum was recorded, in 24-hour format
#OWNER       : PIXL Flight Model       (PIXL will use this to indicate which instrument took the data.)
#NPOINTS     : 4096     Number of data points in the spectrum (This can be zero for configuration only files)
#NCOLUMNS    : 2     Number of data columns in the spectrum (This can be zero for configuration only files)
#XUNITS      : eV
#YUNITS      : COUNTS
#DATATYPE    : YY
#XPERCHAN    : 7.862, 7.881   eV per channel (separate by commas if more than one detector)
#OFFSET      : 18.5, -22.4         eV of first channel  (separate by commas if more than one detector
#SIGNALTYPE  : XRF
#YP_TEMP     : 2.139
#LIVETIME    : 8.56841, 8.55751   seconds (separate by commas if more than one detector)
#REALTIME    : 10, 10.0   seconds (separate by commas if more than one detector)
#SPECTRUM    : start of spectrum data
0, 0
0, 0
0, 0
0, 0
0, 0
0, 0
0, 0
0, 0
1, 0
1, 2
4, 4
26, 34
42, 51
8, 7
3, 8
52, 75
322, 319
72, 94
4, 4
5, 3
62, 72
363, 470
142, 171
36, 36
81, 61
82, 67
28, 38
20, 11
5, 10
3, 4
4, 6
4, 3
6, 9
86, 144
169, 189
33, 112
24, 97
31, 32
3, 8
4, 8
8, 3
32, 14
28, 22
20, 29
17, 19
12, 12
11, 4
6, 5
15, 16
34, 39
30, 24
11, 39
12, 27
48, 39
50, 40
28, 19
41, 28
416, 540
1713, 1891
1321, 1159
183, 126
16, 19
17, 9
98, 100
310, 317
214, 168
64, 27
42, 9
15, 12
8, 11
7, 8
4, 2
10, 1
5, 4
14, 7
12, 10
17, 11
7, 11
6, 8
4, 5
4, 7
6, 2
4, 5
7, 2
5, 1
4, 7
4, 4
5, 4
7, 7
5, 3
2, 9
6, 5
3, 4
3, 4
1, 5
6, 2
1, 3
5, 1
4, 3
2, 7
3, 1
4, 2
7, 1
0, 4
1, 4
3, 1
4, 2
2, 6
2, 3
1, 1
1, 4
1, 4
3, 0
0, 4
2, 1
3, 4
1, 0
2, 5
1, 1
4, 0
2, 2
3, 1
1, 1
0, 1
0, 0
0, 0
1, 0
2, 1
3, 2
2, 1
3, 1
0, 0
2, 1
1, 0
0, 1
0, 1
2, 0
4, 0
1, 0
1, 0
1, 2
0, 1
2, 0
0, 1
1, 2
0, 0
0, 1
1, 0
1, 0
0, 0
0, 0
0, 0
0, 1
0, 1
0, 2
0, 0
0, 0
0, 1
1, 0
0, 0
0, 2
0, 1
1, 0
1, 0
0, 1
0, 0
0, 1
0, 0
0, 0
0, 0
0, 1
0, 0
0, 0
0, 0
0, 0
0, 0
0, 0
0, 0
0, 0
0, 1
0, 0
0, 1
0, 0
0, 0
0, 0
0, 0
0, 0
0, 0
0, 0
0, 0
0, 0
0, 1
0, 0
0, 0
0, 0
0, 0
0, 0
0, 0
0, 0
0, 0
0, 0
1, 0
0, 0
0, 0
0, 0
0, 0
0, 0
0, 0
0, 0
0, 0
0, 0
0, 0
0, 0
0, 0
0, 0
0, 0
0, 0
0, 0
0, 0
0, 0
0, 0
0, 0
0, 0
0, 0
0, 0
0, 0
0, 0
0, 0
0, 0
0, 0
0, 0
0, 0
0, 0
0, 0
0, 0
0, 0
0, 0
0, 0
0, 0
0, 0
0, 0
0, 0
0, 0
0, 0
0, 0
0, 0
0, 0
0, 0
0, 0
0, 0
0, 0
0, 0
0, 0
0, 0
0, 0
0, 0
0, 0
0, 0
0, 0
0, 0
0, 0
0, 0
0, 0
0, 0
0, 0
0, 0
0, 0
0, 0
0, 0
0, 0
0, 0
0, 0
0, 0
0, 0
0, 0
0, 0
0, 0
0, 0
0, 0
0, 0
0, 0
0, 0
0, 0
0, 0
0, 0
0, 0
0, 0
0, 0
0, 0
0, 0
0, 0
0, 0
0, 0
0, 0
#ENDOFDATA     end of spectrum data