File: host_upload/06-09-2024/ps_0852/dump3/ps__0852shot_2323.msa
#FORMAT      : EMSA/MAS spectral data file
#VERSION     : TC202v2.0 PIXL
#TITLE       : N/A
#DATE        :       Date in the format DD-MMM-YYYY, for example 07-JUL-2010
#TIME        :             The time of day at which the spectrum was recorded, in 24-hour format
#OWNER       : PIXL Flight Model       (PIXL will use this to indicate which instrument took the data.)
#NPOINTS     : 4096     Number of data points in the spectrum (This can be zero for configuration only files)
#NCOLUMNS    : 2     Number of data columns in the spectrum (This can be zero for configuration only files)
#XUNITS      : eV
#YUNITS      : COUNTS
#DATATYPE    : YY
#XPERCHAN    : 7.862, 7.881   eV per channel (separate by commas if more than one detector)
#OFFSET      : 18.5, -22.4         eV of first channel  (separate by commas if more than one detector
#SIGNALTYPE  : XRF
#YP_TEMP     : 2.492
#LIVETIME    : 8.56151, 8.55457   seconds (separate by commas if more than one detector)
#REALTIME    : 10, 10.0   seconds (separate by commas if more than one detector)
#SPECTRUM    : start of spectrum data
0, 0
0, 0
0, 0
0, 0
0, 0
0, 0
0, 0
0, 0
0, 0
0, 3
0, 4
50, 37
65, 60
2, 2
0, 5
82, 119
464, 419
121, 98
8, 4
2, 1
1, 2
3, 3
3, 4
10, 12
36, 30
64, 30
41, 21
16, 12
4, 6
4, 4
0, 3
2, 3
6, 8
73, 73
110, 106
29, 16
9, 16
13, 21
6, 4
6, 7
7, 2
8, 19
10, 16
10, 9
5, 11
11, 4
11, 10
9, 8
29, 11
33, 26
48, 13
28, 18
8, 32
32, 67
71, 70
25, 41
30, 50
462, 520
2129, 1983
1563, 1198
202, 141
27, 22
24, 31
109, 114
301, 311
232, 179
36, 22
5, 7
15, 7
9, 8
10, 7
8, 7
11, 2
15, 4
16, 7
4, 6
11, 7
2, 3
4, 5
6, 7
2, 4
4, 4
6, 2
2, 3
3, 5
2, 4
2, 1
5, 7
8, 1
4, 11
5, 11
1, 9
1, 4
5, 5
1, 1
2, 1
0, 3
2, 3
5, 3
1, 6
4, 3
3, 2
5, 2
4, 1
3, 1
1, 3
3, 4
1, 3
2, 4
3, 1
5, 3
1, 2
6, 1
3, 1
4, 3
3, 0
2, 4
6, 0
2, 1
0, 1
2, 3
2, 1
1, 3
3, 3
2, 2
4, 2
2, 0
0, 1
1, 0
0, 1
1, 0
0, 0
1, 0
0, 2
2, 0
1, 0
0, 0
0, 1
1, 2
0, 1
0, 0
1, 1
0, 0
1, 0
0, 0
1, 0
0, 0
1, 0
0, 4
1, 0
0, 1
1, 0
0, 0
0, 0
0, 1
0, 0
2, 0
1, 0
1, 1
0, 1
0, 0
0, 0
0, 0
0, 0
0, 0
0, 0
0, 0
0, 1
1, 0
0, 2
1, 0
0, 0
0, 0
0, 0
0, 1
0, 0
1, 0
0, 0
0, 0
0, 1
0, 0
0, 0
0, 0
0, 0
1, 0
0, 0
0, 0
0, 0
0, 0
0, 0
0, 0
0, 0
0, 0
0, 0
0, 0
0, 0
0, 0
0, 0
0, 0
0, 0
0, 0
0, 0
0, 0
0, 0
0, 0
0, 0
0, 0
0, 0
0, 0
0, 0
0, 0
0, 0
0, 0
0, 0
0, 0
0, 0
0, 0
0, 0
0, 0
0, 0
0, 0
0, 0
0, 0
0, 0
0, 0
0, 0
0, 0
0, 0
0, 0
0, 0
0, 0
0, 0
0, 0
0, 0
0, 0
0, 0
0, 0
0, 0
0, 0
0, 0
0, 0
0, 0
0, 0
0, 0
0, 0
0, 0
0, 0
0, 0
0, 0
0, 0
0, 0
0, 0
0, 0
0, 0
0, 0
0, 0
0, 0
0, 0
0, 0
0, 0
0, 0
0, 0
0, 0
0, 0
0, 0
0, 0
0, 0
0, 0
0, 0
0, 0
0, 0
0, 0
0, 0
0, 0
0, 0
0, 0
0, 0
0, 0
0, 0
0, 0
0, 0
0, 0
0, 0
0, 0
0, 0
0, 0
0, 0
0, 0
0, 0
0, 0
0, 0
0, 0
0, 0
0, 0
#ENDOFDATA     end of spectrum data