File: host_upload/06-09-2024/ps_0852/dump3/ps__0852shot_2105.msa
#FORMAT      : EMSA/MAS spectral data file
#VERSION     : TC202v2.0 PIXL
#TITLE       : N/A
#DATE        :       Date in the format DD-MMM-YYYY, for example 07-JUL-2010
#TIME        :             The time of day at which the spectrum was recorded, in 24-hour format
#OWNER       : PIXL Flight Model       (PIXL will use this to indicate which instrument took the data.)
#NPOINTS     : 4096     Number of data points in the spectrum (This can be zero for configuration only files)
#NCOLUMNS    : 2     Number of data columns in the spectrum (This can be zero for configuration only files)
#XUNITS      : eV
#YUNITS      : COUNTS
#DATATYPE    : YY
#XPERCHAN    : 7.862, 7.881   eV per channel (separate by commas if more than one detector)
#OFFSET      : 18.5, -22.4         eV of first channel  (separate by commas if more than one detector
#SIGNALTYPE  : XRF
#YP_TEMP     : 2.235
#LIVETIME    : 8.5723, 8.5449   seconds (separate by commas if more than one detector)
#REALTIME    : 10, 10.0   seconds (separate by commas if more than one detector)
#SPECTRUM    : start of spectrum data
0, 0
0, 0
0, 0
0, 0
0, 0
0, 0
0, 0
0, 0
0, 1
0, 2
5, 2
31, 43
64, 55
8, 10
1, 2
80, 124
389, 472
116, 100
7, 6
2, 0
4, 4
47, 41
24, 22
29, 17
54, 45
32, 39
25, 22
12, 8
11, 4
2, 1
2, 2
4, 4
5, 4
44, 47
60, 92
11, 21
7, 12
10, 13
4, 5
4, 5
3, 5
7, 9
12, 13
9, 10
7, 8
16, 9
19, 6
3, 17
9, 10
14, 15
28, 11
6, 5
8, 9
59, 44
151, 61
60, 21
34, 56
396, 570
1866, 2398
1357, 1419
158, 142
12, 16
18, 19
75, 146
275, 375
209, 216
43, 25
9, 8
13, 12
20, 5
5, 4
2, 4
3, 2
4, 5
3, 3
3, 6
3, 2
0, 9
1, 2
5, 1
4, 3
5, 0
3, 3
4, 4
9, 5
4, 6
5, 3
1, 1
0, 8
1, 5
3, 5
2, 1
2, 9
1, 9
1, 2
5, 2
0, 1
5, 5
4, 3
4, 7
4, 3
2, 1
1, 2
2, 1
0, 3
5, 1
2, 1
11, 2
10, 3
7, 1
2, 2
4, 3
2, 2
1, 1
1, 2
2, 3
5, 5
3, 2
1, 0
1, 2
1, 3
2, 0
1, 2
2, 0
2, 0
0, 1
1, 1
2, 0
0, 3
1, 0
1, 0
2, 1
3, 1
0, 2
0, 1
1, 0
0, 1
0, 0
0, 0
1, 1
0, 1
0, 0
1, 0
1, 0
0, 0
1, 1
1, 0
1, 2
1, 0
0, 0
1, 1
0, 0
1, 1
0, 0
0, 0
0, 0
2, 0
0, 0
0, 1
0, 0
0, 1
0, 0
1, 0
0, 0
0, 0
0, 0
0, 0
1, 1
0, 0
0, 1
0, 1
0, 2
0, 0
0, 2
0, 0
0, 0
0, 0
0, 0
0, 0
0, 0
0, 0
0, 0
2, 0
0, 0
0, 0
0, 0
0, 0
1, 0
0, 0
0, 0
0, 0
0, 0
1, 0
0, 0
0, 0
0, 0
0, 0
0, 0
0, 0
0, 0
0, 0
0, 0
0, 0
0, 0
0, 0
0, 0
0, 0
0, 0
0, 0
0, 0
0, 0
0, 0
0, 0
0, 0
0, 0
0, 0
0, 0
0, 0
0, 0
0, 0
0, 0
0, 0
0, 0
0, 0
0, 0
0, 0
0, 0
0, 0
0, 0
0, 0
0, 0
0, 0
0, 0
0, 0
0, 0
0, 0
0, 0
0, 0
0, 0
0, 0
0, 0
0, 0
0, 0
0, 0
0, 0
0, 0
0, 0
0, 0
0, 0
0, 0
0, 0
0, 0
0, 0
0, 0
0, 0
0, 0
0, 0
0, 0
0, 0
0, 0
0, 0
0, 0
0, 0
0, 0
0, 0
0, 0
0, 0
0, 0
0, 0
0, 0
0, 0
0, 0
0, 0
0, 0
0, 0
0, 0
0, 0
0, 0
0, 0
0, 0
0, 0
0, 0
0, 0
0, 0
0, 0
0, 0
0, 0
0, 0
0, 0
0, 0
0, 0
0, 0
0, 0
0, 0
#ENDOFDATA     end of spectrum data