File: host_upload/06-09-2024/ps_0852/dump3/ps__0852shot_2479.msa
#FORMAT      : EMSA/MAS spectral data file
#VERSION     : TC202v2.0 PIXL
#TITLE       : N/A
#DATE        :       Date in the format DD-MMM-YYYY, for example 07-JUL-2010
#TIME        :             The time of day at which the spectrum was recorded, in 24-hour format
#OWNER       : PIXL Flight Model       (PIXL will use this to indicate which instrument took the data.)
#NPOINTS     : 4096     Number of data points in the spectrum (This can be zero for configuration only files)
#NCOLUMNS    : 2     Number of data columns in the spectrum (This can be zero for configuration only files)
#XUNITS      : eV
#YUNITS      : COUNTS
#DATATYPE    : YY
#XPERCHAN    : 7.862, 7.881   eV per channel (separate by commas if more than one detector)
#OFFSET      : 18.5, -22.4         eV of first channel  (separate by commas if more than one detector
#SIGNALTYPE  : XRF
#YP_TEMP     : 2.46
#LIVETIME    : 8.56763, 8.56886   seconds (separate by commas if more than one detector)
#REALTIME    : 10, 10.0   seconds (separate by commas if more than one detector)
#SPECTRUM    : start of spectrum data
0, 0
0, 0
0, 0
0, 0
0, 0
0, 0
0, 0
0, 1
0, 0
1, 0
8, 1
41, 43
58, 67
6, 5
5, 1
127, 104
485, 431
109, 98
5, 3
0, 1
3, 2
2, 1
8, 1
4, 2
19, 23
32, 26
14, 19
10, 6
2, 2
1, 3
0, 2
4, 4
15, 3
47, 23
32, 14
7, 2
7, 0
2, 6
8, 4
5, 7
0, 3
9, 10
15, 15
10, 11
4, 3
4, 8
2, 11
0, 11
12, 15
22, 10
27, 12
17, 30
9, 51
55, 33
71, 49
25, 19
37, 33
483, 570
2249, 2175
1645, 1327
215, 121
19, 12
19, 24
92, 120
296, 325
241, 185
36, 25
10, 12
19, 17
10, 7
1, 6
2, 6
2, 8
4, 7
6, 7
7, 5
3, 7
5, 4
3, 5
8, 5
4, 3
2, 5
3, 3
2, 21
5, 12
5, 4
5, 1
7, 2
3, 3
3, 4
5, 7
7, 2
4, 3
3, 2
4, 5
3, 4
3, 2
3, 1
2, 5
4, 2
6, 3
2, 3
3, 1
1, 2
2, 2
3, 2
3, 1
0, 3
1, 2
0, 3
2, 2
5, 0
4, 1
3, 4
2, 3
4, 5
3, 3
3, 2
3, 1
1, 1
0, 2
0, 1
1, 2
0, 0
1, 1
2, 1
1, 1
1, 2
1, 0
1, 2
1, 1
0, 2
1, 0
0, 1
2, 0
2, 1
0, 1
1, 0
0, 0
0, 1
0, 0
1, 1
0, 0
2, 0
0, 0
2, 1
1, 0
0, 0
0, 0
0, 0
1, 0
0, 4
0, 0
0, 0
0, 3
0, 2
0, 0
2, 0
0, 1
0, 0
0, 0
0, 2
0, 0
1, 0
0, 0
1, 0
0, 0
0, 1
1, 0
0, 0
0, 0
0, 0
0, 0
0, 0
1, 0
0, 1
0, 0
0, 0
0, 0
0, 0
0, 0
0, 0
0, 0
0, 0
0, 0
0, 0
0, 0
0, 0
0, 0
0, 0
0, 0
0, 0
0, 0
0, 0
0, 1
0, 0
0, 0
0, 1
0, 0
0, 0
0, 1
0, 0
0, 0
0, 0
0, 0
0, 0
0, 0
0, 0
0, 0
0, 0
0, 0
0, 1
0, 0
0, 0
0, 0
0, 0
0, 0
0, 0
0, 0
0, 0
0, 0
0, 0
0, 0
0, 0
0, 0
0, 0
0, 0
0, 0
0, 0
0, 0
0, 0
0, 0
0, 0
0, 0
0, 0
0, 0
0, 0
0, 0
0, 0
0, 0
0, 0
0, 0
0, 0
0, 0
0, 0
0, 0
0, 0
0, 0
0, 0
0, 0
0, 0
0, 0
0, 0
0, 0
0, 0
0, 0
0, 0
0, 0
0, 0
0, 0
0, 0
0, 0
0, 0
0, 0
0, 0
0, 0
0, 0
0, 0
0, 0
0, 0
0, 0
0, 0
0, 0
0, 0
0, 0
0, 0
0, 0
0, 0
0, 0
0, 0
0, 0
0, 0
0, 0
0, 0
0, 0
0, 0
0, 0
0, 0
0, 0
0, 0
0, 0
0, 0
0, 0
0, 0
#ENDOFDATA     end of spectrum data