File: host_upload/06-09-2024/ps_0852/dump3/ps__0852shot_2043.msa
#FORMAT      : EMSA/MAS spectral data file
#VERSION     : TC202v2.0 PIXL
#TITLE       : N/A
#DATE        :       Date in the format DD-MMM-YYYY, for example 07-JUL-2010
#TIME        :             The time of day at which the spectrum was recorded, in 24-hour format
#OWNER       : PIXL Flight Model       (PIXL will use this to indicate which instrument took the data.)
#NPOINTS     : 4096     Number of data points in the spectrum (This can be zero for configuration only files)
#NCOLUMNS    : 2     Number of data columns in the spectrum (This can be zero for configuration only files)
#XUNITS      : eV
#YUNITS      : COUNTS
#DATATYPE    : YY
#XPERCHAN    : 7.862, 7.881   eV per channel (separate by commas if more than one detector)
#OFFSET      : 18.5, -22.4         eV of first channel  (separate by commas if more than one detector
#SIGNALTYPE  : XRF
#YP_TEMP     : 2.396
#LIVETIME    : 8.55823, 8.35154   seconds (separate by commas if more than one detector)
#REALTIME    : 10, 10.0   seconds (separate by commas if more than one detector)
#SPECTRUM    : start of spectrum data
0, 0
0, 0
0, 0
0, 0
0, 0
0, 0
0, 0
0, 0
2, 1
4, 15
2, 3
53, 51
56, 48
5, 2
4, 4
86, 88
442, 374
100, 88
3, 6
1, 1
1, 0
4, 4
2, 6
11, 48
36, 355
43, 479
31, 59
13, 10
4, 4
3, 2
3, 1
1, 1
3, 4
13, 14
16, 18
14, 14
10, 4
6, 5
7, 15
9, 4
5, 3
12, 7
21, 7
56, 14
74, 8
15, 10
9, 9
6, 4
5, 18
13, 25
19, 18
23, 18
42, 14
72, 43
59, 61
23, 38
31, 42
474, 609
2193, 2296
1567, 1369
197, 141
20, 26
27, 45
108, 126
309, 327
223, 208
39, 22
5, 12
12, 21
12, 16
4, 10
3, 4
1, 4
6, 8
6, 5
6, 3
6, 9
9, 8
5, 2
4, 2
2, 3
3, 1
4, 3
4, 4
4, 2
9, 6
6, 7
7, 4
2, 5
4, 2
2, 2
1, 3
4, 10
5, 4
4, 4
3, 4
4, 3
1, 1
2, 4
2, 4
1, 2
1, 1
4, 1
4, 4
6, 2
3, 1
3, 2
5, 6
1, 2
2, 0
0, 0
2, 2
1, 1
1, 2
2, 1
6, 2
4, 2
6, 3
4, 0
1, 0
0, 1
1, 1
2, 1
2, 1
3, 1
5, 0
2, 0
0, 1
3, 2
0, 1
2, 0
1, 0
0, 2
1, 3
1, 0
2, 0
1, 1
1, 3
2, 1
0, 4
0, 1
2, 0
0, 0
1, 0
0, 0
0, 0
0, 0
1, 0
0, 2
1, 2
0, 0
0, 0
0, 1
0, 1
1, 1
0, 0
0, 0
1, 0
0, 0
0, 0
0, 1
0, 0
0, 0
0, 0
2, 1
0, 0
0, 1
0, 0
0, 0
0, 0
0, 0
0, 1
0, 0
0, 1
0, 0
0, 0
0, 0
0, 0
0, 1
0, 0
0, 0
0, 0
0, 0
0, 0
0, 0
0, 0
0, 0
0, 0
0, 0
0, 0
0, 0
0, 0
0, 0
0, 0
0, 0
0, 0
0, 0
0, 0
0, 0
0, 0
0, 0
0, 0
0, 0
0, 0
0, 0
0, 1
0, 0
0, 0
1, 0
0, 0
0, 0
0, 0
0, 0
0, 0
0, 0
0, 0
0, 0
0, 0
0, 0
0, 0
0, 0
0, 0
0, 0
0, 0
0, 0
0, 0
0, 0
0, 0
0, 0
0, 0
0, 0
0, 0
0, 0
0, 0
0, 0
0, 0
0, 0
0, 0
0, 0
0, 0
0, 0
0, 0
0, 0
0, 0
0, 0
0, 0
0, 0
0, 0
0, 0
0, 0
0, 0
0, 0
0, 0
0, 0
0, 0
0, 0
0, 0
0, 0
0, 0
0, 0
0, 0
0, 0
0, 0
0, 0
0, 0
0, 0
0, 0
0, 0
0, 0
0, 0
0, 0
0, 0
0, 0
0, 0
0, 0
0, 0
0, 0
0, 0
0, 0
0, 0
0, 0
0, 0
0, 0
0, 0
0, 0
0, 0
0, 0
0, 0
0, 0
0, 0
0, 0
0, 0
0, 0
0, 0
#ENDOFDATA     end of spectrum data