File: host_upload/06-09-2024/ps_0852/dump3/ps__0852shot_2394.msa
#FORMAT      : EMSA/MAS spectral data file
#VERSION     : TC202v2.0 PIXL
#TITLE       : N/A
#DATE        :       Date in the format DD-MMM-YYYY, for example 07-JUL-2010
#TIME        :             The time of day at which the spectrum was recorded, in 24-hour format
#OWNER       : PIXL Flight Model       (PIXL will use this to indicate which instrument took the data.)
#NPOINTS     : 4096     Number of data points in the spectrum (This can be zero for configuration only files)
#NCOLUMNS    : 2     Number of data columns in the spectrum (This can be zero for configuration only files)
#XUNITS      : eV
#YUNITS      : COUNTS
#DATATYPE    : YY
#XPERCHAN    : 7.862, 7.881   eV per channel (separate by commas if more than one detector)
#OFFSET      : 18.5, -22.4         eV of first channel  (separate by commas if more than one detector
#SIGNALTYPE  : XRF
#YP_TEMP     : 2.267
#LIVETIME    : 8.56706, 8.5803   seconds (separate by commas if more than one detector)
#REALTIME    : 10, 10.0   seconds (separate by commas if more than one detector)
#SPECTRUM    : start of spectrum data
0, 0
0, 0
0, 0
0, 0
0, 0
0, 0
0, 0
0, 0
0, 0
0, 1
6, 0
44, 39
73, 66
8, 1
7, 5
91, 109
433, 450
100, 108
8, 5
0, 2
3, 3
5, 8
6, 2
10, 9
36, 34
54, 40
21, 20
16, 13
7, 4
3, 1
2, 4
1, 3
2, 4
9, 14
19, 12
2, 7
4, 8
4, 6
8, 12
5, 6
4, 6
12, 11
16, 11
16, 13
8, 11
5, 29
10, 38
10, 16
10, 8
19, 32
11, 31
11, 8
15, 14
39, 51
58, 71
32, 21
26, 32
486, 608
2209, 2535
1646, 1449
193, 143
20, 21
20, 22
104, 141
351, 411
268, 219
41, 28
14, 15
10, 35
11, 36
6, 12
9, 4
9, 6
7, 8
6, 5
5, 6
4, 4
5, 1
9, 4
7, 1
9, 4
4, 0
8, 1
6, 5
7, 3
3, 2
0, 1
4, 5
7, 8
3, 2
2, 2
4, 4
4, 7
1, 10
4, 3
2, 4
4, 2
5, 2
2, 2
3, 1
3, 5
5, 2
2, 2
4, 2
1, 0
1, 1
4, 0
1, 2
2, 5
0, 2
0, 0
2, 6
1, 4
4, 1
6, 1
5, 6
0, 5
5, 3
1, 1
1, 2
0, 1
6, 2
0, 3
3, 3
0, 1
0, 0
1, 5
0, 3
0, 0
3, 1
4, 0
2, 1
1, 1
1, 1
0, 1
0, 1
1, 1
0, 2
0, 0
0, 1
0, 0
0, 0
0, 1
0, 1
1, 0
0, 2
3, 0
1, 1
0, 0
0, 0
0, 0
0, 2
2, 0
1, 1
3, 1
0, 4
0, 0
0, 1
0, 0
1, 0
1, 0
0, 0
0, 1
1, 1
0, 0
0, 1
1, 0
0, 0
0, 1
0, 0
0, 0
2, 0
0, 0
0, 0
1, 0
0, 0
0, 0
0, 0
0, 0
1, 0
1, 0
1, 0
0, 0
0, 0
0, 0
0, 0
0, 0
0, 0
0, 0
0, 0
0, 0
0, 0
0, 1
0, 0
0, 0
0, 0
0, 0
0, 0
0, 0
0, 0
0, 0
0, 0
0, 0
0, 0
0, 0
0, 0
0, 0
0, 0
0, 0
0, 0
0, 0
0, 0
0, 0
0, 0
0, 0
0, 0
0, 0
0, 0
0, 0
1, 0
0, 0
0, 0
0, 0
0, 0
0, 0
0, 0
0, 0
0, 0
0, 0
0, 0
0, 0
0, 0
0, 0
0, 0
0, 0
0, 0
0, 0
0, 0
0, 0
0, 0
0, 0
0, 0
0, 0
0, 0
0, 0
0, 0
0, 0
0, 0
0, 0
0, 0
0, 0
0, 0
0, 0
0, 0
0, 0
0, 0
0, 0
0, 0
0, 0
0, 0
0, 0
0, 0
0, 0
0, 0
0, 0
0, 0
0, 0
0, 0
0, 0
0, 0
0, 0
0, 0
0, 0
0, 0
0, 0
0, 0
0, 0
0, 0
0, 0
0, 0
0, 0
0, 0
0, 0
0, 0
0, 0
0, 0
0, 0
0, 0
0, 0
0, 0
0, 0
0, 0
0, 0
0, 0
#ENDOFDATA     end of spectrum data