File: host_upload/06-09-2024/ps_0852/dump3/ps__0852shot_2439.msa
#FORMAT      : EMSA/MAS spectral data file
#VERSION     : TC202v2.0 PIXL
#TITLE       : N/A
#DATE        :       Date in the format DD-MMM-YYYY, for example 07-JUL-2010
#TIME        :             The time of day at which the spectrum was recorded, in 24-hour format
#OWNER       : PIXL Flight Model       (PIXL will use this to indicate which instrument took the data.)
#NPOINTS     : 4096     Number of data points in the spectrum (This can be zero for configuration only files)
#NCOLUMNS    : 2     Number of data columns in the spectrum (This can be zero for configuration only files)
#XUNITS      : eV
#YUNITS      : COUNTS
#DATATYPE    : YY
#XPERCHAN    : 7.862, 7.881   eV per channel (separate by commas if more than one detector)
#OFFSET      : 18.5, -22.4         eV of first channel  (separate by commas if more than one detector
#SIGNALTYPE  : XRF
#YP_TEMP     : 2.043
#LIVETIME    : 8.56263, 8.55723   seconds (separate by commas if more than one detector)
#REALTIME    : 10, 10.0   seconds (separate by commas if more than one detector)
#SPECTRUM    : start of spectrum data
0, 0
0, 0
0, 0
0, 0
0, 0
0, 0
0, 0
0, 0
0, 1
2, 0
2, 1
56, 50
50, 55
6, 7
5, 9
72, 97
524, 406
126, 100
4, 5
3, 1
1, 1
2, 6
2, 4
7, 3
43, 41
67, 55
19, 29
16, 9
11, 5
6, 1
3, 2
2, 3
11, 3
98, 68
153, 110
21, 32
20, 9
40, 15
27, 7
9, 7
16, 9
22, 15
12, 42
10, 48
7, 34
7, 13
8, 11
12, 5
16, 14
40, 28
51, 10
24, 7
11, 14
38, 37
69, 53
26, 21
36, 46
375, 438
1892, 1794
1366, 1066
154, 117
33, 15
41, 25
116, 75
323, 274
220, 162
28, 16
9, 10
16, 17
8, 6
4, 6
7, 12
5, 7
6, 6
13, 6
31, 9
23, 9
12, 14
4, 1
3, 3
2, 4
4, 3
0, 4
2, 4
4, 0
6, 4
6, 6
5, 7
6, 4
4, 2
5, 3
3, 1
5, 2
3, 3
6, 2
6, 4
4, 2
6, 2
3, 3
3, 0
3, 1
3, 3
3, 3
2, 1
0, 1
1, 1
2, 0
3, 4
3, 2
3, 1
2, 2
0, 0
1, 4
3, 0
1, 3
3, 1
2, 2
8, 1
3, 2
3, 0
0, 2
2, 2
1, 2
2, 1
1, 0
3, 0
1, 2
1, 1
4, 0
1, 0
1, 0
1, 0
0, 0
1, 1
1, 1
1, 1
0, 0
0, 0
3, 1
0, 0
2, 1
0, 0
1, 1
0, 0
0, 0
0, 0
0, 0
1, 0
0, 2
1, 0
0, 1
0, 0
1, 0
0, 0
0, 0
0, 0
0, 0
0, 1
1, 0
1, 0
0, 0
1, 0
0, 1
0, 0
0, 0
1, 0
0, 0
0, 0
1, 0
0, 0
0, 0
0, 0
2, 1
1, 0
0, 0
0, 0
0, 0
1, 0
0, 0
0, 0
0, 0
0, 0
0, 0
0, 0
0, 1
0, 0
0, 0
0, 0
1, 0
0, 0
0, 0
0, 0
0, 0
1, 0
0, 0
0, 0
0, 0
0, 0
0, 0
0, 0
1, 0
0, 0
0, 0
0, 0
0, 0
0, 0
0, 0
0, 0
0, 1
0, 0
0, 0
0, 0
0, 0
0, 0
0, 0
0, 0
0, 0
0, 0
0, 0
0, 0
0, 0
0, 0
0, 0
0, 0
0, 0
0, 0
0, 0
0, 0
0, 0
0, 0
0, 0
0, 0
0, 0
0, 0
0, 0
0, 0
0, 0
0, 0
0, 0
0, 0
0, 0
0, 0
0, 0
0, 0
0, 0
0, 0
0, 0
0, 0
0, 0
0, 0
0, 0
0, 0
0, 0
0, 0
0, 0
0, 0
0, 0
0, 0
0, 0
0, 0
0, 0
0, 0
0, 0
0, 0
0, 0
0, 0
0, 0
0, 0
0, 0
0, 0
0, 0
0, 0
0, 0
0, 0
0, 0
0, 0
0, 0
0, 0
0, 0
0, 0
0, 0
0, 0
0, 0
0, 0
0, 0
0, 0
0, 0
0, 0
0, 0
0, 0
0, 0
0, 0
0, 0
0, 0
#ENDOFDATA     end of spectrum data