File: host_upload/06-09-2024/ps_0852/dump3/ps__0852shot_2372.msa
#FORMAT      : EMSA/MAS spectral data file
#VERSION     : TC202v2.0 PIXL
#TITLE       : N/A
#DATE        :       Date in the format DD-MMM-YYYY, for example 07-JUL-2010
#TIME        :             The time of day at which the spectrum was recorded, in 24-hour format
#OWNER       : PIXL Flight Model       (PIXL will use this to indicate which instrument took the data.)
#NPOINTS     : 4096     Number of data points in the spectrum (This can be zero for configuration only files)
#NCOLUMNS    : 2     Number of data columns in the spectrum (This can be zero for configuration only files)
#XUNITS      : eV
#YUNITS      : COUNTS
#DATATYPE    : YY
#XPERCHAN    : 7.862, 7.881   eV per channel (separate by commas if more than one detector)
#OFFSET      : 18.5, -22.4         eV of first channel  (separate by commas if more than one detector
#SIGNALTYPE  : XRF
#YP_TEMP     : 2.203
#LIVETIME    : 8.57553, 8.56803   seconds (separate by commas if more than one detector)
#REALTIME    : 10, 10.0   seconds (separate by commas if more than one detector)
#SPECTRUM    : start of spectrum data
0, 0
0, 0
0, 0
0, 0
0, 0
0, 0
0, 0
0, 0
0, 3
1, 1
4, 1
54, 52
78, 75
8, 3
3, 1
97, 85
482, 388
105, 101
3, 4
0, 2
0, 1
4, 0
2, 2
5, 4
18, 23
14, 26
13, 19
10, 8
2, 2
2, 1
3, 1
4, 1
1, 1
17, 8
8, 21
10, 6
3, 5
2, 7
1, 8
4, 6
10, 4
7, 10
18, 46
62, 45
97, 6
18, 6
7, 4
6, 5
7, 8
18, 15
13, 21
6, 8
11, 5
48, 37
75, 44
29, 12
20, 28
507, 557
2339, 2243
1612, 1315
225, 137
123, 15
107, 19
134, 128
337, 323
237, 165
31, 24
7, 18
14, 10
3, 7
2, 3
2, 2
5, 1
1, 2
4, 2
9, 3
5, 5
10, 1
9, 2
3, 3
3, 3
0, 3
2, 3
3, 4
4, 24
3, 34
3, 9
6, 2
6, 2
9, 7
15, 1
12, 0
3, 0
2, 1
4, 4
2, 7
1, 1
1, 2
3, 2
5, 0
4, 4
5, 6
2, 2
2, 3
1, 2
2, 0
4, 6
2, 2
1, 1
2, 3
2, 2
1, 1
0, 1
3, 3
2, 1
5, 5
2, 4
2, 1
0, 1
2, 1
1, 1
1, 4
4, 3
2, 2
2, 2
0, 1
2, 1
1, 0
2, 2
1, 1
1, 0
1, 1
1, 0
1, 0
0, 1
0, 2
1, 0
1, 1
1, 1
1, 1
0, 1
0, 0
0, 1
0, 0
1, 3
0, 0
0, 0
1, 2
0, 1
0, 0
0, 2
0, 1
0, 0
0, 0
0, 0
0, 0
0, 0
0, 0
0, 0
0, 0
0, 0
0, 0
0, 0
0, 0
0, 0
0, 0
2, 1
0, 1
1, 0
0, 0
0, 0
0, 0
0, 0
0, 1
0, 0
0, 0
0, 0
0, 0
0, 0
0, 0
1, 0
0, 1
1, 0
0, 0
0, 0
0, 1
1, 0
0, 0
0, 0
0, 0
0, 0
0, 0
1, 0
0, 0
0, 0
0, 0
0, 0
0, 0
0, 0
0, 0
0, 0
0, 1
0, 0
0, 0
0, 0
0, 0
0, 0
0, 0
0, 0
0, 0
0, 0
0, 0
0, 0
0, 0
0, 0
0, 0
0, 0
0, 0
0, 0
0, 0
0, 0
0, 0
0, 0
0, 0
0, 0
0, 0
0, 0
0, 0
0, 0
0, 0
0, 0
0, 0
0, 0
0, 0
0, 0
0, 0
0, 0
0, 0
0, 0
0, 0
0, 0
0, 0
0, 0
0, 0
0, 0
0, 0
0, 0
0, 0
0, 0
0, 0
0, 0
0, 0
0, 0
0, 0
0, 0
0, 0
0, 0
0, 0
0, 0
0, 0
0, 0
0, 0
0, 0
0, 0
0, 0
0, 0
0, 0
0, 0
0, 0
0, 0
0, 0
0, 0
0, 0
0, 0
0, 0
0, 0
0, 0
0, 0
0, 0
0, 0
0, 0
0, 0
0, 0
0, 0
0, 0
0, 0
0, 0
0, 0
0, 0
0, 0
0, 0
0, 0
0, 0
0, 0
#ENDOFDATA     end of spectrum data