File: host_upload/06-09-2024/ps_0852/dump3/ps__0852shot_2526.msa
#FORMAT      : EMSA/MAS spectral data file
#VERSION     : TC202v2.0 PIXL
#TITLE       : N/A
#DATE        :       Date in the format DD-MMM-YYYY, for example 07-JUL-2010
#TIME        :             The time of day at which the spectrum was recorded, in 24-hour format
#OWNER       : PIXL Flight Model       (PIXL will use this to indicate which instrument took the data.)
#NPOINTS     : 4096     Number of data points in the spectrum (This can be zero for configuration only files)
#NCOLUMNS    : 2     Number of data columns in the spectrum (This can be zero for configuration only files)
#XUNITS      : eV
#YUNITS      : COUNTS
#DATATYPE    : YY
#XPERCHAN    : 7.862, 7.881   eV per channel (separate by commas if more than one detector)
#OFFSET      : 18.5, -22.4         eV of first channel  (separate by commas if more than one detector
#SIGNALTYPE  : XRF
#YP_TEMP     : 2.3
#LIVETIME    : 8.54518, 8.54309   seconds (separate by commas if more than one detector)
#REALTIME    : 10, 10.0   seconds (separate by commas if more than one detector)
#SPECTRUM    : start of spectrum data
0, 0
0, 0
0, 0
0, 0
0, 0
0, 0
0, 0
0, 0
0, 0
3, 0
2, 1
40, 37
50, 56
6, 2
5, 2
79, 91
445, 445
99, 104
1, 7
2, 3
19, 15
86, 93
42, 36
26, 13
47, 42
41, 39
28, 25
16, 6
2, 3
1, 3
4, 4
6, 1
10, 4
51, 40
74, 55
12, 34
4, 19
10, 10
5, 3
2, 0
5, 5
13, 15
9, 25
11, 9
7, 10
7, 20
6, 23
3, 5
10, 5
16, 28
35, 48
9, 27
7, 10
28, 44
72, 52
23, 28
19, 54
451, 540
2046, 2224
1484, 1197
196, 134
33, 14
22, 27
122, 115
343, 369
218, 195
27, 27
6, 10
8, 11
11, 7
7, 2
5, 6
4, 7
6, 12
4, 8
3, 5
4, 4
6, 10
7, 2
15, 5
12, 8
9, 6
6, 5
13, 4
12, 7
6, 6
10, 7
6, 3
4, 3
4, 5
2, 11
4, 8
2, 6
1, 3
4, 6
8, 1
5, 3
2, 2
4, 2
5, 7
1, 4
0, 3
5, 1
4, 0
4, 1
2, 2
2, 5
1, 2
3, 3
2, 2
3, 4
3, 1
1, 3
3, 4
0, 1
2, 1
8, 2
4, 5
2, 2
2, 4
4, 1
3, 2
3, 5
2, 2
1, 0
2, 1
1, 2
0, 1
2, 1
1, 1
0, 1
1, 1
0, 0
0, 4
0, 3
0, 2
0, 0
0, 1
1, 1
2, 1
0, 2
2, 0
0, 0
2, 0
0, 1
2, 1
0, 1
0, 1
0, 0
1, 0
0, 0
0, 2
0, 0
0, 0
0, 0
1, 1
1, 1
1, 0
0, 0
1, 0
1, 0
0, 0
0, 0
0, 0
0, 0
0, 0
3, 0
0, 0
1, 0
1, 2
0, 0
1, 0
0, 0
1, 0
1, 0
0, 0
0, 0
0, 0
0, 0
0, 0
0, 0
0, 0
0, 0
0, 1
0, 0
0, 0
0, 0
0, 0
0, 1
0, 0
0, 0
0, 0
0, 0
0, 0
0, 0
0, 0
0, 0
0, 0
0, 0
0, 0
0, 0
0, 0
0, 0
0, 0
1, 0
0, 1
0, 0
0, 0
0, 0
0, 0
0, 0
0, 0
0, 0
0, 0
0, 0
0, 0
0, 0
0, 0
1, 0
0, 0
0, 0
0, 0
0, 0
0, 0
0, 0
0, 0
0, 0
0, 0
0, 0
0, 0
0, 0
0, 0
0, 0
0, 0
0, 0
0, 0
0, 0
0, 0
0, 0
0, 0
0, 0
0, 0
0, 0
0, 0
0, 0
0, 0
0, 0
0, 0
0, 0
0, 0
0, 0
0, 0
1, 0
0, 0
0, 0
0, 0
0, 0
0, 0
0, 0
0, 0
0, 0
0, 0
0, 0
0, 0
0, 0
0, 0
0, 0
0, 0
0, 0
0, 0
0, 0
0, 0
0, 0
0, 0
0, 0
0, 0
0, 0
0, 0
0, 0
0, 0
0, 0
0, 0
0, 0
0, 0
0, 0
0, 0
0, 0
0, 0
0, 0
0, 0
0, 0
0, 0
0, 0
0, 0
#ENDOFDATA     end of spectrum data