File: host_upload/06-09-2024/ps_0852/dump3/ps__0852shot_2228.msa
#FORMAT      : EMSA/MAS spectral data file
#VERSION     : TC202v2.0 PIXL
#TITLE       : N/A
#DATE        :       Date in the format DD-MMM-YYYY, for example 07-JUL-2010
#TIME        :             The time of day at which the spectrum was recorded, in 24-hour format
#OWNER       : PIXL Flight Model       (PIXL will use this to indicate which instrument took the data.)
#NPOINTS     : 4096     Number of data points in the spectrum (This can be zero for configuration only files)
#NCOLUMNS    : 2     Number of data columns in the spectrum (This can be zero for configuration only files)
#XUNITS      : eV
#YUNITS      : COUNTS
#DATATYPE    : YY
#XPERCHAN    : 7.862, 7.881   eV per channel (separate by commas if more than one detector)
#OFFSET      : 18.5, -22.4         eV of first channel  (separate by commas if more than one detector
#SIGNALTYPE  : XRF
#YP_TEMP     : 2.3
#LIVETIME    : 8.55503, 8.52593   seconds (separate by commas if more than one detector)
#REALTIME    : 10, 10.0   seconds (separate by commas if more than one detector)
#SPECTRUM    : start of spectrum data
0, 0
0, 0
0, 0
0, 0
0, 0
0, 0
0, 0
0, 1
0, 24
0, 88
5, 16
49, 56
70, 51
6, 12
0, 8
103, 83
426, 402
101, 101
3, 7
0, 5
1, 5
3, 1
1, 7
4, 140
24, 2818
26, 4046
16, 448
12, 19
0, 4
9, 0
3, 0
1, 2
5, 3
6, 18
10, 7
8, 5
24, 5
17, 10
3, 41
4, 58
4, 18
9, 15
9, 10
36, 7
77, 9
30, 4
8, 2
7, 8
5, 47
11, 123
13, 39
12, 6
15, 15
28, 50
46, 56
26, 19
29, 30
514, 565
2272, 2256
1745, 1304
216, 138
17, 19
21, 46
107, 127
326, 337
242, 204
36, 25
6, 12
12, 16
6, 5
4, 3
3, 8
8, 29
13, 73
8, 54
5, 9
6, 6
6, 1
6, 3
5, 6
4, 3
5, 15
6, 11
4, 18
4, 5
8, 5
0, 8
2, 7
4, 5
0, 4
1, 3
5, 0
3, 3
4, 1
17, 2
15, 0
19, 3
9, 13
2, 12
4, 4
3, 1
1, 3
6, 1
1, 3
0, 2
3, 1
1, 2
4, 2
3, 5
3, 1
4, 2
0, 5
0, 2
4, 1
0, 2
2, 1
3, 3
1, 2
1, 2
7, 2
3, 0
1, 1
2, 2
2, 3
0, 1
1, 1
0, 1
0, 0
0, 1
0, 0
0, 0
2, 0
2, 0
2, 1
0, 0
0, 0
2, 0
0, 0
0, 2
1, 0
0, 0
1, 2
0, 1
0, 0
0, 1
1, 0
1, 1
2, 1
1, 0
1, 0
1, 0
0, 0
0, 0
1, 0
1, 0
0, 2
0, 0
0, 2
0, 0
1, 1
1, 1
0, 0
0, 1
0, 0
0, 0
0, 0
2, 0
0, 1
0, 1
1, 0
0, 1
1, 0
0, 0
1, 0
1, 0
0, 0
0, 0
0, 0
0, 0
0, 0
0, 0
0, 0
0, 0
0, 0
0, 0
0, 0
0, 0
0, 0
0, 0
0, 0
0, 0
0, 0
0, 0
0, 0
0, 0
0, 0
0, 0
0, 0
0, 0
0, 0
0, 0
0, 0
0, 0
0, 0
0, 0
0, 0
0, 0
0, 0
0, 0
0, 0
0, 0
0, 0
0, 0
0, 0
0, 0
0, 0
0, 0
0, 0
0, 0
0, 0
0, 0
0, 0
0, 0
0, 0
0, 0
0, 0
0, 0
0, 0
0, 0
0, 0
0, 0
0, 0
0, 0
0, 0
0, 0
0, 0
0, 0
0, 0
0, 0
0, 0
0, 0
0, 0
0, 0
0, 0
0, 0
0, 0
0, 0
0, 0
0, 0
0, 0
0, 0
0, 0
0, 0
0, 0
0, 0
0, 0
0, 0
0, 0
0, 0
0, 0
0, 0
0, 0
0, 0
0, 0
0, 0
0, 0
0, 0
0, 0
0, 0
0, 0
0, 0
0, 0
0, 0
0, 0
0, 0
0, 0
0, 0
0, 0
0, 0
0, 0
0, 0
0, 0
0, 0
0, 0
0, 0
0, 0
0, 0
0, 0
0, 0
0, 0
0, 0
0, 0
0, 0
0, 0
#ENDOFDATA     end of spectrum data