File: host_upload/06-09-2024/ps_0852/dump3/ps__0852shot_2212.msa
#FORMAT      : EMSA/MAS spectral data file
#VERSION     : TC202v2.0 PIXL
#TITLE       : N/A
#DATE        :       Date in the format DD-MMM-YYYY, for example 07-JUL-2010
#TIME        :             The time of day at which the spectrum was recorded, in 24-hour format
#OWNER       : PIXL Flight Model       (PIXL will use this to indicate which instrument took the data.)
#NPOINTS     : 4096     Number of data points in the spectrum (This can be zero for configuration only files)
#NCOLUMNS    : 2     Number of data columns in the spectrum (This can be zero for configuration only files)
#XUNITS      : eV
#YUNITS      : COUNTS
#DATATYPE    : YY
#XPERCHAN    : 7.862, 7.881   eV per channel (separate by commas if more than one detector)
#OFFSET      : 18.5, -22.4         eV of first channel  (separate by commas if more than one detector
#SIGNALTYPE  : XRF
#YP_TEMP     : 2.332
#LIVETIME    : 8.56595, 8.53079   seconds (separate by commas if more than one detector)
#REALTIME    : 10, 10.0   seconds (separate by commas if more than one detector)
#SPECTRUM    : start of spectrum data
0, 0
0, 0
0, 0
0, 0
0, 0
0, 0
0, 0
0, 0
0, 0
1, 0
1, 0
46, 44
55, 53
4, 2
3, 1
113, 97
432, 446
104, 106
5, 3
1, 1
1, 1
3, 2
4, 4
5, 3
24, 15
47, 6
25, 10
15, 6
5, 6
1, 7
3, 5
1, 0
1, 5
8, 15
17, 14
2, 2
2, 3
11, 6
20, 5
30, 2
48, 3
25, 12
12, 54
11, 45
6, 18
5, 13
3, 10
3, 10
2, 10
12, 13
25, 13
33, 7
60, 6
88, 44
81, 55
22, 14
25, 44
468, 590
2226, 2314
1683, 1341
218, 139
10, 19
31, 18
123, 126
315, 364
249, 208
33, 24
11, 8
11, 24
8, 6
9, 3
2, 8
5, 12
7, 3
5, 9
13, 7
12, 7
11, 12
11, 9
13, 4
4, 7
4, 5
6, 6
4, 1
2, 3
0, 3
2, 0
7, 7
1, 3
4, 6
3, 5
15, 1
7, 5
3, 18
1, 8
3, 6
1, 1
0, 4
4, 0
4, 2
5, 0
3, 1
1, 1
1, 2
3, 4
2, 0
0, 2
1, 3
2, 2
3, 2
0, 4
1, 3
1, 2
0, 4
3, 0
4, 3
3, 4
1, 0
2, 0
3, 1
2, 1
3, 2
5, 2
1, 2
1, 1
1, 0
1, 0
1, 1
1, 2
0, 1
4, 2
2, 0
1, 1
0, 0
1, 1
1, 1
1, 0
0, 0
2, 0
0, 0
0, 1
0, 0
0, 0
1, 0
1, 1
0, 0
0, 1
0, 1
1, 0
1, 2
1, 0
0, 0
0, 0
1, 0
0, 0
0, 0
0, 0
0, 2
1, 1
0, 0
1, 0
0, 0
0, 1
0, 0
0, 0
0, 0
0, 0
1, 0
1, 0
1, 1
0, 0
0, 0
1, 1
1, 0
0, 0
0, 0
0, 0
0, 0
0, 0
0, 0
0, 0
0, 0
0, 0
0, 0
0, 1
0, 0
1, 1
0, 0
0, 0
0, 0
1, 0
1, 0
0, 0
0, 0
0, 1
0, 0
0, 0
0, 0
0, 0
0, 0
0, 0
0, 0
0, 0
0, 0
1, 0
0, 0
0, 0
0, 0
1, 0
0, 0
0, 0
0, 0
0, 0
0, 0
0, 0
0, 0
0, 0
0, 0
0, 0
0, 0
0, 0
0, 0
0, 0
0, 0
0, 0
0, 0
0, 0
0, 0
0, 0
0, 0
0, 0
0, 0
0, 0
0, 0
0, 0
0, 0
0, 0
0, 0
0, 0
0, 0
0, 0
0, 0
0, 0
0, 0
0, 0
0, 0
0, 0
0, 0
0, 0
0, 0
0, 0
0, 0
0, 0
0, 0
0, 0
0, 0
0, 0
0, 0
0, 0
0, 0
0, 0
0, 0
0, 0
0, 0
0, 0
0, 0
0, 0
0, 0
0, 0
0, 0
0, 0
0, 0
0, 0
0, 0
0, 0
0, 0
0, 0
0, 0
0, 0
0, 0
0, 0
0, 0
0, 0
0, 0
0, 0
0, 0
0, 0
0, 0
0, 0
0, 0
0, 0
0, 0
0, 0
0, 0
#ENDOFDATA     end of spectrum data