File: host_upload/06-09-2024/ps_0852/dump3/ps__0852shot_2029.msa
#FORMAT      : EMSA/MAS spectral data file
#VERSION     : TC202v2.0 PIXL
#TITLE       : N/A
#DATE        :       Date in the format DD-MMM-YYYY, for example 07-JUL-2010
#TIME        :             The time of day at which the spectrum was recorded, in 24-hour format
#OWNER       : PIXL Flight Model       (PIXL will use this to indicate which instrument took the data.)
#NPOINTS     : 4096     Number of data points in the spectrum (This can be zero for configuration only files)
#NCOLUMNS    : 2     Number of data columns in the spectrum (This can be zero for configuration only files)
#XUNITS      : eV
#YUNITS      : COUNTS
#DATATYPE    : YY
#XPERCHAN    : 7.862, 7.881   eV per channel (separate by commas if more than one detector)
#OFFSET      : 18.5, -22.4         eV of first channel  (separate by commas if more than one detector
#SIGNALTYPE  : XRF
#YP_TEMP     : 2.556
#LIVETIME    : 8.57873, 8.55155   seconds (separate by commas if more than one detector)
#REALTIME    : 10, 10.0   seconds (separate by commas if more than one detector)
#SPECTRUM    : start of spectrum data
0, 0
0, 0
0, 0
0, 0
0, 0
0, 0
0, 0
1, 1
0, 1
2, 0
6, 2
46, 36
50, 48
11, 7
5, 13
105, 95
367, 391
83, 96
6, 9
6, 2
57, 44
277, 231
101, 89
22, 26
51, 54
55, 34
31, 23
11, 10
4, 4
1, 2
6, 10
6, 4
9, 3
55, 50
81, 76
22, 23
53, 9
56, 18
60, 14
43, 12
8, 23
15, 46
20, 29
10, 14
6, 10
10, 10
9, 6
7, 2
6, 8
17, 26
24, 14
8, 14
15, 49
34, 74
57, 72
20, 18
32, 51
412, 556
1910, 2179
1417, 1270
182, 143
15, 14
15, 19
95, 114
284, 322
200, 172
45, 21
8, 21
12, 25
7, 18
2, 10
3, 11
5, 4
10, 10
6, 2
10, 8
15, 4
9, 6
6, 8
7, 6
3, 5
5, 13
3, 10
2, 7
4, 6
4, 5
1, 3
4, 4
4, 6
2, 1
2, 4
2, 1
5, 7
1, 3
6, 3
8, 1
3, 5
7, 4
6, 6
9, 3
1, 1
3, 1
1, 2
3, 1
4, 1
0, 0
1, 4
2, 1
3, 4
2, 3
2, 3
2, 4
4, 2
5, 2
0, 5
3, 3
6, 6
2, 2
0, 3
0, 0
2, 1
1, 2
1, 1
1, 1
4, 0
2, 1
0, 1
3, 0
1, 0
0, 1
0, 2
0, 0
1, 1
0, 0
0, 0
0, 0
0, 0
0, 2
0, 0
0, 3
1, 0
0, 1
0, 0
1, 0
0, 1
0, 0
0, 0
0, 1
0, 0
1, 0
1, 0
0, 2
1, 0
2, 0
2, 0
0, 0
0, 0
0, 0
1, 1
1, 0
1, 0
1, 0
1, 0
0, 0
0, 0
0, 0
0, 0
0, 0
0, 0
0, 0
0, 0
0, 0
0, 0
0, 0
0, 0
0, 1
0, 0
0, 0
0, 0
0, 0
0, 0
0, 0
1, 0
0, 0
0, 0
0, 0
0, 0
0, 1
0, 0
0, 0
0, 0
0, 0
0, 0
0, 0
0, 0
0, 0
1, 0
0, 0
0, 0
0, 0
0, 0
0, 0
0, 0
0, 0
0, 0
0, 0
0, 0
0, 0
0, 0
0, 0
0, 0
0, 0
0, 0
0, 0
0, 0
0, 0
0, 0
0, 0
0, 0
0, 0
0, 0
0, 0
0, 0
0, 0
0, 0
0, 0
0, 0
0, 0
0, 0
0, 0
0, 0
0, 0
0, 0
0, 0
0, 0
0, 0
0, 0
0, 0
0, 0
0, 0
0, 0
0, 0
0, 0
0, 0
0, 0
0, 0
0, 0
0, 0
0, 0
0, 0
0, 0
0, 0
0, 0
0, 0
0, 0
0, 0
0, 0
0, 0
0, 0
0, 0
0, 0
0, 0
0, 0
0, 0
0, 0
0, 0
0, 0
0, 0
0, 0
0, 0
0, 0
0, 0
0, 0
0, 0
0, 0
0, 0
0, 0
0, 0
0, 0
0, 0
0, 0
0, 0
0, 0
0, 0
0, 0
0, 0
0, 0
0, 0
0, 0
0, 0
0, 0
0, 0
0, 0
0, 0
#ENDOFDATA     end of spectrum data