File: host_upload/06-09-2024/ps_0852/dump3/ps__0852shot_2132.msa
#FORMAT      : EMSA/MAS spectral data file
#VERSION     : TC202v2.0 PIXL
#TITLE       : N/A
#DATE        :       Date in the format DD-MMM-YYYY, for example 07-JUL-2010
#TIME        :             The time of day at which the spectrum was recorded, in 24-hour format
#OWNER       : PIXL Flight Model       (PIXL will use this to indicate which instrument took the data.)
#NPOINTS     : 4096     Number of data points in the spectrum (This can be zero for configuration only files)
#NCOLUMNS    : 2     Number of data columns in the spectrum (This can be zero for configuration only files)
#XUNITS      : eV
#YUNITS      : COUNTS
#DATATYPE    : YY
#XPERCHAN    : 7.862, 7.881   eV per channel (separate by commas if more than one detector)
#OFFSET      : 18.5, -22.4         eV of first channel  (separate by commas if more than one detector
#SIGNALTYPE  : XRF
#YP_TEMP     : 2.3
#LIVETIME    : 8.5695, 8.58503   seconds (separate by commas if more than one detector)
#REALTIME    : 10, 10.0   seconds (separate by commas if more than one detector)
#SPECTRUM    : start of spectrum data
0, 0
0, 0
0, 0
0, 0
0, 0
0, 0
0, 0
0, 0
6, 2
9, 2
2, 3
42, 40
55, 43
7, 6
2, 6
92, 96
431, 420
100, 92
5, 7
5, 3
5, 2
17, 26
10, 7
27, 23
343, 53
502, 76
60, 47
16, 11
4, 4
1, 0
3, 3
10, 2
10, 0
17, 6
21, 25
4, 12
11, 39
8, 46
4, 20
5, 10
2, 10
8, 11
9, 10
14, 17
18, 6
6, 7
9, 7
7, 12
6, 23
13, 24
12, 6
8, 6
4, 7
50, 45
47, 70
29, 74
29, 81
457, 614
2070, 2357
1621, 1405
173, 171
21, 53
48, 32
178, 124
377, 341
237, 212
25, 24
7, 10
15, 14
11, 7
0, 6
8, 9
8, 8
8, 2
1, 6
4, 6
6, 3
1, 4
2, 2
3, 5
3, 1
8, 4
4, 2
3, 2
2, 4
6, 5
5, 2
2, 2
8, 4
4, 2
1, 8
3, 8
6, 1
2, 0
3, 4
5, 6
2, 3
6, 4
2, 4
3, 3
2, 1
0, 1
1, 0
1, 2
3, 1
2, 0
3, 2
0, 0
2, 1
2, 2
2, 3
1, 1
0, 6
3, 1
0, 3
0, 4
10, 4
3, 3
0, 3
0, 1
1, 1
1, 3
3, 5
0, 1
2, 0
3, 2
0, 1
1, 1
1, 0
0, 0
1, 0
1, 0
0, 2
0, 0
2, 1
1, 1
1, 0
2, 0
1, 1
0, 1
1, 1
0, 0
0, 1
0, 0
0, 0
1, 1
1, 0
0, 1
2, 1
1, 0
0, 0
0, 1
0, 0
0, 0
0, 0
0, 2
0, 0
1, 1
0, 1
0, 0
0, 0
0, 0
1, 0
0, 0
0, 0
1, 0
0, 0
1, 0
0, 0
0, 0
0, 0
0, 0
0, 0
1, 0
0, 0
0, 1
0, 0
0, 1
0, 0
0, 0
0, 0
0, 1
0, 0
0, 0
0, 0
0, 1
0, 1
0, 0
0, 0
0, 0
0, 0
0, 0
0, 0
0, 0
0, 0
0, 0
0, 0
0, 0
0, 0
0, 0
0, 0
0, 0
0, 0
0, 0
0, 0
0, 0
0, 0
0, 0
0, 0
0, 0
0, 0
0, 0
0, 1
0, 0
0, 0
0, 0
0, 0
0, 0
0, 0
0, 0
0, 0
0, 0
0, 0
0, 0
0, 0
0, 0
0, 0
0, 0
0, 0
0, 0
0, 1
0, 0
0, 0
0, 0
0, 0
0, 0
0, 0
0, 0
0, 0
0, 0
0, 0
0, 0
0, 0
0, 0
0, 0
0, 0
0, 0
0, 0
0, 0
0, 0
0, 0
0, 0
0, 0
0, 0
0, 0
0, 0
0, 0
0, 0
0, 0
0, 0
0, 0
0, 0
0, 0
0, 0
0, 0
0, 0
0, 0
0, 0
0, 0
0, 0
0, 0
0, 0
0, 0
0, 0
0, 0
0, 0
0, 0
0, 0
0, 0
0, 0
0, 0
0, 0
0, 0
0, 0
0, 0
0, 0
0, 0
0, 0
0, 0
0, 0
0, 0
0, 0
0, 0
0, 0
#ENDOFDATA     end of spectrum data