File: host_upload/06-09-2024/ps_0852/dump3/ps__0852shot_2414.msa
#FORMAT      : EMSA/MAS spectral data file
#VERSION     : TC202v2.0 PIXL
#TITLE       : N/A
#DATE        :       Date in the format DD-MMM-YYYY, for example 07-JUL-2010
#TIME        :             The time of day at which the spectrum was recorded, in 24-hour format
#OWNER       : PIXL Flight Model       (PIXL will use this to indicate which instrument took the data.)
#NPOINTS     : 4096     Number of data points in the spectrum (This can be zero for configuration only files)
#NCOLUMNS    : 2     Number of data columns in the spectrum (This can be zero for configuration only files)
#XUNITS      : eV
#YUNITS      : COUNTS
#DATATYPE    : YY
#XPERCHAN    : 7.862, 7.881   eV per channel (separate by commas if more than one detector)
#OFFSET      : 18.5, -22.4         eV of first channel  (separate by commas if more than one detector
#SIGNALTYPE  : XRF
#YP_TEMP     : 2.492
#LIVETIME    : 8.56529, 8.54039   seconds (separate by commas if more than one detector)
#REALTIME    : 10, 10.0   seconds (separate by commas if more than one detector)
#SPECTRUM    : start of spectrum data
0, 0
0, 0
0, 0
0, 0
0, 0
0, 0
0, 0
1, 0
1, 3
3, 1
1, 2
50, 33
63, 55
7, 3
7, 4
110, 98
510, 386
118, 80
10, 3
3, 2
1, 4
8, 10
3, 2
4, 6
30, 22
44, 26
24, 20
13, 10
8, 3
0, 3
5, 3
2, 2
3, 2
13, 6
13, 11
7, 2
8, 6
6, 7
9, 5
26, 3
39, 2
11, 4
15, 14
7, 9
5, 14
2, 9
8, 7
6, 9
9, 8
11, 8
20, 7
29, 5
43, 11
95, 41
83, 51
13, 15
31, 34
462, 510
2312, 2115
1649, 1257
206, 130
18, 73
18, 81
108, 127
364, 323
243, 186
43, 16
10, 6
12, 14
14, 11
7, 1
5, 3
8, 5
3, 4
0, 8
9, 4
8, 3
4, 18
6, 11
8, 5
6, 14
3, 7
5, 8
4, 0
1, 1
6, 6
1, 12
2, 7
6, 5
6, 4
5, 9
6, 1
5, 4
2, 11
2, 4
2, 3
3, 5
2, 2
3, 2
1, 3
3, 3
4, 0
2, 1
2, 1
1, 2
2, 2
1, 4
3, 5
3, 4
3, 4
0, 2
3, 3
1, 2
0, 0
2, 0
5, 4
5, 3
1, 6
1, 2
2, 4
1, 0
0, 1
0, 3
2, 3
1, 1
0, 0
0, 0
3, 1
0, 0
3, 2
1, 4
4, 0
0, 2
2, 1
0, 0
0, 0
0, 1
1, 1
3, 0
4, 1
1, 2
0, 2
0, 0
0, 0
0, 0
1, 0
1, 0
1, 0
0, 1
0, 1
0, 0
0, 0
1, 0
1, 0
0, 0
0, 0
0, 0
0, 0
1, 0
0, 1
1, 0
1, 1
1, 0
1, 0
1, 1
0, 0
1, 0
0, 0
0, 0
1, 1
1, 0
0, 1
0, 0
0, 0
1, 0
0, 0
0, 0
1, 0
0, 0
0, 0
0, 0
1, 0
0, 0
1, 0
0, 0
0, 0
0, 0
0, 0
0, 0
0, 0
1, 0
0, 0
0, 1
0, 0
0, 0
0, 0
0, 0
0, 0
0, 0
0, 0
0, 0
0, 0
0, 1
0, 0
0, 0
0, 0
0, 0
0, 0
0, 0
0, 0
0, 0
0, 0
0, 0
0, 0
0, 0
0, 0
0, 0
0, 0
0, 0
0, 0
0, 0
0, 1
0, 0
0, 0
0, 0
0, 0
0, 0
0, 0
0, 0
0, 0
0, 0
0, 0
0, 0
0, 0
0, 0
0, 0
0, 0
0, 0
0, 0
0, 0
0, 0
0, 0
0, 0
0, 0
0, 0
0, 0
0, 0
0, 0
0, 0
0, 0
0, 0
0, 0
0, 0
0, 0
0, 0
0, 0
0, 0
0, 0
0, 0
0, 0
0, 0
0, 0
0, 0
0, 0
0, 0
0, 0
0, 0
0, 0
0, 0
0, 0
0, 0
0, 0
0, 0
0, 0
0, 0
0, 0
0, 0
0, 0
0, 0
0, 0
0, 0
0, 0
0, 0
0, 0
0, 0
0, 0
0, 0
0, 0
0, 0
0, 0
0, 0
0, 0
0, 0
0, 0
#ENDOFDATA     end of spectrum data