File: host_upload/06-09-2024/ps_0852/dump3/ps__0852shot_2040.msa
#FORMAT      : EMSA/MAS spectral data file
#VERSION     : TC202v2.0 PIXL
#TITLE       : N/A
#DATE        :       Date in the format DD-MMM-YYYY, for example 07-JUL-2010
#TIME        :             The time of day at which the spectrum was recorded, in 24-hour format
#OWNER       : PIXL Flight Model       (PIXL will use this to indicate which instrument took the data.)
#NPOINTS     : 4096     Number of data points in the spectrum (This can be zero for configuration only files)
#NCOLUMNS    : 2     Number of data columns in the spectrum (This can be zero for configuration only files)
#XUNITS      : eV
#YUNITS      : COUNTS
#DATATYPE    : YY
#XPERCHAN    : 7.862, 7.881   eV per channel (separate by commas if more than one detector)
#OFFSET      : 18.5, -22.4         eV of first channel  (separate by commas if more than one detector
#SIGNALTYPE  : XRF
#YP_TEMP     : 2.364
#LIVETIME    : 8.56645, 8.54964   seconds (separate by commas if more than one detector)
#REALTIME    : 10, 10.0   seconds (separate by commas if more than one detector)
#SPECTRUM    : start of spectrum data
0, 0
0, 0
0, 0
0, 0
0, 0
0, 0
0, 0
0, 0
3, 0
1, 1
3, 1
34, 38
62, 46
5, 8
1, 8
107, 95
427, 382
120, 95
8, 6
2, 2
3, 5
7, 8
10, 5
7, 13
62, 31
73, 30
25, 17
10, 11
2, 2
1, 0
4, 1
3, 3
0, 8
16, 22
9, 17
4, 4
6, 3
5, 7
3, 8
1, 4
3, 6
8, 9
21, 16
23, 5
7, 3
10, 5
11, 3
5, 10
5, 15
11, 21
11, 19
13, 10
23, 12
46, 55
58, 66
26, 24
31, 48
512, 560
2107, 2253
1585, 1360
229, 155
16, 14
20, 35
103, 165
340, 376
237, 201
51, 22
19, 8
17, 12
21, 11
10, 6
5, 7
1, 4
5, 6
7, 6
5, 6
5, 2
4, 4
3, 1
1, 8
4, 8
5, 7
13, 5
6, 2
5, 1
7, 5
1, 3
4, 4
3, 2
4, 5
2, 14
7, 8
3, 12
3, 5
4, 4
4, 3
1, 3
4, 1
1, 3
3, 1
6, 3
2, 2
2, 3
0, 1
1, 1
1, 3
4, 1
2, 3
2, 2
2, 0
2, 1
1, 2
1, 0
0, 3
2, 3
1, 5
0, 3
5, 6
3, 1
2, 1
2, 1
6, 2
2, 2
2, 1
1, 1
1, 3
2, 0
1, 1
1, 1
1, 1
4, 0
1, 0
2, 0
0, 2
1, 1
0, 2
0, 2
1, 1
1, 1
0, 1
1, 0
0, 1
0, 0
0, 0
0, 0
1, 0
0, 0
1, 1
0, 0
0, 0
0, 1
1, 1
0, 2
0, 0
0, 1
2, 0
0, 0
0, 2
0, 0
1, 0
0, 0
0, 0
0, 0
0, 0
1, 0
0, 0
0, 0
0, 0
2, 0
0, 0
0, 0
1, 1
1, 0
1, 0
0, 1
0, 0
0, 0
0, 0
0, 0
1, 0
0, 0
0, 0
0, 0
0, 1
0, 0
1, 0
0, 0
0, 0
0, 0
0, 0
0, 0
0, 0
0, 0
0, 0
0, 0
0, 0
0, 0
0, 0
0, 0
0, 0
0, 0
0, 0
0, 0
0, 0
0, 0
0, 0
0, 0
0, 0
0, 0
0, 0
0, 0
0, 0
0, 0
0, 0
0, 0
0, 0
0, 0
0, 0
0, 0
0, 1
0, 0
0, 0
0, 0
0, 0
0, 0
0, 0
0, 0
0, 0
0, 0
0, 0
0, 0
0, 0
0, 0
0, 0
0, 0
0, 0
0, 0
0, 0
0, 0
0, 0
0, 0
0, 0
0, 0
0, 0
0, 0
0, 0
0, 0
0, 0
0, 0
0, 0
0, 0
0, 0
0, 0
0, 0
0, 0
0, 0
0, 0
0, 0
0, 0
0, 0
0, 0
0, 0
0, 0
0, 0
0, 0
0, 0
0, 0
0, 0
0, 0
0, 0
0, 0
0, 0
0, 0
0, 0
0, 0
0, 0
0, 0
0, 0
0, 0
0, 0
0, 0
0, 0
0, 0
0, 0
0, 0
0, 0
0, 0
0, 0
0, 0
0, 0
0, 0
0, 0
0, 0
0, 0
#ENDOFDATA     end of spectrum data