File: host_upload/06-09-2024/ps_0852/dump3/ps__0852shot_2387.msa
#FORMAT      : EMSA/MAS spectral data file
#VERSION     : TC202v2.0 PIXL
#TITLE       : N/A
#DATE        :       Date in the format DD-MMM-YYYY, for example 07-JUL-2010
#TIME        :             The time of day at which the spectrum was recorded, in 24-hour format
#OWNER       : PIXL Flight Model       (PIXL will use this to indicate which instrument took the data.)
#NPOINTS     : 4096     Number of data points in the spectrum (This can be zero for configuration only files)
#NCOLUMNS    : 2     Number of data columns in the spectrum (This can be zero for configuration only files)
#XUNITS      : eV
#YUNITS      : COUNTS
#DATATYPE    : YY
#XPERCHAN    : 7.862, 7.881   eV per channel (separate by commas if more than one detector)
#OFFSET      : 18.5, -22.4         eV of first channel  (separate by commas if more than one detector
#SIGNALTYPE  : XRF
#YP_TEMP     : 2.364
#LIVETIME    : 8.54624, 8.57013   seconds (separate by commas if more than one detector)
#REALTIME    : 10, 10.0   seconds (separate by commas if more than one detector)
#SPECTRUM    : start of spectrum data
0, 0
0, 0
0, 0
0, 0
0, 0
0, 0
0, 0
0, 0
1, 0
0, 0
4, 4
43, 40
69, 69
3, 5
5, 3
101, 92
440, 435
109, 98
9, 3
1, 2
1, 1
3, 3
2, 6
1, 4
11, 22
18, 19
27, 18
29, 8
10, 1
4, 1
3, 3
2, 4
6, 1
7, 18
19, 10
7, 7
5, 6
6, 10
6, 2
68, 5
97, 6
34, 4
11, 14
8, 11
3, 6
1, 8
3, 12
3, 10
10, 2
10, 16
8, 27
36, 19
78, 11
150, 43
101, 53
38, 23
36, 25
474, 560
2233, 2344
1561, 1437
190, 136
18, 17
19, 25
93, 127
333, 339
235, 210
34, 29
11, 12
16, 10
7, 8
6, 3
1, 4
2, 2
3, 4
5, 3
5, 5
5, 4
5, 10
10, 14
24, 4
14, 10
2, 25
2, 10
4, 4
6, 3
4, 2
3, 5
2, 2
2, 2
1, 2
8, 4
4, 7
13, 10
7, 26
5, 17
1, 5
1, 6
2, 6
4, 5
2, 1
4, 2
1, 2
3, 3
2, 0
2, 2
4, 1
2, 1
1, 3
2, 1
2, 0
3, 2
6, 2
1, 4
0, 3
2, 2
4, 3
2, 5
8, 4
5, 2
1, 1
0, 1
0, 2
5, 3
2, 4
2, 0
1, 2
3, 3
0, 2
1, 0
0, 1
2, 0
0, 2
2, 0
1, 0
1, 1
0, 0
1, 1
1, 2
2, 0
0, 0
1, 1
3, 0
0, 0
0, 2
2, 1
0, 0
1, 1
0, 1
1, 0
0, 2
1, 0
1, 0
0, 0
2, 0
0, 0
1, 1
0, 0
0, 0
2, 0
0, 1
0, 1
0, 0
0, 0
0, 0
0, 0
0, 0
0, 0
0, 0
0, 1
0, 0
0, 0
1, 1
1, 0
0, 0
1, 0
0, 0
0, 0
0, 1
1, 0
0, 0
1, 0
0, 0
0, 0
0, 2
0, 1
1, 0
0, 0
0, 0
0, 0
0, 0
0, 0
0, 0
0, 0
0, 0
0, 0
1, 0
0, 0
0, 0
0, 0
0, 0
0, 0
0, 0
0, 0
0, 0
0, 1
0, 0
1, 0
0, 0
0, 0
0, 0
0, 0
0, 0
0, 0
0, 0
0, 0
0, 0
0, 0
0, 0
0, 0
0, 0
0, 0
0, 0
0, 0
0, 0
0, 0
0, 0
0, 0
0, 0
0, 0
0, 0
0, 0
0, 0
0, 0
0, 0
0, 0
0, 0
0, 0
0, 0
0, 0
0, 0
0, 0
0, 0
0, 0
0, 0
0, 0
0, 0
0, 0
0, 0
0, 0
0, 0
0, 0
0, 0
0, 0
0, 0
0, 0
0, 0
0, 0
0, 0
0, 0
0, 0
0, 0
0, 0
0, 0
0, 0
0, 0
0, 0
0, 0
0, 0
0, 0
0, 0
0, 0
0, 0
0, 0
0, 0
0, 0
0, 0
0, 0
0, 0
0, 0
0, 0
0, 0
0, 0
0, 0
0, 0
0, 0
0, 0
0, 0
0, 0
0, 0
0, 0
0, 0
0, 0
0, 0
0, 0
#ENDOFDATA     end of spectrum data