File: host_upload/06-09-2024/ps_0852/dump3/ps__0852shot_2230.msa
#FORMAT      : EMSA/MAS spectral data file
#VERSION     : TC202v2.0 PIXL
#TITLE       : N/A
#DATE        :       Date in the format DD-MMM-YYYY, for example 07-JUL-2010
#TIME        :             The time of day at which the spectrum was recorded, in 24-hour format
#OWNER       : PIXL Flight Model       (PIXL will use this to indicate which instrument took the data.)
#NPOINTS     : 4096     Number of data points in the spectrum (This can be zero for configuration only files)
#NCOLUMNS    : 2     Number of data columns in the spectrum (This can be zero for configuration only files)
#XUNITS      : eV
#YUNITS      : COUNTS
#DATATYPE    : YY
#XPERCHAN    : 7.862, 7.881   eV per channel (separate by commas if more than one detector)
#OFFSET      : 18.5, -22.4         eV of first channel  (separate by commas if more than one detector
#SIGNALTYPE  : XRF
#YP_TEMP     : 2.364
#LIVETIME    : 8.55557, 8.55098   seconds (separate by commas if more than one detector)
#REALTIME    : 10, 10.0   seconds (separate by commas if more than one detector)
#SPECTRUM    : start of spectrum data
0, 0
0, 0
0, 0
0, 0
0, 0
0, 0
0, 0
0, 0
2, 3
0, 6
3, 5
31, 33
43, 46
9, 5
3, 8
103, 102
390, 395
79, 118
4, 1
2, 0
1, 3
2, 9
3, 2
10, 37
27, 452
41, 551
18, 81
8, 18
2, 3
9, 4
4, 1
2, 1
3, 0
5, 14
13, 16
1, 3
2, 10
5, 2
6, 12
10, 13
6, 5
10, 10
14, 19
43, 8
88, 7
38, 4
10, 6
3, 19
8, 51
9, 39
16, 20
12, 7
12, 8
38, 28
48, 62
22, 17
31, 36
455, 611
2148, 2168
1516, 1324
214, 130
16, 30
21, 27
96, 116
321, 336
219, 205
30, 27
8, 8
20, 9
8, 7
8, 8
5, 6
6, 24
20, 31
15, 10
8, 4
6, 2
5, 0
2, 6
6, 5
3, 1
2, 1
4, 5
2, 9
4, 13
3, 11
2, 2
3, 2
9, 1
5, 1
10, 1
11, 1
9, 0
3, 2
3, 1
4, 6
4, 6
4, 6
2, 7
1, 2
3, 3
2, 5
1, 1
0, 2
3, 3
0, 1
0, 1
1, 3
1, 7
2, 7
3, 2
4, 0
1, 2
3, 0
4, 0
3, 1
1, 2
3, 3
3, 2
1, 3
1, 2
2, 0
0, 3
1, 1
0, 2
0, 0
1, 2
1, 2
0, 1
0, 0
2, 1
0, 1
0, 1
1, 0
0, 1
0, 0
0, 0
0, 1
1, 0
0, 1
0, 0
0, 1
0, 1
0, 1
0, 1
1, 0
1, 0
1, 0
0, 0
1, 0
1, 0
2, 0
0, 0
1, 1
0, 0
0, 0
1, 0
0, 1
0, 1
0, 0
0, 0
1, 0
0, 0
0, 0
0, 0
1, 0
1, 1
0, 0
2, 0
1, 0
0, 0
0, 1
0, 0
1, 0
0, 0
0, 0
0, 0
0, 0
0, 0
0, 0
0, 0
0, 0
0, 0
0, 0
0, 0
0, 0
0, 0
0, 0
0, 0
0, 0
0, 0
0, 0
0, 1
1, 0
1, 0
0, 0
0, 0
0, 0
0, 0
0, 0
0, 0
0, 0
0, 0
0, 0
0, 0
0, 0
0, 0
0, 0
0, 0
0, 0
0, 0
0, 0
0, 0
0, 0
0, 0
0, 0
0, 0
0, 0
0, 0
0, 0
0, 0
0, 0
0, 0
0, 0
0, 0
0, 0
0, 0
0, 0
0, 0
0, 0
0, 0
0, 0
0, 0
0, 0
0, 0
0, 0
0, 0
0, 0
0, 0
0, 0
0, 0
0, 0
0, 0
0, 0
0, 0
0, 0
0, 0
0, 0
0, 0
0, 0
0, 0
0, 0
0, 0
0, 0
0, 0
0, 0
0, 0
0, 0
0, 0
0, 0
0, 0
0, 0
0, 0
0, 0
0, 0
0, 0
0, 0
0, 0
0, 0
0, 0
0, 0
0, 0
0, 0
0, 0
0, 0
0, 0
0, 0
0, 0
0, 0
0, 0
0, 0
0, 0
0, 0
0, 0
0, 0
0, 0
0, 0
0, 0
0, 0
0, 0
0, 0
0, 0
0, 0
0, 0
#ENDOFDATA     end of spectrum data