File: host_upload/06-09-2024/ps_0852/dump3/ps__0852shot_2054.msa
#FORMAT      : EMSA/MAS spectral data file
#VERSION     : TC202v2.0 PIXL
#TITLE       : N/A
#DATE        :       Date in the format DD-MMM-YYYY, for example 07-JUL-2010
#TIME        :             The time of day at which the spectrum was recorded, in 24-hour format
#OWNER       : PIXL Flight Model       (PIXL will use this to indicate which instrument took the data.)
#NPOINTS     : 4096     Number of data points in the spectrum (This can be zero for configuration only files)
#NCOLUMNS    : 2     Number of data columns in the spectrum (This can be zero for configuration only files)
#XUNITS      : eV
#YUNITS      : COUNTS
#DATATYPE    : YY
#XPERCHAN    : 7.862, 7.881   eV per channel (separate by commas if more than one detector)
#OFFSET      : 18.5, -22.4         eV of first channel  (separate by commas if more than one detector
#SIGNALTYPE  : XRF
#YP_TEMP     : 2.492
#LIVETIME    : 8.53859, 8.54386   seconds (separate by commas if more than one detector)
#REALTIME    : 10, 10.0   seconds (separate by commas if more than one detector)
#SPECTRUM    : start of spectrum data
0, 0
0, 0
0, 0
0, 0
0, 0
0, 0
0, 0
1, 0
0, 0
1, 2
2, 2
44, 51
65, 58
9, 4
9, 7
103, 97
463, 377
101, 105
9, 4
2, 1
2, 0
3, 3
2, 2
3, 10
25, 16
28, 27
20, 21
13, 12
7, 8
4, 1
2, 2
2, 1
2, 2
7, 14
12, 14
4, 2
7, 1
6, 3
5, 3
2, 8
4, 4
6, 6
11, 13
9, 6
6, 4
10, 10
7, 13
11, 7
3, 13
12, 30
9, 12
21, 7
38, 16
52, 53
50, 55
27, 18
53, 39
506, 543
2278, 2211
1652, 1316
222, 122
20, 25
19, 18
112, 118
327, 327
265, 169
54, 21
11, 7
21, 22
6, 10
11, 4
12, 5
3, 3
8, 1
5, 4
6, 6
4, 2
3, 8
5, 4
8, 1
4, 7
9, 3
11, 4
9, 2
6, 9
5, 3
1, 4
1, 7
3, 1
1, 4
5, 2
5, 3
3, 3
3, 6
1, 2
4, 5
3, 1
3, 5
5, 2
4, 5
0, 2
1, 2
3, 2
2, 1
2, 3
3, 2
5, 1
3, 1
2, 3
1, 0
3, 1
5, 1
0, 0
3, 3
2, 2
4, 4
3, 6
1, 6
2, 3
1, 2
2, 1
2, 0
5, 2
3, 1
1, 0
1, 0
1, 2
0, 0
1, 1
1, 1
0, 1
1, 0
1, 1
3, 2
2, 0
0, 1
2, 0
0, 3
2, 0
1, 1
0, 1
0, 0
1, 1
1, 1
0, 0
1, 0
1, 0
0, 0
0, 0
0, 0
0, 1
0, 0
0, 2
0, 1
2, 0
1, 0
0, 0
0, 0
1, 0
2, 0
0, 0
1, 0
0, 0
0, 0
1, 0
0, 0
1, 0
0, 0
0, 0
0, 0
0, 0
0, 0
0, 0
0, 0
0, 0
0, 0
0, 0
0, 0
0, 0
0, 0
0, 0
0, 0
1, 1
0, 0
1, 0
0, 0
1, 0
0, 0
0, 0
0, 0
0, 0
0, 0
0, 0
0, 0
0, 0
0, 0
0, 0
0, 0
0, 0
0, 0
0, 0
0, 0
0, 0
0, 0
0, 0
0, 0
0, 0
0, 0
0, 0
0, 0
0, 0
0, 0
0, 0
0, 0
0, 0
0, 0
0, 0
0, 0
0, 0
0, 0
0, 0
0, 0
0, 0
0, 0
0, 0
0, 0
0, 0
0, 0
0, 0
0, 0
0, 0
0, 0
0, 0
0, 0
0, 0
0, 0
0, 0
0, 0
0, 0
0, 0
0, 0
0, 0
0, 0
0, 0
0, 0
0, 0
0, 0
0, 0
0, 0
0, 0
0, 1
0, 0
0, 0
0, 0
0, 0
0, 0
0, 0
0, 0
0, 0
0, 0
0, 0
0, 0
0, 0
0, 0
0, 0
0, 0
0, 0
0, 0
0, 0
0, 0
0, 0
0, 0
0, 0
0, 0
0, 0
0, 0
0, 0
0, 0
0, 0
0, 0
0, 0
0, 0
0, 0
0, 0
0, 0
0, 0
0, 0
0, 0
0, 0
0, 0
0, 0
0, 0
0, 0
0, 0
#ENDOFDATA     end of spectrum data