File: host_upload/06-09-2024/ps_0852/dump3/ps__0852shot_2441.msa
#FORMAT      : EMSA/MAS spectral data file
#VERSION     : TC202v2.0 PIXL
#TITLE       : N/A
#DATE        :       Date in the format DD-MMM-YYYY, for example 07-JUL-2010
#TIME        :             The time of day at which the spectrum was recorded, in 24-hour format
#OWNER       : PIXL Flight Model       (PIXL will use this to indicate which instrument took the data.)
#NPOINTS     : 4096     Number of data points in the spectrum (This can be zero for configuration only files)
#NCOLUMNS    : 2     Number of data columns in the spectrum (This can be zero for configuration only files)
#XUNITS      : eV
#YUNITS      : COUNTS
#DATATYPE    : YY
#XPERCHAN    : 7.862, 7.881   eV per channel (separate by commas if more than one detector)
#OFFSET      : 18.5, -22.4         eV of first channel  (separate by commas if more than one detector
#SIGNALTYPE  : XRF
#YP_TEMP     : 2.364
#LIVETIME    : 8.55337, 8.54236   seconds (separate by commas if more than one detector)
#REALTIME    : 10, 10.0   seconds (separate by commas if more than one detector)
#SPECTRUM    : start of spectrum data
0, 0
0, 0
0, 0
0, 0
0, 0
0, 0
0, 0
0, 0
0, 6
2, 8
2, 3
38, 56
53, 50
7, 7
3, 4
91, 107
453, 402
105, 97
7, 7
1, 1
1, 2
4, 7
3, 4
7, 19
49, 314
63, 410
22, 61
16, 13
3, 5
3, 3
3, 5
4, 3
0, 2
10, 18
23, 17
6, 5
3, 5
14, 7
4, 5
10, 8
10, 3
14, 8
20, 24
13, 16
25, 10
21, 5
21, 13
6, 6
5, 12
21, 7
18, 10
18, 9
6, 19
33, 51
65, 57
34, 22
33, 53
494, 562
2310, 2220
1625, 1362
207, 155
17, 36
33, 28
88, 125
348, 326
227, 179
39, 18
10, 8
23, 9
18, 8
11, 8
5, 3
6, 4
6, 6
6, 7
7, 7
6, 8
9, 13
5, 7
3, 2
8, 3
7, 3
10, 8
7, 8
4, 4
4, 2
2, 6
9, 3
5, 7
4, 6
3, 3
7, 6
7, 5
2, 2
3, 3
1, 3
5, 4
4, 3
2, 3
2, 4
3, 2
1, 2
1, 3
2, 3
3, 3
4, 1
0, 3
2, 0
1, 3
0, 3
2, 2
4, 0
1, 3
1, 2
1, 1
4, 4
4, 5
6, 3
2, 3
1, 2
0, 0
3, 1
3, 4
1, 2
0, 2
1, 0
2, 0
2, 1
1, 2
4, 2
0, 2
2, 0
0, 1
2, 3
0, 0
1, 0
0, 3
1, 2
2, 0
0, 1
2, 0
1, 0
0, 0
1, 2
1, 0
1, 0
1, 0
1, 1
0, 0
0, 0
0, 0
0, 1
1, 0
0, 2
0, 1
0, 1
0, 0
0, 0
1, 0
0, 0
0, 0
0, 1
0, 2
0, 1
0, 1
0, 0
0, 1
1, 1
0, 2
0, 0
0, 0
0, 0
0, 0
0, 1
1, 0
0, 1
0, 0
0, 0
0, 1
0, 0
0, 0
0, 0
0, 0
0, 0
0, 0
0, 0
0, 0
0, 0
0, 0
0, 0
0, 0
1, 1
0, 0
0, 0
0, 1
0, 0
0, 0
0, 0
0, 0
0, 0
0, 0
0, 0
0, 0
1, 0
0, 0
0, 0
0, 0
0, 0
0, 0
0, 0
0, 0
0, 0
0, 0
0, 0
0, 0
0, 0
0, 0
0, 0
0, 0
0, 0
0, 0
0, 0
0, 0
0, 0
0, 0
0, 0
0, 0
0, 0
0, 0
0, 0
0, 0
0, 0
0, 0
0, 0
0, 0
0, 0
0, 0
0, 0
0, 0
0, 0
0, 0
0, 0
0, 0
0, 0
0, 0
0, 0
0, 0
0, 0
0, 0
0, 0
0, 0
0, 0
0, 0
0, 0
0, 0
0, 0
0, 0
0, 0
0, 0
0, 0
0, 0
0, 0
0, 0
0, 0
0, 0
0, 0
0, 0
0, 0
0, 0
0, 0
0, 0
0, 0
0, 0
0, 0
0, 0
0, 0
0, 0
0, 0
0, 0
0, 0
0, 0
0, 0
0, 0
0, 0
0, 0
0, 0
0, 0
0, 0
0, 0
0, 0
0, 0
0, 0
0, 0
0, 0
#ENDOFDATA     end of spectrum data