File: host_upload/06-09-2024/ps_0852/dump3/ps__0852shot_2399.msa
#FORMAT      : EMSA/MAS spectral data file
#VERSION     : TC202v2.0 PIXL
#TITLE       : N/A
#DATE        :       Date in the format DD-MMM-YYYY, for example 07-JUL-2010
#TIME        :             The time of day at which the spectrum was recorded, in 24-hour format
#OWNER       : PIXL Flight Model       (PIXL will use this to indicate which instrument took the data.)
#NPOINTS     : 4096     Number of data points in the spectrum (This can be zero for configuration only files)
#NCOLUMNS    : 2     Number of data columns in the spectrum (This can be zero for configuration only files)
#XUNITS      : eV
#YUNITS      : COUNTS
#DATATYPE    : YY
#XPERCHAN    : 7.862, 7.881   eV per channel (separate by commas if more than one detector)
#OFFSET      : 18.5, -22.4         eV of first channel  (separate by commas if more than one detector
#SIGNALTYPE  : XRF
#YP_TEMP     : 2.428
#LIVETIME    : 8.57316, 8.57173   seconds (separate by commas if more than one detector)
#REALTIME    : 10, 10.0   seconds (separate by commas if more than one detector)
#SPECTRUM    : start of spectrum data
0, 0
0, 0
0, 0
0, 0
0, 0
0, 0
0, 0
0, 0
0, 17
0, 64
3, 12
53, 42
71, 54
7, 9
1, 9
99, 88
430, 401
118, 101
6, 7
0, 4
3, 4
5, 10
4, 13
8, 108
16, 2086
27, 3136
21, 350
11, 12
5, 6
7, 1
4, 3
1, 2
0, 2
9, 7
13, 13
11, 6
28, 4
34, 8
7, 44
4, 90
3, 21
9, 15
11, 13
31, 9
60, 4
26, 5
12, 7
13, 7
8, 38
9, 99
17, 30
11, 4
13, 15
49, 51
74, 47
40, 23
40, 29
507, 598
2311, 2167
1742, 1293
209, 119
23, 11
27, 44
96, 124
365, 344
240, 181
40, 21
11, 14
19, 10
12, 10
6, 2
2, 6
5, 27
11, 73
8, 46
6, 14
5, 5
4, 4
3, 9
2, 2
8, 4
2, 2
4, 7
1, 12
3, 7
2, 4
6, 5
3, 9
3, 3
4, 5
4, 1
2, 2
2, 2
2, 7
14, 1
22, 4
15, 3
4, 9
1, 5
1, 4
0, 4
4, 1
2, 2
3, 1
1, 0
0, 6
3, 2
1, 7
2, 4
5, 3
6, 3
0, 7
5, 3
0, 0
0, 3
4, 3
2, 1
0, 3
0, 4
2, 1
2, 2
1, 4
3, 4
0, 3
0, 3
1, 0
0, 1
2, 0
0, 0
1, 1
1, 1
1, 3
2, 1
0, 2
0, 0
0, 1
1, 0
1, 1
2, 0
0, 0
0, 0
0, 1
0, 0
0, 0
1, 2
1, 0
3, 0
3, 2
0, 1
0, 1
0, 1
0, 1
1, 0
2, 0
0, 0
0, 1
0, 0
2, 0
0, 0
1, 0
0, 0
1, 0
1, 1
0, 1
0, 0
0, 0
0, 0
0, 0
0, 0
0, 1
0, 0
0, 1
1, 0
0, 0
1, 0
0, 0
0, 0
1, 0
0, 1
0, 0
0, 0
0, 0
1, 1
0, 0
0, 0
0, 1
0, 0
0, 0
0, 1
0, 0
0, 0
0, 0
0, 1
0, 0
0, 0
0, 0
0, 0
0, 0
1, 0
0, 0
0, 0
0, 1
0, 0
0, 0
0, 0
0, 0
0, 0
0, 0
0, 0
0, 0
0, 0
0, 0
0, 0
0, 0
0, 0
1, 0
0, 0
0, 0
0, 0
0, 0
0, 0
0, 0
0, 0
0, 0
0, 0
0, 0
0, 0
0, 0
0, 0
0, 0
0, 0
0, 0
0, 0
0, 0
0, 0
0, 0
0, 0
0, 0
0, 0
0, 0
0, 0
0, 0
0, 0
0, 0
0, 0
0, 0
0, 0
0, 0
0, 0
0, 0
0, 0
0, 0
0, 0
0, 0
0, 0
0, 0
0, 0
0, 0
0, 0
0, 0
0, 0
0, 0
0, 0
0, 0
0, 0
0, 0
0, 0
0, 0
0, 0
0, 0
0, 0
0, 0
0, 0
0, 0
0, 0
0, 0
0, 0
0, 0
0, 0
0, 0
0, 0
0, 0
0, 0
0, 0
0, 0
0, 0
0, 0
0, 0
0, 0
0, 0
0, 0
0, 0
0, 0
0, 0
#ENDOFDATA     end of spectrum data