File: host_upload/06-09-2024/ps_0852/dump3/ps__0852shot_2051.msa
#FORMAT      : EMSA/MAS spectral data file
#VERSION     : TC202v2.0 PIXL
#TITLE       : N/A
#DATE        :       Date in the format DD-MMM-YYYY, for example 07-JUL-2010
#TIME        :             The time of day at which the spectrum was recorded, in 24-hour format
#OWNER       : PIXL Flight Model       (PIXL will use this to indicate which instrument took the data.)
#NPOINTS     : 4096     Number of data points in the spectrum (This can be zero for configuration only files)
#NCOLUMNS    : 2     Number of data columns in the spectrum (This can be zero for configuration only files)
#XUNITS      : eV
#YUNITS      : COUNTS
#DATATYPE    : YY
#XPERCHAN    : 7.862, 7.881   eV per channel (separate by commas if more than one detector)
#OFFSET      : 18.5, -22.4         eV of first channel  (separate by commas if more than one detector
#SIGNALTYPE  : XRF
#YP_TEMP     : 2.332
#LIVETIME    : 8.53309, 8.55494   seconds (separate by commas if more than one detector)
#REALTIME    : 10, 10.0   seconds (separate by commas if more than one detector)
#SPECTRUM    : start of spectrum data
0, 0
0, 0
0, 0
0, 0
0, 0
0, 0
0, 0
0, 1
1, 4
3, 19
2, 2
51, 45
65, 48
8, 8
4, 2
110, 103
424, 398
105, 84
10, 7
2, 3
2, 2
2, 3
3, 1
2, 56
13, 862
26, 1208
14, 132
12, 11
5, 8
7, 2
5, 2
0, 2
2, 5
11, 12
11, 12
10, 8
7, 4
5, 2
5, 8
3, 9
5, 5
11, 5
22, 13
48, 13
64, 3
32, 6
4, 7
8, 5
5, 23
12, 43
10, 16
10, 5
14, 9
41, 41
62, 52
21, 17
42, 31
495, 556
2229, 2113
1680, 1333
213, 153
23, 9
22, 36
97, 133
339, 364
256, 204
34, 23
2, 11
14, 9
12, 4
3, 2
6, 4
8, 15
13, 28
9, 16
4, 10
4, 4
11, 7
3, 3
5, 7
2, 2
2, 3
4, 4
5, 5
2, 3
5, 1
3, 4
4, 6
8, 4
5, 6
2, 4
4, 1
2, 7
0, 7
10, 3
17, 3
9, 1
5, 9
7, 5
3, 3
2, 0
2, 3
3, 3
2, 6
5, 3
0, 1
2, 2
0, 6
2, 3
0, 1
2, 3
2, 0
2, 3
1, 2
1, 1
3, 4
3, 2
4, 5
1, 1
1, 1
1, 1
0, 1
3, 2
2, 3
0, 1
0, 1
2, 0
1, 0
0, 0
1, 1
1, 0
0, 2
0, 0
1, 1
2, 0
0, 0
1, 0
0, 0
1, 1
0, 0
1, 0
1, 1
0, 0
1, 0
0, 0
0, 0
0, 1
0, 0
1, 2
1, 0
0, 0
1, 0
1, 0
0, 1
0, 0
0, 1
0, 0
0, 1
0, 0
1, 0
0, 0
1, 0
0, 0
2, 0
1, 0
0, 1
0, 0
0, 1
0, 0
0, 0
1, 0
1, 0
1, 0
1, 1
0, 0
0, 0
1, 0
0, 0
0, 1
0, 0
1, 1
0, 1
0, 0
0, 0
0, 0
0, 0
0, 0
0, 0
0, 0
0, 0
0, 0
0, 0
0, 0
0, 0
0, 0
0, 0
0, 0
0, 0
0, 0
0, 0
0, 0
0, 0
0, 0
0, 0
0, 0
0, 0
0, 0
0, 0
0, 0
0, 0
0, 0
0, 0
0, 0
0, 0
0, 1
0, 0
0, 0
0, 0
0, 0
0, 0
0, 0
0, 0
0, 0
0, 0
0, 0
0, 0
0, 0
0, 0
0, 0
0, 0
0, 0
0, 0
0, 0
0, 0
0, 0
0, 0
0, 0
0, 0
0, 0
0, 0
0, 0
0, 0
0, 0
0, 0
0, 0
0, 0
0, 0
0, 0
0, 0
0, 0
0, 0
0, 0
0, 0
0, 0
0, 0
0, 0
0, 0
0, 0
0, 0
0, 0
0, 0
0, 0
0, 0
0, 0
0, 0
0, 0
0, 0
0, 0
0, 0
0, 0
0, 0
0, 0
0, 0
0, 0
0, 0
0, 0
0, 0
0, 0
0, 0
0, 0
0, 0
0, 0
0, 0
0, 0
0, 0
0, 0
0, 0
0, 0
0, 0
0, 0
0, 0
0, 0
0, 0
0, 0
#ENDOFDATA     end of spectrum data