File: host_upload/06-09-2024/ps_0852/dump3/ps__0852shot_2431.msa
#FORMAT      : EMSA/MAS spectral data file
#VERSION     : TC202v2.0 PIXL
#TITLE       : N/A
#DATE        :       Date in the format DD-MMM-YYYY, for example 07-JUL-2010
#TIME        :             The time of day at which the spectrum was recorded, in 24-hour format
#OWNER       : PIXL Flight Model       (PIXL will use this to indicate which instrument took the data.)
#NPOINTS     : 4096     Number of data points in the spectrum (This can be zero for configuration only files)
#NCOLUMNS    : 2     Number of data columns in the spectrum (This can be zero for configuration only files)
#XUNITS      : eV
#YUNITS      : COUNTS
#DATATYPE    : YY
#XPERCHAN    : 7.862, 7.881   eV per channel (separate by commas if more than one detector)
#OFFSET      : 18.5, -22.4         eV of first channel  (separate by commas if more than one detector
#SIGNALTYPE  : XRF
#YP_TEMP     : 2.524
#LIVETIME    : 8.54777, 8.56048   seconds (separate by commas if more than one detector)
#REALTIME    : 10, 10.0   seconds (separate by commas if more than one detector)
#SPECTRUM    : start of spectrum data
0, 0
0, 0
0, 0
0, 0
0, 0
0, 0
0, 0
0, 0
0, 0
1, 0
3, 2
36, 32
56, 26
6, 8
5, 7
119, 78
528, 426
140, 82
5, 8
1, 3
1, 1
17, 6
10, 4
16, 11
66, 57
43, 28
33, 27
14, 11
5, 5
3, 6
6, 2
4, 3
7, 5
100, 76
176, 143
27, 17
19, 13
21, 22
8, 9
3, 4
4, 18
15, 78
13, 49
9, 10
7, 1
7, 2
9, 6
11, 5
10, 15
33, 35
26, 21
15, 11
8, 11
46, 32
80, 56
26, 27
34, 29
465, 466
2253, 2023
1503, 1199
193, 142
43, 18
34, 20
108, 103
328, 289
229, 160
39, 25
8, 11
20, 32
11, 55
9, 27
5, 6
5, 3
6, 5
9, 3
6, 3
4, 4
4, 8
4, 3
7, 8
3, 4
4, 4
4, 6
6, 2
3, 4
6, 2
4, 1
9, 4
5, 5
5, 6
6, 5
7, 0
1, 2
4, 1
4, 2
4, 4
10, 5
13, 3
11, 4
11, 5
5, 3
2, 4
1, 2
4, 2
0, 3
7, 1
2, 2
2, 0
1, 4
5, 4
3, 2
1, 2
0, 2
3, 2
4, 1
1, 4
3, 4
2, 2
1, 1
2, 5
0, 1
2, 1
1, 1
3, 3
2, 3
0, 2
2, 0
4, 1
1, 0
0, 1
0, 0
3, 0
0, 2
1, 0
0, 0
2, 1
0, 0
2, 1
1, 0
0, 0
1, 1
1, 1
2, 1
0, 1
2, 0
0, 0
1, 1
0, 0
0, 0
0, 0
1, 0
0, 0
1, 0
0, 0
0, 0
0, 0
0, 0
0, 1
0, 0
0, 1
0, 0
0, 0
0, 0
0, 0
0, 0
0, 0
0, 1
1, 0
0, 1
1, 0
1, 0
0, 0
0, 0
0, 0
2, 0
1, 0
0, 0
1, 1
0, 0
0, 0
0, 0
0, 0
0, 0
1, 0
0, 1
0, 0
1, 0
0, 0
0, 0
0, 0
0, 0
0, 0
0, 0
0, 0
0, 0
0, 0
0, 0
0, 0
0, 0
0, 0
0, 0
0, 0
0, 0
0, 0
0, 0
0, 0
0, 0
0, 0
0, 0
0, 0
0, 0
0, 0
0, 0
0, 0
0, 0
0, 0
0, 0
0, 0
0, 0
0, 0
0, 0
0, 0
0, 0
0, 0
0, 0
0, 0
0, 0
0, 0
0, 0
0, 0
0, 0
0, 0
0, 0
0, 0
0, 0
0, 0
0, 0
0, 0
0, 0
0, 0
0, 0
0, 0
0, 0
0, 0
0, 0
0, 0
0, 0
0, 0
0, 0
0, 0
0, 0
0, 0
0, 0
0, 0
0, 0
0, 0
0, 0
0, 0
0, 0
0, 0
0, 0
0, 0
0, 0
0, 0
0, 0
0, 0
0, 0
0, 0
0, 0
0, 0
0, 0
0, 0
0, 0
0, 0
0, 0
0, 0
0, 0
0, 0
0, 0
0, 0
0, 0
0, 0
0, 0
0, 0
0, 0
0, 0
0, 0
0, 0
0, 0
0, 0
0, 0
0, 0
0, 0
0, 0
#ENDOFDATA     end of spectrum data