File: host_upload/06-09-2024/ps_0852/dump3/ps__0852shot_2274.msa
#FORMAT      : EMSA/MAS spectral data file
#VERSION     : TC202v2.0 PIXL
#TITLE       : N/A
#DATE        :       Date in the format DD-MMM-YYYY, for example 07-JUL-2010
#TIME        :             The time of day at which the spectrum was recorded, in 24-hour format
#OWNER       : PIXL Flight Model       (PIXL will use this to indicate which instrument took the data.)
#NPOINTS     : 4096     Number of data points in the spectrum (This can be zero for configuration only files)
#NCOLUMNS    : 2     Number of data columns in the spectrum (This can be zero for configuration only files)
#XUNITS      : eV
#YUNITS      : COUNTS
#DATATYPE    : YY
#XPERCHAN    : 7.862, 7.881   eV per channel (separate by commas if more than one detector)
#OFFSET      : 18.5, -22.4         eV of first channel  (separate by commas if more than one detector
#SIGNALTYPE  : XRF
#YP_TEMP     : 2.652
#LIVETIME    : 8.57135, 8.57258   seconds (separate by commas if more than one detector)
#REALTIME    : 10, 10.0   seconds (separate by commas if more than one detector)
#SPECTRUM    : start of spectrum data
0, 0
0, 0
0, 0
0, 0
0, 0
0, 0
0, 0
0, 0
0, 2
1, 3
2, 2
26, 49
40, 61
7, 8
3, 3
67, 112
322, 497
82, 122
4, 7
0, 4
8, 15
42, 61
18, 21
8, 20
29, 74
30, 59
25, 31
15, 15
3, 6
1, 4
2, 3
1, 1
2, 1
9, 9
7, 14
4, 12
2, 18
3, 15
3, 11
3, 8
10, 6
21, 19
19, 42
7, 22
6, 9
7, 10
3, 5
1, 6
5, 5
7, 15
9, 10
8, 7
6, 14
26, 55
46, 61
33, 17
33, 34
389, 663
1739, 2685
1219, 1541
131, 157
24, 25
18, 20
86, 132
255, 413
194, 232
29, 31
32, 9
36, 25
10, 7
3, 6
5, 4
11, 10
3, 11
0, 6
2, 5
6, 9
5, 5
3, 6
2, 9
3, 5
3, 6
5, 0
2, 6
4, 25
1, 15
6, 8
4, 4
4, 3
2, 6
3, 4
2, 4
4, 1
7, 2
0, 2
0, 4
2, 4
4, 4
1, 8
2, 3
1, 5
0, 7
3, 3
4, 2
2, 7
2, 8
0, 9
0, 6
5, 1
4, 3
2, 2
1, 2
8, 0
4, 2
1, 4
1, 0
2, 3
0, 2
3, 1
2, 1
0, 1
0, 2
3, 5
2, 4
1, 1
1, 1
0, 1
4, 2
0, 2
0, 0
1, 1
0, 1
1, 1
1, 0
0, 2
1, 1
1, 2
1, 2
0, 0
0, 2
0, 1
0, 2
0, 1
0, 1
0, 1
0, 2
0, 0
2, 0
0, 1
0, 1
0, 1
0, 0
0, 2
1, 1
0, 1
0, 0
0, 1
0, 0
0, 0
1, 0
0, 0
0, 0
0, 1
1, 1
0, 0
0, 0
0, 0
1, 0
0, 1
1, 0
1, 1
0, 0
0, 1
0, 0
0, 1
0, 0
0, 0
0, 0
0, 0
0, 0
1, 1
0, 0
0, 0
0, 0
0, 0
0, 0
0, 0
0, 0
0, 1
0, 0
0, 0
0, 0
0, 1
0, 0
0, 1
0, 1
0, 0
0, 0
0, 0
0, 0
0, 0
0, 0
0, 0
0, 0
0, 0
0, 0
0, 0
0, 0
0, 0
0, 0
0, 0
1, 0
0, 0
0, 0
0, 0
0, 0
0, 0
0, 0
0, 0
0, 0
0, 0
0, 0
0, 0
0, 0
0, 0
0, 0
0, 0
0, 0
0, 0
0, 0
0, 0
0, 0
0, 0
0, 0
0, 0
0, 0
0, 0
0, 0
0, 0
0, 0
0, 0
0, 0
0, 0
0, 0
0, 0
0, 0
0, 0
0, 0
0, 0
0, 0
0, 0
0, 0
0, 0
0, 0
0, 0
0, 0
0, 0
0, 0
0, 0
0, 0
0, 0
0, 0
0, 0
0, 0
0, 0
0, 0
0, 0
0, 0
0, 0
0, 0
0, 0
0, 0
0, 0
0, 0
0, 0
0, 0
0, 0
0, 0
0, 0
0, 0
0, 0
0, 0
0, 0
0, 0
0, 0
0, 0
0, 0
0, 0
0, 0
0, 0
0, 0
0, 0
0, 0
0, 0
#ENDOFDATA     end of spectrum data