File: host_upload/06-09-2024/ps_0852/dump3/ps__0852shot_2580.msa
#FORMAT      : EMSA/MAS spectral data file
#VERSION     : TC202v2.0 PIXL
#TITLE       : N/A
#DATE        :       Date in the format DD-MMM-YYYY, for example 07-JUL-2010
#TIME        :             The time of day at which the spectrum was recorded, in 24-hour format
#OWNER       : PIXL Flight Model       (PIXL will use this to indicate which instrument took the data.)
#NPOINTS     : 4096     Number of data points in the spectrum (This can be zero for configuration only files)
#NCOLUMNS    : 2     Number of data columns in the spectrum (This can be zero for configuration only files)
#XUNITS      : eV
#YUNITS      : COUNTS
#DATATYPE    : YY
#XPERCHAN    : 7.862, 7.881   eV per channel (separate by commas if more than one detector)
#OFFSET      : 18.5, -22.4         eV of first channel  (separate by commas if more than one detector
#SIGNALTYPE  : XRF
#YP_TEMP     : 2.492
#LIVETIME    : 8.56822, 8.5542   seconds (separate by commas if more than one detector)
#REALTIME    : 10, 10.0   seconds (separate by commas if more than one detector)
#SPECTRUM    : start of spectrum data
0, 0
0, 0
0, 0
0, 0
0, 0
0, 0
0, 0
0, 0
0, 1
0, 0
6, 5
47, 53
66, 59
3, 6
1, 7
102, 81
447, 464
100, 96
7, 5
3, 1
2, 0
7, 10
9, 13
15, 13
33, 46
68, 63
25, 17
15, 14
6, 7
6, 4
1, 4
1, 1
3, 3
18, 17
23, 21
17, 14
8, 11
9, 15
8, 6
8, 13
7, 5
9, 11
13, 23
14, 14
10, 24
8, 18
6, 7
8, 7
14, 9
29, 12
18, 18
13, 12
17, 23
44, 45
72, 56
22, 23
34, 38
508, 628
2277, 2463
1666, 1398
175, 129
20, 15
27, 21
105, 121
350, 344
218, 206
32, 64
6, 43
16, 23
13, 6
4, 6
3, 4
3, 5
6, 6
8, 13
7, 6
3, 2
9, 5
7, 3
3, 5
7, 5
7, 6
6, 7
6, 2
6, 4
2, 5
8, 9
8, 5
6, 8
8, 2
3, 5
3, 1
3, 1
0, 2
4, 1
8, 5
3, 5
1, 1
4, 1
6, 4
2, 1
1, 2
2, 5
1, 1
3, 7
5, 5
5, 1
2, 4
3, 2
2, 0
4, 1
0, 1
1, 3
2, 0
1, 1
5, 2
4, 7
5, 1
2, 2
5, 1
1, 0
1, 5
2, 0
2, 2
1, 2
1, 3
1, 0
1, 5
1, 2
0, 2
0, 3
2, 1
1, 3
1, 0
3, 0
2, 1
0, 0
0, 1
1, 2
1, 0
0, 2
0, 2
0, 1
0, 1
2, 0
0, 0
1, 1
1, 0
0, 0
0, 1
0, 0
0, 0
0, 0
0, 1
1, 1
0, 1
0, 0
0, 0
1, 3
1, 0
1, 1
1, 1
1, 0
0, 0
0, 0
0, 0
0, 1
1, 0
1, 0
0, 0
2, 0
1, 0
0, 0
0, 0
0, 0
0, 0
0, 1
0, 0
2, 0
0, 0
0, 0
0, 0
0, 0
0, 1
1, 0
0, 0
0, 0
0, 0
0, 0
0, 0
0, 0
0, 0
0, 0
0, 0
1, 0
0, 0
1, 0
0, 1
0, 0
0, 0
0, 0
1, 0
1, 0
0, 0
0, 0
0, 1
0, 0
0, 0
0, 0
0, 0
0, 0
0, 0
0, 0
0, 0
0, 0
0, 0
0, 0
0, 0
0, 0
0, 0
0, 0
0, 0
0, 0
0, 0
0, 0
0, 0
0, 0
0, 0
0, 0
0, 0
0, 0
0, 0
0, 0
0, 0
0, 0
0, 0
0, 0
0, 0
0, 0
0, 0
0, 0
0, 0
0, 0
0, 0
0, 0
0, 0
0, 0
0, 0
0, 0
0, 0
0, 0
0, 0
0, 0
0, 0
0, 0
0, 0
0, 0
0, 0
0, 0
0, 0
0, 0
0, 0
0, 0
0, 0
0, 0
0, 0
0, 0
0, 0
0, 0
0, 0
0, 0
0, 0
0, 0
0, 0
0, 0
0, 0
0, 0
0, 0
0, 0
0, 0
0, 0
0, 0
0, 0
0, 0
0, 0
0, 0
0, 0
0, 0
0, 0
0, 0
0, 0
0, 0
0, 0
0, 0
#ENDOFDATA     end of spectrum data