File: host_upload/06-09-2024/ps_0852/dump3/ps__0852shot_2012.msa
#FORMAT      : EMSA/MAS spectral data file
#VERSION     : TC202v2.0 PIXL
#TITLE       : N/A
#DATE        :       Date in the format DD-MMM-YYYY, for example 07-JUL-2010
#TIME        :             The time of day at which the spectrum was recorded, in 24-hour format
#OWNER       : PIXL Flight Model       (PIXL will use this to indicate which instrument took the data.)
#NPOINTS     : 4096     Number of data points in the spectrum (This can be zero for configuration only files)
#NCOLUMNS    : 2     Number of data columns in the spectrum (This can be zero for configuration only files)
#XUNITS      : eV
#YUNITS      : COUNTS
#DATATYPE    : YY
#XPERCHAN    : 7.862, 7.881   eV per channel (separate by commas if more than one detector)
#OFFSET      : 18.5, -22.4         eV of first channel  (separate by commas if more than one detector
#SIGNALTYPE  : XRF
#YP_TEMP     : 2.396
#LIVETIME    : 8.56993, 8.55719   seconds (separate by commas if more than one detector)
#REALTIME    : 10, 10.0   seconds (separate by commas if more than one detector)
#SPECTRUM    : start of spectrum data
0, 0
0, 0
0, 0
0, 0
0, 0
0, 0
0, 0
0, 0
0, 2
3, 2
2, 3
49, 31
60, 31
8, 5
5, 6
85, 65
346, 266
87, 79
8, 6
6, 2
30, 41
174, 193
90, 83
29, 38
83, 60
96, 61
59, 30
31, 25
7, 20
3, 6
3, 3
3, 4
1, 7
32, 27
33, 28
13, 7
4, 6
8, 10
18, 8
11, 4
3, 5
12, 5
17, 27
18, 19
6, 11
4, 5
4, 5
11, 10
9, 8
16, 9
14, 6
10, 7
12, 12
42, 33
77, 54
34, 20
26, 29
473, 491
2135, 2006
1572, 1153
242, 130
82, 20
78, 12
114, 85
348, 332
215, 182
34, 22
12, 13
12, 12
5, 10
3, 7
4, 4
1, 2
2, 5
6, 3
11, 7
6, 4
7, 4
3, 11
8, 8
4, 6
6, 8
2, 3
5, 9
8, 11
1, 18
7, 5
2, 6
6, 4
16, 5
14, 5
9, 3
7, 1
5, 2
3, 0
4, 2
5, 0
4, 2
1, 2
5, 1
3, 3
1, 0
3, 1
1, 3
3, 1
1, 4
1, 3
2, 3
2, 2
3, 4
4, 2
4, 1
1, 3
2, 0
3, 4
1, 1
2, 2
1, 3
0, 1
1, 2
1, 3
0, 2
1, 3
1, 1
1, 1
1, 2
1, 3
0, 3
1, 0
1, 0
3, 2
1, 1
1, 1
2, 0
0, 4
0, 3
0, 1
1, 1
1, 0
0, 0
1, 0
0, 0
1, 1
0, 3
1, 1
0, 0
2, 0
1, 1
0, 1
2, 0
1, 0
0, 1
1, 0
0, 1
0, 0
0, 1
0, 1
0, 1
0, 1
2, 1
0, 0
0, 0
0, 0
0, 0
0, 0
1, 1
0, 0
0, 0
1, 0
0, 1
0, 0
0, 0
1, 0
0, 1
0, 0
1, 0
0, 0
0, 0
0, 0
0, 0
0, 1
0, 0
0, 0
1, 0
0, 0
1, 0
0, 0
0, 1
0, 0
1, 0
1, 0
1, 0
0, 0
0, 0
1, 0
0, 0
1, 0
0, 0
0, 0
0, 0
0, 0
0, 0
0, 0
0, 0
0, 0
0, 0
0, 0
0, 0
0, 0
0, 0
0, 0
0, 0
0, 0
0, 0
0, 0
0, 0
0, 0
0, 0
0, 0
0, 0
0, 0
0, 0
0, 0
0, 0
0, 0
0, 0
0, 0
0, 0
0, 0
0, 0
0, 0
0, 0
0, 0
0, 0
0, 0
0, 0
0, 0
0, 0
0, 0
0, 0
0, 0
0, 0
0, 0
0, 0
0, 0
0, 0
0, 0
0, 0
0, 0
0, 0
0, 0
0, 0
0, 0
0, 0
0, 0
0, 0
0, 0
0, 0
0, 0
0, 0
0, 0
0, 0
0, 0
0, 0
0, 0
0, 0
0, 0
0, 0
0, 0
0, 0
0, 0
0, 0
0, 0
0, 0
0, 0
0, 0
0, 0
0, 0
0, 0
0, 0
0, 0
0, 0
0, 0
0, 0
0, 0
0, 0
0, 0
0, 0
0, 0
0, 0
0, 0
0, 0
0, 0
0, 0
#ENDOFDATA     end of spectrum data