File: host_upload/06-09-2024/ps_0852/dump3/ps__0852shot_2256.msa
#FORMAT      : EMSA/MAS spectral data file
#VERSION     : TC202v2.0 PIXL
#TITLE       : N/A
#DATE        :       Date in the format DD-MMM-YYYY, for example 07-JUL-2010
#TIME        :             The time of day at which the spectrum was recorded, in 24-hour format
#OWNER       : PIXL Flight Model       (PIXL will use this to indicate which instrument took the data.)
#NPOINTS     : 4096     Number of data points in the spectrum (This can be zero for configuration only files)
#NCOLUMNS    : 2     Number of data columns in the spectrum (This can be zero for configuration only files)
#XUNITS      : eV
#YUNITS      : COUNTS
#DATATYPE    : YY
#XPERCHAN    : 7.862, 7.881   eV per channel (separate by commas if more than one detector)
#OFFSET      : 18.5, -22.4         eV of first channel  (separate by commas if more than one detector
#SIGNALTYPE  : XRF
#YP_TEMP     : 2.556
#LIVETIME    : 8.56717, 8.35754   seconds (separate by commas if more than one detector)
#REALTIME    : 10, 10.0   seconds (separate by commas if more than one detector)
#SPECTRUM    : start of spectrum data
0, 0
0, 0
0, 0
0, 0
0, 0
0, 0
0, 0
0, 0
1, 0
1, 4
3, 2
61, 52
64, 58
8, 4
3, 6
110, 101
421, 376
130, 78
10, 3
0, 1
2, 3
5, 6
1, 3
7, 9
24, 32
41, 54
23, 52
11, 17
7, 2
1, 4
2, 2
5, 1
4, 4
12, 10
22, 17
8, 5
4, 6
3, 4
2, 4
2, 4
3, 2
17, 15
16, 47
30, 27
49, 5
12, 8
2, 7
11, 7
10, 10
20, 12
12, 19
13, 26
7, 20
42, 57
57, 66
17, 28
26, 42
495, 573
2259, 2257
1599, 1270
219, 139
95, 17
110, 27
103, 121
329, 320
252, 214
31, 18
4, 10
13, 16
8, 12
7, 4
6, 5
5, 2
2, 6
3, 9
5, 3
12, 3
12, 3
10, 3
0, 4
3, 6
2, 3
2, 3
5, 9
3, 22
5, 27
5, 10
7, 2
4, 5
7, 2
6, 5
9, 3
4, 3
2, 1
3, 5
4, 5
1, 1
0, 1
4, 3
4, 3
2, 2
1, 3
3, 5
1, 4
2, 5
4, 10
2, 5
0, 1
4, 1
4, 1
3, 0
2, 4
1, 0
1, 2
2, 2
2, 3
2, 4
2, 3
2, 2
1, 0
2, 2
0, 0
1, 1
1, 1
0, 1
1, 1
1, 1
3, 1
0, 0
1, 0
3, 1
1, 2
0, 1
1, 1
5, 1
0, 1
0, 0
1, 0
0, 1
0, 0
2, 0
0, 1
0, 0
1, 0
0, 0
2, 0
1, 0
0, 0
1, 1
1, 0
1, 0
0, 1
0, 0
0, 0
0, 0
1, 1
0, 0
1, 0
0, 0
0, 0
1, 0
0, 0
0, 0
0, 0
0, 0
0, 0
0, 1
1, 0
0, 2
1, 1
1, 0
0, 0
0, 0
0, 0
0, 0
0, 0
0, 0
0, 0
0, 0
0, 0
0, 0
0, 0
0, 0
0, 0
0, 0
0, 0
0, 0
0, 0
0, 0
0, 0
0, 0
0, 0
0, 0
0, 0
0, 0
0, 0
0, 0
0, 0
0, 0
0, 0
0, 0
0, 0
0, 0
0, 0
0, 0
0, 0
0, 0
0, 0
0, 0
0, 0
0, 0
0, 0
0, 0
0, 0
0, 0
0, 0
0, 0
0, 0
0, 0
0, 0
0, 0
0, 0
0, 0
0, 0
0, 0
0, 0
0, 0
0, 0
0, 0
0, 0
0, 0
0, 0
0, 0
0, 0
0, 0
0, 0
0, 0
0, 0
0, 0
0, 0
0, 0
0, 0
0, 0
0, 0
0, 0
0, 0
0, 0
0, 0
0, 0
0, 0
0, 0
0, 0
0, 0
0, 0
0, 0
0, 0
0, 0
0, 0
0, 0
0, 0
0, 0
0, 0
0, 0
0, 0
0, 0
0, 0
0, 0
0, 0
0, 0
0, 0
0, 0
0, 0
0, 0
0, 0
0, 0
0, 0
0, 0
0, 0
0, 0
0, 0
0, 0
0, 0
0, 0
0, 0
0, 0
0, 0
0, 0
0, 0
0, 0
0, 0
0, 0
0, 0
0, 0
0, 0
#ENDOFDATA     end of spectrum data