File: host_upload/06-09-2024/ps_0852/dump3/ps__0852shot_2134.msa
#FORMAT      : EMSA/MAS spectral data file
#VERSION     : TC202v2.0 PIXL
#TITLE       : N/A
#DATE        :       Date in the format DD-MMM-YYYY, for example 07-JUL-2010
#TIME        :             The time of day at which the spectrum was recorded, in 24-hour format
#OWNER       : PIXL Flight Model       (PIXL will use this to indicate which instrument took the data.)
#NPOINTS     : 4096     Number of data points in the spectrum (This can be zero for configuration only files)
#NCOLUMNS    : 2     Number of data columns in the spectrum (This can be zero for configuration only files)
#XUNITS      : eV
#YUNITS      : COUNTS
#DATATYPE    : YY
#XPERCHAN    : 7.862, 7.881   eV per channel (separate by commas if more than one detector)
#OFFSET      : 18.5, -22.4         eV of first channel  (separate by commas if more than one detector
#SIGNALTYPE  : XRF
#YP_TEMP     : 2.588
#LIVETIME    : 8.55951, 8.55712   seconds (separate by commas if more than one detector)
#REALTIME    : 10, 10.0   seconds (separate by commas if more than one detector)
#SPECTRUM    : start of spectrum data
0, 0
0, 0
0, 0
0, 0
0, 0
0, 0
0, 0
1, 0
0, 0
1, 1
4, 2
41, 34
80, 48
4, 4
7, 7
85, 84
431, 405
113, 95
7, 6
2, 3
2, 2
1, 9
5, 2
11, 10
126, 36
209, 50
81, 14
83, 21
9, 7
1, 1
1, 2
3, 5
2, 24
9, 39
19, 25
7, 9
9, 10
4, 26
2, 4
10, 10
4, 3
15, 18
22, 17
25, 25
5, 21
7, 7
7, 5
2, 8
11, 15
22, 15
18, 18
12, 6
23, 13
62, 55
70, 61
30, 47
26, 34
478, 629
2057, 2276
1608, 1308
209, 135
27, 12
30, 24
102, 135
310, 350
220, 219
50, 24
9, 7
14, 9
8, 6
4, 3
3, 6
6, 6
6, 4
5, 7
3, 5
6, 6
7, 6
4, 6
5, 4
2, 5
3, 4
4, 3
3, 4
9, 4
4, 1
4, 5
4, 3
3, 10
4, 2
7, 6
6, 5
6, 6
8, 4
3, 4
3, 3
4, 1
2, 5
1, 1
2, 6
2, 3
1, 4
2, 2
2, 0
3, 1
1, 2
2, 0
4, 3
1, 1
2, 3
1, 2
3, 2
1, 0
1, 1
1, 0
1, 1
2, 2
1, 1
4, 1
1, 3
0, 2
2, 1
3, 1
0, 0
2, 2
4, 2
3, 1
1, 2
0, 2
1, 0
1, 3
1, 1
1, 1
1, 2
0, 1
0, 1
0, 2
1, 0
0, 1
0, 0
0, 0
2, 0
3, 1
1, 1
1, 1
1, 2
0, 1
0, 0
0, 0
1, 0
0, 0
1, 1
0, 0
0, 1
0, 0
1, 0
1, 0
1, 0
0, 1
0, 0
0, 1
0, 1
0, 0
0, 1
1, 0
0, 1
0, 0
0, 1
0, 0
0, 0
0, 0
0, 0
0, 0
0, 0
1, 0
0, 0
0, 0
0, 0
0, 0
0, 0
1, 0
0, 0
0, 0
0, 0
0, 0
1, 0
0, 0
0, 0
0, 0
0, 0
0, 0
0, 0
0, 0
0, 0
0, 0
0, 1
0, 0
0, 0
0, 0
0, 0
0, 0
0, 0
0, 0
0, 0
0, 0
0, 0
0, 0
0, 0
0, 0
0, 0
0, 0
0, 0
0, 1
0, 0
0, 0
0, 0
0, 0
0, 0
0, 0
0, 0
0, 0
0, 0
0, 0
0, 0
0, 0
0, 0
0, 0
0, 0
0, 0
0, 0
0, 0
0, 0
0, 0
0, 0
0, 0
0, 0
0, 0
0, 0
0, 0
0, 0
0, 0
0, 0
0, 0
0, 0
0, 0
0, 0
0, 0
0, 0
0, 0
0, 0
0, 0
0, 0
0, 0
0, 0
0, 0
0, 0
0, 0
0, 0
0, 0
0, 0
0, 0
0, 0
0, 0
0, 0
0, 0
0, 0
0, 0
0, 0
0, 0
0, 0
0, 0
0, 0
0, 0
0, 0
0, 0
0, 0
0, 0
0, 0
0, 0
0, 0
0, 0
0, 0
0, 0
0, 0
0, 0
0, 0
0, 0
0, 0
0, 0
0, 0
0, 0
0, 0
0, 0
0, 0
#ENDOFDATA     end of spectrum data