File: host_upload/06-09-2024/ps_0852/dump3/ps__0852shot_2463.msa
#FORMAT      : EMSA/MAS spectral data file
#VERSION     : TC202v2.0 PIXL
#TITLE       : N/A
#DATE        :       Date in the format DD-MMM-YYYY, for example 07-JUL-2010
#TIME        :             The time of day at which the spectrum was recorded, in 24-hour format
#OWNER       : PIXL Flight Model       (PIXL will use this to indicate which instrument took the data.)
#NPOINTS     : 4096     Number of data points in the spectrum (This can be zero for configuration only files)
#NCOLUMNS    : 2     Number of data columns in the spectrum (This can be zero for configuration only files)
#XUNITS      : eV
#YUNITS      : COUNTS
#DATATYPE    : YY
#XPERCHAN    : 7.862, 7.881   eV per channel (separate by commas if more than one detector)
#OFFSET      : 18.5, -22.4         eV of first channel  (separate by commas if more than one detector
#SIGNALTYPE  : XRF
#YP_TEMP     : 2.46
#LIVETIME    : 8.56581, 8.54834   seconds (separate by commas if more than one detector)
#REALTIME    : 10, 10.0   seconds (separate by commas if more than one detector)
#SPECTRUM    : start of spectrum data
0, 0
0, 0
0, 0
0, 0
0, 0
0, 0
0, 0
0, 0
0, 0
1, 0
2, 4
26, 34
48, 66
3, 4
4, 1
64, 96
373, 434
91, 91
5, 4
1, 2
28, 25
128, 133
59, 65
29, 13
136, 37
162, 37
33, 22
6, 15
7, 5
2, 1
3, 4
3, 2
5, 7
23, 31
41, 39
7, 9
4, 9
16, 7
16, 6
11, 3
5, 10
8, 10
16, 12
8, 6
6, 5
8, 6
7, 7
3, 9
15, 6
12, 20
21, 16
13, 12
27, 16
143, 47
106, 42
20, 20
29, 29
449, 552
2116, 2143
1486, 1279
178, 127
16, 16
18, 24
73, 117
336, 329
211, 205
32, 19
7, 7
15, 12
10, 7
7, 6
7, 4
5, 3
4, 7
7, 8
5, 10
4, 7
3, 3
7, 7
4, 10
6, 8
1, 0
2, 7
5, 3
4, 3
6, 3
10, 2
3, 6
2, 4
1, 1
3, 7
3, 3
2, 6
3, 4
0, 4
2, 1
5, 4
6, 3
1, 1
1, 5
3, 0
3, 3
2, 1
1, 2
5, 2
5, 2
6, 2
7, 3
2, 4
3, 2
1, 0
3, 2
4, 2
2, 2
3, 4
1, 5
3, 2
3, 4
4, 6
1, 3
0, 2
0, 2
1, 3
2, 3
1, 1
1, 2
1, 2
1, 4
1, 1
1, 0
1, 3
3, 1
1, 2
0, 1
2, 0
1, 0
0, 0
2, 2
0, 1
1, 0
0, 0
0, 0
0, 1
0, 1
1, 0
0, 0
0, 0
0, 0
1, 0
1, 0
2, 0
2, 0
0, 1
0, 2
0, 0
1, 0
1, 0
1, 0
0, 0
0, 0
1, 0
0, 0
0, 0
0, 1
0, 0
0, 1
0, 0
1, 0
0, 0
2, 2
0, 0
0, 0
0, 0
0, 0
1, 0
0, 0
0, 0
0, 0
0, 0
1, 0
0, 0
1, 0
0, 0
0, 0
0, 0
0, 0
0, 0
0, 0
0, 0
0, 1
0, 0
0, 0
0, 0
0, 0
0, 0
0, 0
0, 0
0, 0
1, 0
0, 0
1, 0
0, 0
0, 0
0, 0
0, 0
0, 0
0, 0
1, 0
0, 0
0, 1
0, 0
0, 0
0, 0
0, 0
0, 0
0, 0
0, 0
0, 0
0, 0
0, 0
0, 0
0, 0
0, 0
0, 0
0, 0
0, 0
0, 0
0, 0
0, 0
0, 0
0, 0
0, 0
0, 0
0, 0
0, 0
0, 0
0, 0
0, 0
0, 0
0, 0
0, 0
0, 0
0, 0
0, 0
0, 0
0, 0
0, 0
0, 0
0, 0
0, 0
0, 0
0, 0
0, 0
0, 0
0, 0
0, 0
0, 0
0, 0
0, 0
0, 0
0, 0
0, 0
0, 0
0, 0
0, 0
0, 0
0, 0
0, 0
0, 0
0, 0
0, 0
0, 0
0, 0
0, 0
0, 0
0, 0
0, 0
0, 0
0, 0
0, 0
0, 0
0, 0
0, 0
0, 0
0, 0
0, 0
0, 0
0, 0
0, 0
0, 0
0, 0
0, 0
0, 0
0, 0
#ENDOFDATA     end of spectrum data