File: host_upload/06-09-2024/ps_0852/dump3/ps__0852shot_2390.msa
#FORMAT      : EMSA/MAS spectral data file
#VERSION     : TC202v2.0 PIXL
#TITLE       : N/A
#DATE        :       Date in the format DD-MMM-YYYY, for example 07-JUL-2010
#TIME        :             The time of day at which the spectrum was recorded, in 24-hour format
#OWNER       : PIXL Flight Model       (PIXL will use this to indicate which instrument took the data.)
#NPOINTS     : 4096     Number of data points in the spectrum (This can be zero for configuration only files)
#NCOLUMNS    : 2     Number of data columns in the spectrum (This can be zero for configuration only files)
#XUNITS      : eV
#YUNITS      : COUNTS
#DATATYPE    : YY
#XPERCHAN    : 7.862, 7.881   eV per channel (separate by commas if more than one detector)
#OFFSET      : 18.5, -22.4         eV of first channel  (separate by commas if more than one detector
#SIGNALTYPE  : XRF
#YP_TEMP     : 2.46
#LIVETIME    : 8.5818, 8.55082   seconds (separate by commas if more than one detector)
#REALTIME    : 10, 10.0   seconds (separate by commas if more than one detector)
#SPECTRUM    : start of spectrum data
0, 0
0, 0
0, 0
0, 0
0, 0
0, 0
0, 0
0, 0
1, 0
2, 0
2, 6
57, 53
61, 41
9, 9
15, 12
101, 114
481, 451
109, 88
7, 2
3, 0
1, 4
7, 5
7, 5
2, 7
45, 13
74, 16
20, 16
20, 11
4, 3
4, 3
9, 7
3, 5
4, 2
12, 18
19, 26
4, 7
6, 5
7, 8
10, 2
29, 3
52, 1
13, 7
13, 17
12, 13
7, 9
5, 6
3, 13
3, 20
7, 8
14, 22
21, 34
28, 2
48, 6
105, 38
90, 53
18, 15
34, 39
462, 624
2201, 2247
1607, 1350
190, 122
16, 21
17, 24
110, 94
358, 364
229, 197
45, 22
14, 10
9, 16
7, 8
9, 3
5, 4
0, 4
7, 7
3, 5
10, 4
2, 8
7, 16
7, 11
15, 10
8, 18
5, 14
1, 5
4, 4
1, 0
2, 2
2, 7
3, 5
1, 8
4, 8
6, 2
7, 7
5, 9
6, 7
6, 7
5, 6
3, 4
3, 2
1, 3
3, 3
3, 3
1, 0
5, 1
3, 5
1, 1
5, 6
1, 1
1, 2
1, 4
0, 2
4, 1
3, 0
2, 2
3, 3
5, 4
2, 2
7, 0
3, 2
3, 3
1, 2
0, 0
0, 1
0, 1
1, 1
3, 0
1, 0
5, 0
1, 2
1, 0
0, 1
3, 1
0, 2
2, 1
1, 0
1, 1
1, 2
0, 1
0, 1
2, 1
0, 1
0, 1
0, 0
2, 1
0, 1
0, 0
0, 0
0, 0
0, 0
0, 1
0, 0
0, 0
1, 1
0, 1
1, 1
2, 0
2, 0
1, 0
1, 0
1, 1
1, 1
0, 1
0, 0
1, 0
0, 0
0, 0
1, 0
1, 2
1, 0
0, 0
1, 1
1, 0
0, 0
0, 1
0, 0
0, 0
1, 0
0, 0
0, 1
0, 0
0, 0
0, 0
0, 1
0, 0
1, 0
0, 1
0, 1
0, 0
0, 0
1, 0
0, 0
0, 0
0, 0
0, 0
0, 1
0, 0
0, 0
0, 0
0, 1
0, 0
0, 0
0, 0
0, 0
0, 0
0, 0
0, 0
0, 0
0, 0
0, 0
0, 0
0, 0
0, 0
0, 1
0, 0
0, 0
0, 0
0, 0
0, 0
0, 0
0, 1
0, 0
0, 0
0, 0
0, 0
0, 0
0, 0
0, 0
0, 0
0, 0
0, 0
0, 0
0, 0
0, 0
0, 0
0, 0
0, 0
0, 0
0, 0
0, 0
0, 0
0, 0
0, 0
0, 0
0, 0
0, 0
0, 0
0, 0
0, 0
0, 0
0, 0
0, 0
0, 0
0, 0
0, 0
0, 0
0, 0
0, 0
0, 0
0, 0
0, 0
0, 0
0, 0
0, 0
0, 0
0, 0
0, 0
0, 0
0, 0
0, 0
0, 0
0, 0
0, 0
0, 0
0, 0
0, 0
0, 0
0, 0
0, 0
0, 0
0, 0
0, 0
0, 0
0, 0
0, 0
0, 0
0, 0
0, 0
0, 0
0, 0
0, 0
0, 0
0, 0
0, 0
0, 0
0, 0
#ENDOFDATA     end of spectrum data