File: host_upload/06-09-2024/ps_0852/dump3/ps__0852shot_2284.msa
#FORMAT      : EMSA/MAS spectral data file
#VERSION     : TC202v2.0 PIXL
#TITLE       : N/A
#DATE        :       Date in the format DD-MMM-YYYY, for example 07-JUL-2010
#TIME        :             The time of day at which the spectrum was recorded, in 24-hour format
#OWNER       : PIXL Flight Model       (PIXL will use this to indicate which instrument took the data.)
#NPOINTS     : 4096     Number of data points in the spectrum (This can be zero for configuration only files)
#NCOLUMNS    : 2     Number of data columns in the spectrum (This can be zero for configuration only files)
#XUNITS      : eV
#YUNITS      : COUNTS
#DATATYPE    : YY
#XPERCHAN    : 7.862, 7.881   eV per channel (separate by commas if more than one detector)
#OFFSET      : 18.5, -22.4         eV of first channel  (separate by commas if more than one detector
#SIGNALTYPE  : XRF
#YP_TEMP     : 2.492
#LIVETIME    : 8.56822, 8.5382   seconds (separate by commas if more than one detector)
#REALTIME    : 10, 10.0   seconds (separate by commas if more than one detector)
#SPECTRUM    : start of spectrum data
0, 0
0, 0
0, 0
0, 0
0, 0
0, 0
0, 0
0, 0
0, 1
2, 0
2, 3
28, 55
55, 70
5, 1
2, 4
95, 87
400, 426
85, 90
2, 4
2, 5
33, 48
243, 275
108, 90
25, 26
41, 49
39, 45
19, 20
8, 14
7, 4
2, 5
3, 8
5, 4
8, 7
55, 59
93, 86
16, 14
11, 13
13, 20
22, 3
16, 3
6, 11
8, 16
16, 11
14, 12
5, 4
11, 4
6, 10
3, 8
9, 10
13, 19
16, 7
8, 13
41, 18
110, 46
90, 49
30, 23
33, 34
392, 576
1847, 2175
1383, 1309
160, 118
10, 12
21, 21
74, 121
269, 352
209, 209
29, 27
9, 27
9, 20
7, 8
6, 5
3, 4
4, 3
0, 7
6, 3
11, 2
16, 6
11, 2
4, 4
8, 6
3, 6
4, 9
5, 8
7, 5
2, 2
7, 6
7, 2
1, 3
1, 5
9, 5
14, 4
3, 2
4, 7
3, 7
1, 3
2, 3
2, 8
3, 4
5, 5
1, 1
5, 5
3, 2
3, 2
2, 5
1, 1
3, 4
1, 1
7, 5
2, 2
3, 3
2, 1
1, 0
0, 6
4, 2
0, 2
4, 1
9, 5
0, 1
0, 1
3, 3
1, 2
0, 1
3, 4
3, 2
1, 0
2, 1
0, 0
1, 0
0, 3
0, 0
2, 0
1, 0
1, 0
0, 0
0, 2
1, 0
0, 1
0, 2
0, 1
0, 1
0, 0
1, 1
1, 1
1, 0
0, 0
0, 0
0, 0
0, 0
0, 0
1, 1
0, 0
0, 0
0, 1
1, 0
0, 0
1, 0
0, 0
0, 0
1, 0
0, 0
1, 0
0, 1
1, 0
0, 1
0, 0
0, 0
0, 1
1, 1
0, 2
0, 0
0, 0
0, 0
0, 0
0, 0
0, 0
0, 0
0, 0
0, 0
0, 0
0, 0
0, 0
0, 0
0, 0
0, 0
0, 0
0, 0
0, 0
0, 0
0, 0
0, 1
0, 1
0, 0
0, 0
0, 0
0, 0
0, 0
0, 0
0, 0
0, 0
0, 0
0, 0
0, 0
0, 0
0, 0
0, 0
0, 0
0, 0
0, 0
0, 0
0, 0
0, 0
0, 0
0, 0
0, 0
0, 0
0, 0
0, 0
0, 0
0, 0
0, 0
0, 0
0, 0
0, 0
0, 0
0, 0
0, 0
0, 0
0, 0
0, 0
0, 0
0, 0
0, 0
0, 0
0, 0
0, 0
0, 0
0, 0
0, 0
0, 0
0, 0
0, 0
0, 0
0, 0
0, 0
0, 0
0, 0
0, 0
0, 0
0, 0
0, 0
0, 0
0, 0
0, 0
0, 0
0, 0
0, 0
0, 0
0, 0
0, 0
0, 0
0, 0
0, 0
0, 0
0, 0
0, 0
0, 0
0, 0
0, 0
0, 0
0, 0
0, 0
0, 0
0, 0
0, 0
0, 0
0, 0
0, 0
0, 0
0, 0
0, 0
0, 0
0, 0
0, 0
0, 0
0, 0
0, 0
0, 0
0, 0
0, 0
0, 0
0, 0
0, 0
0, 0
0, 0
#ENDOFDATA     end of spectrum data