File: host_upload/06-09-2024/ps_0852/dump3/ps__0852shot_2474.msa
#FORMAT      : EMSA/MAS spectral data file
#VERSION     : TC202v2.0 PIXL
#TITLE       : N/A
#DATE        :       Date in the format DD-MMM-YYYY, for example 07-JUL-2010
#TIME        :             The time of day at which the spectrum was recorded, in 24-hour format
#OWNER       : PIXL Flight Model       (PIXL will use this to indicate which instrument took the data.)
#NPOINTS     : 4096     Number of data points in the spectrum (This can be zero for configuration only files)
#NCOLUMNS    : 2     Number of data columns in the spectrum (This can be zero for configuration only files)
#XUNITS      : eV
#YUNITS      : COUNTS
#DATATYPE    : YY
#XPERCHAN    : 7.862, 7.881   eV per channel (separate by commas if more than one detector)
#OFFSET      : 18.5, -22.4         eV of first channel  (separate by commas if more than one detector
#SIGNALTYPE  : XRF
#YP_TEMP     : 2.3
#LIVETIME    : 8.54153, 8.55293   seconds (separate by commas if more than one detector)
#REALTIME    : 10, 10.0   seconds (separate by commas if more than one detector)
#SPECTRUM    : start of spectrum data
0, 0
0, 0
0, 0
0, 0
0, 0
0, 0
0, 0
0, 0
1, 3
4, 1
3, 0
32, 31
57, 44
7, 2
6, 2
86, 88
409, 386
96, 80
10, 10
4, 4
38, 43
196, 216
81, 84
28, 23
47, 43
40, 33
36, 22
19, 19
4, 4
1, 3
4, 1
6, 2
4, 2
62, 63
113, 98
24, 12
24, 14
28, 12
7, 6
6, 3
4, 4
21, 13
15, 15
12, 16
9, 5
5, 5
6, 7
16, 3
15, 9
50, 28
38, 26
9, 7
10, 15
32, 48
67, 45
20, 20
35, 30
419, 519
1958, 2096
1505, 1148
181, 102
27, 12
27, 27
103, 95
328, 317
223, 182
31, 23
6, 15
15, 16
11, 9
4, 3
4, 6
11, 3
5, 5
3, 5
4, 10
1, 8
11, 3
4, 4
7, 7
5, 1
0, 2
7, 4
3, 4
4, 10
4, 7
4, 4
4, 10
6, 4
8, 1
2, 3
3, 3
6, 2
6, 1
2, 5
5, 4
3, 2
7, 4
1, 3
3, 0
5, 4
4, 3
0, 3
3, 2
1, 4
3, 1
0, 1
3, 0
2, 2
1, 2
4, 1
1, 1
4, 1
2, 1
1, 1
1, 4
5, 2
2, 1
1, 4
0, 1
1, 1
1, 1
4, 1
2, 2
0, 3
1, 2
0, 1
1, 0
0, 2
0, 0
2, 0
1, 0
2, 1
0, 1
1, 1
0, 1
0, 0
0, 0
0, 0
1, 1
0, 2
2, 0
0, 1
0, 0
0, 0
0, 0
0, 0
0, 0
0, 1
0, 0
0, 0
0, 0
1, 1
1, 1
1, 0
0, 0
0, 0
0, 0
0, 0
1, 0
0, 0
0, 0
0, 0
0, 0
0, 0
0, 0
0, 0
0, 0
0, 0
0, 0
0, 1
0, 2
0, 0
1, 1
0, 0
0, 0
0, 0
0, 1
0, 0
0, 0
0, 0
0, 0
0, 1
0, 0
0, 0
0, 0
0, 0
0, 0
0, 0
0, 0
0, 0
0, 0
0, 1
0, 0
0, 0
0, 0
1, 0
1, 0
0, 0
0, 0
0, 0
1, 0
0, 1
0, 0
0, 0
0, 0
0, 0
0, 0
0, 0
0, 0
0, 0
0, 0
0, 0
0, 0
0, 0
0, 0
0, 0
0, 0
0, 0
0, 0
0, 0
0, 0
0, 0
0, 0
0, 0
0, 0
0, 0
0, 0
0, 0
0, 0
0, 0
0, 0
0, 0
0, 0
0, 0
0, 0
0, 0
0, 0
0, 0
0, 0
0, 0
0, 0
0, 0
0, 0
0, 0
0, 0
0, 0
0, 0
0, 0
0, 0
0, 0
0, 0
0, 0
0, 0
0, 0
0, 0
0, 0
0, 0
0, 0
0, 0
0, 0
0, 0
0, 0
0, 0
0, 0
0, 0
0, 0
0, 0
0, 0
0, 0
0, 0
0, 0
0, 0
0, 0
0, 0
0, 0
0, 0
0, 0
0, 0
0, 0
0, 0
0, 0
0, 0
0, 0
0, 0
0, 0
0, 0
0, 0
0, 0
0, 0
0, 0
0, 0
0, 0
0, 0
#ENDOFDATA     end of spectrum data