File: host_upload/06-09-2024/ps_0852/dump3/ps__0852shot_2438.msa
#FORMAT      : EMSA/MAS spectral data file
#VERSION     : TC202v2.0 PIXL
#TITLE       : N/A
#DATE        :       Date in the format DD-MMM-YYYY, for example 07-JUL-2010
#TIME        :             The time of day at which the spectrum was recorded, in 24-hour format
#OWNER       : PIXL Flight Model       (PIXL will use this to indicate which instrument took the data.)
#NPOINTS     : 4096     Number of data points in the spectrum (This can be zero for configuration only files)
#NCOLUMNS    : 2     Number of data columns in the spectrum (This can be zero for configuration only files)
#XUNITS      : eV
#YUNITS      : COUNTS
#DATATYPE    : YY
#XPERCHAN    : 7.862, 7.881   eV per channel (separate by commas if more than one detector)
#OFFSET      : 18.5, -22.4         eV of first channel  (separate by commas if more than one detector
#SIGNALTYPE  : XRF
#YP_TEMP     : 2.267
#LIVETIME    : 8.564, 8.55202   seconds (separate by commas if more than one detector)
#REALTIME    : 10, 10.0   seconds (separate by commas if more than one detector)
#SPECTRUM    : start of spectrum data
0, 0
0, 0
0, 0
0, 0
0, 0
0, 0
0, 0
0, 0
0, 3
3, 2
2, 2
51, 42
74, 60
2, 6
2, 5
129, 91
492, 391
103, 92
5, 5
0, 1
0, 2
6, 8
2, 2
9, 4
39, 46
57, 61
22, 22
10, 9
0, 2
2, 3
1, 0
0, 0
3, 3
22, 17
43, 31
12, 7
12, 3
28, 9
41, 5
10, 2
3, 1
10, 12
11, 15
8, 52
10, 58
5, 11
6, 4
4, 7
7, 10
14, 13
30, 10
38, 7
21, 8
42, 53
57, 43
35, 25
39, 45
445, 549
2193, 2207
1572, 1375
177, 150
23, 10
52, 24
153, 124
343, 361
195, 173
32, 27
5, 5
12, 15
8, 8
5, 1
10, 7
14, 5
6, 6
19, 7
36, 6
44, 18
16, 13
3, 11
5, 7
2, 1
4, 0
6, 3
0, 2
4, 0
2, 3
1, 1
3, 4
2, 2
3, 4
2, 5
3, 3
2, 2
5, 1
1, 1
6, 2
5, 1
1, 1
0, 4
6, 7
6, 4
3, 2
3, 1
1, 3
3, 1
2, 0
1, 1
1, 2
3, 1
4, 2
2, 3
3, 4
2, 0
4, 4
2, 3
7, 1
4, 5
1, 1
3, 3
1, 2
1, 2
1, 2
7, 2
1, 2
4, 1
1, 1
1, 2
1, 3
1, 4
2, 2
2, 2
0, 2
0, 1
1, 1
0, 0
0, 1
3, 0
1, 1
0, 1
1, 0
1, 1
1, 1
0, 0
0, 0
0, 0
1, 0
1, 1
0, 0
0, 2
1, 1
2, 0
0, 0
0, 0
0, 2
0, 0
0, 0
0, 0
0, 1
1, 1
0, 0
0, 0
0, 0
0, 0
1, 0
0, 0
0, 1
0, 0
0, 1
0, 0
0, 0
0, 0
0, 1
0, 1
0, 0
0, 0
0, 0
0, 1
0, 0
0, 0
0, 0
0, 0
1, 0
0, 1
0, 0
1, 0
0, 0
0, 0
1, 0
0, 0
0, 0
0, 0
1, 0
0, 0
1, 0
0, 0
1, 0
0, 0
0, 0
0, 0
0, 0
0, 0
0, 0
0, 0
0, 0
0, 0
0, 0
0, 0
0, 0
0, 0
0, 0
0, 0
0, 0
0, 0
0, 0
0, 0
0, 0
0, 0
0, 0
0, 0
0, 0
0, 0
0, 0
0, 0
0, 0
0, 0
0, 0
0, 0
0, 0
0, 0
0, 0
0, 0
0, 0
0, 0
0, 0
0, 0
0, 0
0, 0
0, 0
0, 0
0, 0
0, 0
0, 0
0, 0
0, 0
0, 0
0, 0
0, 0
0, 0
0, 0
0, 0
0, 0
0, 0
0, 0
0, 0
0, 0
0, 0
0, 0
0, 0
0, 0
0, 0
0, 0
0, 0
0, 0
0, 0
0, 0
0, 0
0, 0
0, 0
0, 0
0, 0
0, 0
0, 0
0, 0
0, 0
0, 0
0, 0
0, 0
0, 0
0, 0
0, 0
0, 0
0, 0
0, 0
0, 0
0, 0
0, 0
0, 0
0, 0
0, 0
0, 0
0, 0
0, 0
0, 0
0, 0
#ENDOFDATA     end of spectrum data