File: host_upload/06-09-2024/ps_0852/dump3/ps__0852shot_2247.msa
#FORMAT      : EMSA/MAS spectral data file
#VERSION     : TC202v2.0 PIXL
#TITLE       : N/A
#DATE        :       Date in the format DD-MMM-YYYY, for example 07-JUL-2010
#TIME        :             The time of day at which the spectrum was recorded, in 24-hour format
#OWNER       : PIXL Flight Model       (PIXL will use this to indicate which instrument took the data.)
#NPOINTS     : 4096     Number of data points in the spectrum (This can be zero for configuration only files)
#NCOLUMNS    : 2     Number of data columns in the spectrum (This can be zero for configuration only files)
#XUNITS      : eV
#YUNITS      : COUNTS
#DATATYPE    : YY
#XPERCHAN    : 7.862, 7.881   eV per channel (separate by commas if more than one detector)
#OFFSET      : 18.5, -22.4         eV of first channel  (separate by commas if more than one detector
#SIGNALTYPE  : XRF
#YP_TEMP     : 2.332
#LIVETIME    : 8.5592, 8.56343   seconds (separate by commas if more than one detector)
#REALTIME    : 10, 10.0   seconds (separate by commas if more than one detector)
#SPECTRUM    : start of spectrum data
0, 0
0, 0
0, 0
0, 0
0, 0
0, 0
0, 0
0, 1
1, 1
0, 2
6, 1
55, 52
64, 57
6, 3
7, 6
109, 99
437, 451
107, 121
8, 5
2, 0
1, 3
0, 3
1, 0
9, 3
24, 27
30, 56
12, 29
10, 8
6, 4
1, 4
2, 2
5, 1
2, 2
11, 10
12, 16
8, 3
3, 4
3, 2
2, 2
1, 1
23, 3
151, 8
132, 16
34, 10
4, 4
3, 5
5, 4
3, 4
10, 17
23, 10
14, 11
6, 24
14, 59
38, 50
57, 51
16, 21
40, 36
480, 606
2223, 2374
1627, 1465
211, 164
23, 78
20, 41
87, 124
324, 359
247, 206
43, 25
30, 17
22, 16
8, 6
3, 5
5, 6
2, 8
5, 8
4, 9
7, 7
8, 5
5, 6
4, 12
4, 7
8, 6
4, 3
4, 6
5, 7
8, 5
13, 13
4, 7
2, 5
3, 1
3, 1
0, 2
2, 0
4, 2
4, 6
2, 3
1, 2
3, 3
4, 3
0, 5
2, 6
6, 2
4, 1
4, 1
1, 2
0, 1
3, 4
4, 4
5, 1
4, 6
2, 3
0, 1
3, 2
3, 3
4, 1
3, 1
0, 4
0, 6
2, 5
1, 2
0, 0
1, 4
3, 2
1, 2
4, 2
4, 0
3, 4
2, 1
0, 1
1, 0
0, 0
0, 0
1, 2
0, 1
1, 2
0, 0
0, 2
1, 1
0, 0
0, 1
0, 0
0, 0
0, 0
0, 0
0, 0
1, 1
0, 0
0, 0
3, 1
0, 2
1, 1
0, 0
0, 0
0, 0
0, 0
0, 1
0, 0
0, 0
0, 0
0, 1
0, 0
1, 1
0, 1
0, 0
0, 0
0, 0
0, 0
0, 1
1, 0
1, 0
0, 1
0, 0
0, 1
0, 0
0, 1
0, 0
0, 0
0, 0
0, 0
0, 0
0, 0
1, 0
0, 0
0, 0
0, 0
0, 0
0, 0
0, 0
0, 0
0, 0
0, 0
0, 0
0, 0
0, 0
0, 0
0, 0
0, 0
0, 0
0, 0
0, 0
0, 0
0, 0
0, 0
0, 0
0, 0
0, 0
0, 0
0, 0
0, 0
0, 0
0, 0
0, 0
0, 0
0, 0
0, 0
0, 0
0, 0
0, 0
0, 0
0, 0
0, 0
0, 0
0, 0
0, 0
0, 0
0, 0
0, 0
0, 0
0, 0
0, 0
0, 0
0, 0
0, 0
0, 0
0, 0
0, 0
0, 0
0, 0
0, 0
0, 0
0, 0
0, 0
0, 0
0, 0
0, 0
0, 0
0, 0
0, 0
0, 0
0, 0
0, 0
0, 0
0, 0
0, 0
0, 0
0, 0
0, 0
0, 0
0, 0
0, 0
0, 0
0, 0
0, 0
0, 0
0, 0
0, 0
0, 0
0, 0
0, 0
0, 0
0, 0
0, 0
0, 0
0, 0
0, 0
0, 0
0, 0
0, 0
0, 0
0, 0
0, 0
0, 0
0, 0
0, 0
0, 0
0, 0
0, 0
0, 0
0, 0
0, 0
0, 0
0, 0
0, 0
0, 0
0, 0
#ENDOFDATA     end of spectrum data