File: host_upload/06-09-2024/ps_0852/dump3/ps__0852shot_2174.msa
#FORMAT      : EMSA/MAS spectral data file
#VERSION     : TC202v2.0 PIXL
#TITLE       : N/A
#DATE        :       Date in the format DD-MMM-YYYY, for example 07-JUL-2010
#TIME        :             The time of day at which the spectrum was recorded, in 24-hour format
#OWNER       : PIXL Flight Model       (PIXL will use this to indicate which instrument took the data.)
#NPOINTS     : 4096     Number of data points in the spectrum (This can be zero for configuration only files)
#NCOLUMNS    : 2     Number of data columns in the spectrum (This can be zero for configuration only files)
#XUNITS      : eV
#YUNITS      : COUNTS
#DATATYPE    : YY
#XPERCHAN    : 7.862, 7.881   eV per channel (separate by commas if more than one detector)
#OFFSET      : 18.5, -22.4         eV of first channel  (separate by commas if more than one detector
#SIGNALTYPE  : XRF
#YP_TEMP     : 2.235
#LIVETIME    : 8.55632, 8.37787   seconds (separate by commas if more than one detector)
#REALTIME    : 10, 10.0   seconds (separate by commas if more than one detector)
#SPECTRUM    : start of spectrum data
0, 0
0, 0
0, 0
0, 0
0, 0
0, 0
0, 0
0, 0
1, 3
3, 2
2, 2
24, 43
46, 58
3, 4
3, 9
54, 105
277, 398
83, 115
7, 4
3, 5
27, 35
104, 153
49, 70
13, 19
35, 55
47, 48
17, 20
13, 9
4, 6
2, 4
2, 1
2, 5
2, 1
6, 12
9, 13
6, 6
2, 3
3, 5
4, 6
2, 2
8, 2
42, 11
33, 11
24, 11
7, 8
3, 6
3, 7
2, 6
4, 8
10, 12
7, 13
4, 6
7, 19
31, 75
40, 72
18, 20
27, 49
339, 626
1416, 2593
1108, 1617
114, 173
10, 39
16, 48
83, 126
217, 387
167, 227
27, 25
5, 8
11, 15
12, 17
7, 12
1, 2
0, 7
1, 2
2, 6
5, 5
7, 1
1, 1
3, 4
2, 3
4, 6
2, 5
4, 7
13, 5
10, 9
3, 9
3, 12
3, 7
5, 2
3, 2
5, 7
9, 17
7, 5
5, 4
4, 4
1, 4
3, 3
1, 3
1, 3
0, 4
1, 2
2, 8
2, 4
1, 3
0, 1
2, 6
2, 5
1, 3
0, 5
0, 2
2, 2
1, 2
1, 3
2, 1
1, 2
2, 3
4, 5
2, 2
1, 4
0, 1
2, 1
0, 2
4, 3
1, 3
3, 0
1, 1
3, 2
0, 1
0, 2
0, 1
0, 2
2, 0
2, 0
1, 1
1, 2
1, 3
2, 0
0, 0
0, 1
0, 1
0, 0
0, 0
2, 0
1, 0
0, 1
0, 0
2, 1
1, 0
1, 0
1, 1
0, 1
0, 0
0, 0
0, 1
0, 1
0, 0
0, 1
0, 0
0, 0
0, 1
1, 0
0, 0
0, 1
1, 0
1, 0
1, 0
0, 1
2, 0
0, 0
0, 0
0, 0
0, 0
0, 0
0, 0
0, 0
0, 0
0, 0
1, 0
0, 0
0, 0
0, 0
0, 0
0, 0
0, 0
1, 0
2, 1
0, 1
0, 0
0, 0
0, 0
0, 1
0, 0
0, 0
0, 0
0, 0
0, 0
0, 0
0, 0
0, 0
0, 0
0, 0
0, 0
0, 0
0, 0
0, 0
0, 0
0, 0
0, 0
0, 0
0, 0
0, 0
0, 0
0, 0
0, 0
0, 0
0, 0
0, 0
0, 0
0, 0
0, 0
0, 0
0, 0
0, 0
0, 0
0, 0
0, 0
0, 0
0, 0
0, 0
0, 0
0, 0
0, 0
0, 0
0, 0
0, 0
0, 0
0, 0
1, 0
0, 0
0, 0
0, 0
0, 0
0, 0
0, 0
0, 0
0, 0
0, 0
0, 0
0, 0
0, 0
0, 0
0, 0
0, 0
0, 0
0, 0
0, 0
0, 0
0, 0
0, 0
0, 0
0, 0
0, 0
0, 0
0, 0
0, 0
0, 0
0, 0
0, 0
0, 0
0, 0
0, 0
0, 0
0, 0
0, 0
0, 0
0, 0
0, 0
0, 0
0, 0
0, 0
0, 0
0, 0
0, 0
0, 0
0, 0
0, 0
0, 0
0, 0
0, 0
0, 0
0, 0
0, 0
0, 0
0, 0
#ENDOFDATA     end of spectrum data