File: host_upload/06-09-2024/ps_0852/dump3/ps__0852shot_2555.msa
#FORMAT      : EMSA/MAS spectral data file
#VERSION     : TC202v2.0 PIXL
#TITLE       : N/A
#DATE        :       Date in the format DD-MMM-YYYY, for example 07-JUL-2010
#TIME        :             The time of day at which the spectrum was recorded, in 24-hour format
#OWNER       : PIXL Flight Model       (PIXL will use this to indicate which instrument took the data.)
#NPOINTS     : 4096     Number of data points in the spectrum (This can be zero for configuration only files)
#NCOLUMNS    : 2     Number of data columns in the spectrum (This can be zero for configuration only files)
#XUNITS      : eV
#YUNITS      : COUNTS
#DATATYPE    : YY
#XPERCHAN    : 7.862, 7.881   eV per channel (separate by commas if more than one detector)
#OFFSET      : 18.5, -22.4         eV of first channel  (separate by commas if more than one detector
#SIGNALTYPE  : XRF
#YP_TEMP     : 2.492
#LIVETIME    : 8.54617, 8.56287   seconds (separate by commas if more than one detector)
#REALTIME    : 10, 10.0   seconds (separate by commas if more than one detector)
#SPECTRUM    : start of spectrum data
0, 0
0, 0
0, 0
0, 0
0, 0
0, 0
0, 0
0, 0
1, 0
1, 0
1, 3
46, 36
60, 56
4, 3
2, 3
102, 94
449, 430
87, 95
4, 2
1, 0
2, 2
2, 2
4, 2
1, 5
24, 30
25, 25
16, 9
10, 8
4, 2
3, 1
2, 2
2, 0
6, 1
29, 13
27, 20
9, 5
3, 4
5, 4
4, 4
1, 1
0, 2
10, 10
12, 7
7, 7
4, 6
2, 6
5, 4
6, 14
4, 53
8, 38
13, 22
15, 11
40, 11
49, 35
79, 55
43, 18
29, 24
474, 579
2263, 2198
1554, 1291
206, 149
12, 15
19, 16
100, 101
344, 300
233, 187
25, 25
17, 7
25, 14
7, 5
5, 3
2, 3
3, 4
3, 7
4, 10
3, 6
7, 3
4, 3
4, 4
5, 3
9, 4
18, 2
19, 4
6, 5
3, 5
7, 4
6, 3
2, 4
1, 5
5, 2
4, 2
4, 2
1, 3
6, 1
8, 4
7, 4
4, 2
5, 1
3, 3
3, 3
3, 1
4, 2
0, 3
2, 3
2, 3
2, 3
2, 0
0, 4
0, 4
1, 2
2, 1
3, 3
2, 1
2, 2
1, 2
4, 6
5, 5
1, 2
3, 2
0, 2
3, 1
1, 2
3, 2
0, 0
0, 1
0, 1
1, 3
3, 1
2, 0
2, 0
0, 0
0, 0
1, 0
2, 2
0, 1
0, 0
0, 1
0, 0
1, 1
1, 0
0, 0
0, 2
1, 0
0, 1
0, 1
0, 0
0, 0
0, 0
3, 1
0, 0
1, 2
1, 0
0, 0
0, 0
0, 0
0, 2
0, 0
0, 0
0, 1
0, 0
1, 0
0, 0
0, 0
1, 1
0, 0
0, 0
0, 0
0, 0
0, 0
0, 0
1, 0
0, 0
0, 0
0, 1
0, 0
0, 0
0, 0
0, 0
1, 0
0, 0
0, 0
0, 0
0, 0
0, 0
0, 0
0, 0
0, 0
0, 0
0, 0
0, 0
0, 0
1, 0
0, 1
0, 1
0, 0
0, 0
0, 0
0, 0
0, 0
0, 0
0, 0
0, 0
0, 0
0, 0
0, 1
0, 0
0, 0
0, 0
0, 0
0, 0
0, 0
0, 0
0, 0
0, 0
0, 0
0, 0
0, 0
0, 0
0, 0
0, 0
0, 0
0, 0
0, 0
0, 0
0, 0
0, 0
0, 0
0, 0
0, 0
0, 0
0, 0
0, 0
0, 0
0, 0
0, 0
0, 0
0, 0
0, 0
0, 0
0, 0
0, 0
0, 0
0, 0
0, 0
0, 0
0, 0
0, 0
0, 0
0, 0
0, 0
0, 0
0, 0
0, 0
0, 0
0, 0
0, 0
0, 0
0, 0
0, 0
0, 0
0, 0
0, 0
0, 0
0, 0
0, 0
0, 0
0, 0
0, 0
0, 0
0, 0
0, 0
0, 0
0, 0
0, 0
0, 0
0, 0
0, 0
0, 0
0, 0
0, 0
0, 0
0, 0
0, 0
0, 0
0, 0
0, 0
0, 0
0, 0
0, 0
0, 0
0, 0
0, 0
0, 0
0, 0
#ENDOFDATA     end of spectrum data