File: host_upload/06-09-2024/ps_0852/dump3/ps__0852shot_2246.msa
#FORMAT      : EMSA/MAS spectral data file
#VERSION     : TC202v2.0 PIXL
#TITLE       : N/A
#DATE        :       Date in the format DD-MMM-YYYY, for example 07-JUL-2010
#TIME        :             The time of day at which the spectrum was recorded, in 24-hour format
#OWNER       : PIXL Flight Model       (PIXL will use this to indicate which instrument took the data.)
#NPOINTS     : 4096     Number of data points in the spectrum (This can be zero for configuration only files)
#NCOLUMNS    : 2     Number of data columns in the spectrum (This can be zero for configuration only files)
#XUNITS      : eV
#YUNITS      : COUNTS
#DATATYPE    : YY
#XPERCHAN    : 7.862, 7.881   eV per channel (separate by commas if more than one detector)
#OFFSET      : 18.5, -22.4         eV of first channel  (separate by commas if more than one detector
#SIGNALTYPE  : XRF
#YP_TEMP     : 2.011
#LIVETIME    : 8.56444, 8.57117   seconds (separate by commas if more than one detector)
#REALTIME    : 10, 10.0   seconds (separate by commas if more than one detector)
#SPECTRUM    : start of spectrum data
0, 0
0, 0
0, 0
0, 0
0, 0
0, 0
0, 0
0, 0
0, 0
2, 1
4, 2
47, 47
70, 68
5, 3
8, 3
96, 97
478, 450
127, 106
1, 3
1, 1
2, 0
0, 4
3, 3
6, 7
46, 29
51, 27
20, 28
9, 17
7, 10
3, 0
3, 2
1, 0
1, 3
13, 8
13, 19
4, 2
3, 2
2, 4
3, 4
3, 4
8, 4
56, 9
57, 17
15, 8
6, 3
1, 9
4, 9
8, 3
26, 5
12, 13
10, 18
11, 47
8, 100
33, 81
56, 63
20, 10
46, 40
534, 605
2259, 2370
1603, 1352
239, 141
33, 33
25, 42
109, 128
327, 349
262, 207
36, 27
9, 34
13, 28
12, 8
3, 4
4, 3
8, 4
5, 3
8, 7
5, 4
5, 7
6, 5
2, 19
1, 22
3, 6
2, 3
2, 4
10, 2
14, 7
27, 6
5, 9
5, 5
2, 2
3, 3
1, 1
2, 6
1, 9
0, 7
2, 5
3, 1
3, 2
5, 1
4, 3
6, 1
1, 2
2, 2
2, 2
0, 1
4, 2
1, 3
1, 2
2, 0
4, 1
5, 3
0, 0
1, 0
1, 1
5, 4
3, 3
3, 0
10, 5
4, 2
3, 1
5, 3
1, 0
2, 1
0, 4
1, 0
0, 0
0, 2
2, 0
0, 1
3, 1
1, 2
0, 0
0, 0
0, 0
0, 0
1, 1
0, 1
0, 3
1, 1
0, 1
0, 0
0, 0
0, 0
0, 1
2, 0
2, 0
0, 0
0, 2
2, 0
0, 0
0, 1
1, 0
0, 0
1, 1
0, 0
0, 1
0, 1
0, 2
1, 0
0, 0
1, 0
1, 0
1, 0
0, 0
0, 0
1, 0
0, 0
0, 2
1, 1
1, 0
0, 2
0, 0
0, 0
0, 0
2, 0
0, 0
0, 0
0, 0
0, 0
0, 0
0, 1
0, 0
0, 0
0, 0
0, 0
0, 0
0, 0
0, 0
0, 1
0, 0
0, 1
0, 0
0, 0
0, 0
0, 0
0, 0
0, 0
0, 0
0, 0
0, 0
0, 0
0, 0
0, 0
0, 0
0, 0
0, 0
0, 0
0, 0
0, 0
0, 0
0, 0
0, 0
0, 0
0, 0
0, 0
0, 0
0, 0
0, 0
0, 0
0, 0
0, 0
0, 0
0, 0
0, 0
0, 0
0, 0
0, 0
0, 0
0, 0
0, 0
0, 0
0, 0
0, 0
0, 0
0, 0
0, 0
0, 0
0, 0
0, 0
0, 0
0, 0
0, 0
0, 0
0, 0
0, 0
0, 0
0, 0
0, 0
0, 0
0, 0
0, 0
0, 0
0, 0
0, 0
0, 0
0, 0
0, 0
0, 0
0, 0
0, 0
0, 0
0, 0
0, 0
0, 0
0, 0
0, 0
0, 0
0, 0
0, 0
0, 0
0, 0
0, 0
0, 0
0, 0
0, 0
0, 0
0, 0
0, 0
0, 0
0, 0
0, 0
0, 0
0, 0
0, 0
0, 0
0, 0
0, 0
0, 0
0, 0
0, 0
0, 0
0, 0
0, 0
0, 0
0, 0
#ENDOFDATA     end of spectrum data