File: host_upload/06-09-2024/ps_0852/dump3/ps__0852shot_2543.msa
#FORMAT      : EMSA/MAS spectral data file
#VERSION     : TC202v2.0 PIXL
#TITLE       : N/A
#DATE        :       Date in the format DD-MMM-YYYY, for example 07-JUL-2010
#TIME        :             The time of day at which the spectrum was recorded, in 24-hour format
#OWNER       : PIXL Flight Model       (PIXL will use this to indicate which instrument took the data.)
#NPOINTS     : 4096     Number of data points in the spectrum (This can be zero for configuration only files)
#NCOLUMNS    : 2     Number of data columns in the spectrum (This can be zero for configuration only files)
#XUNITS      : eV
#YUNITS      : COUNTS
#DATATYPE    : YY
#XPERCHAN    : 7.862, 7.881   eV per channel (separate by commas if more than one detector)
#OFFSET      : 18.5, -22.4         eV of first channel  (separate by commas if more than one detector
#SIGNALTYPE  : XRF
#YP_TEMP     : 2.267
#LIVETIME    : 8.56451, 8.55363   seconds (separate by commas if more than one detector)
#REALTIME    : 10, 10.0   seconds (separate by commas if more than one detector)
#SPECTRUM    : start of spectrum data
0, 0
0, 0
0, 0
0, 0
0, 0
0, 0
0, 0
1, 0
0, 0
0, 0
1, 3
57, 49
59, 49
5, 5
5, 6
106, 97
418, 410
113, 122
1, 3
2, 2
0, 6
2, 2
2, 1
7, 5
65, 28
113, 40
39, 23
21, 9
5, 2
3, 3
2, 7
2, 2
1, 3
31, 30
70, 47
16, 9
9, 10
18, 6
18, 6
13, 2
7, 9
10, 25
14, 40
10, 39
8, 20
25, 14
18, 17
7, 11
15, 6
23, 11
18, 8
20, 13
16, 8
41, 45
68, 54
19, 31
22, 40
472, 558
2094, 2328
1502, 1359
176, 151
34, 35
25, 52
104, 129
334, 361
238, 188
33, 21
13, 7
12, 13
15, 7
5, 7
3, 9
4, 12
3, 9
6, 4
21, 6
19, 4
7, 1
6, 4
1, 3
9, 2
4, 4
4, 5
1, 7
3, 4
3, 5
1, 9
1, 15
2, 7
5, 6
3, 4
6, 3
3, 8
3, 7
0, 9
2, 5
6, 5
5, 3
0, 1
2, 3
3, 1
3, 3
0, 2
1, 1
2, 2
1, 2
1, 2
4, 0
0, 3
1, 2
2, 1
1, 2
0, 1
2, 1
1, 1
1, 1
2, 3
2, 5
4, 1
1, 0
1, 0
2, 2
3, 3
3, 1
2, 1
3, 2
5, 0
0, 2
0, 0
0, 0
1, 1
0, 1
0, 0
0, 1
0, 0
1, 1
0, 0
2, 2
1, 0
0, 0
0, 1
0, 0
0, 0
1, 0
0, 0
0, 0
0, 1
0, 0
1, 0
0, 1
0, 1
1, 0
1, 0
0, 1
0, 0
0, 0
0, 0
0, 0
0, 0
0, 1
0, 0
1, 0
1, 0
0, 0
0, 1
0, 0
0, 1
1, 0
1, 0
0, 1
1, 1
0, 0
1, 0
0, 0
0, 0
0, 1
0, 0
1, 0
0, 0
0, 0
1, 0
0, 0
0, 0
0, 0
0, 0
0, 0
0, 0
0, 0
0, 0
0, 0
0, 0
0, 1
0, 0
0, 0
0, 1
0, 0
0, 0
0, 0
0, 0
0, 0
0, 0
0, 0
0, 0
0, 0
0, 0
0, 0
0, 0
0, 0
0, 0
0, 0
0, 0
0, 0
0, 0
0, 0
0, 0
0, 0
0, 0
0, 0
0, 0
0, 0
0, 0
0, 0
0, 0
0, 0
0, 0
0, 0
0, 0
0, 0
0, 0
0, 0
0, 0
0, 0
0, 0
0, 0
0, 0
0, 0
0, 0
0, 0
0, 0
0, 0
0, 0
0, 0
0, 0
0, 0
0, 0
0, 0
0, 0
0, 0
0, 0
0, 0
0, 0
0, 0
0, 0
0, 0
0, 0
0, 0
0, 0
0, 0
0, 0
0, 0
0, 0
0, 0
0, 0
0, 0
0, 0
0, 0
0, 0
0, 0
0, 0
0, 0
0, 0
0, 0
0, 0
0, 0
0, 0
0, 0
0, 0
0, 0
0, 0
0, 0
0, 0
0, 0
0, 0
0, 0
0, 0
0, 0
0, 0
0, 0
0, 0
0, 0
0, 0
0, 0
0, 0
0, 0
#ENDOFDATA     end of spectrum data