File: host_upload/06-09-2024/ps_0852/dump3/ps__0852shot_2169.msa
#FORMAT      : EMSA/MAS spectral data file
#VERSION     : TC202v2.0 PIXL
#TITLE       : N/A
#DATE        :       Date in the format DD-MMM-YYYY, for example 07-JUL-2010
#TIME        :             The time of day at which the spectrum was recorded, in 24-hour format
#OWNER       : PIXL Flight Model       (PIXL will use this to indicate which instrument took the data.)
#NPOINTS     : 4096     Number of data points in the spectrum (This can be zero for configuration only files)
#NCOLUMNS    : 2     Number of data columns in the spectrum (This can be zero for configuration only files)
#XUNITS      : eV
#YUNITS      : COUNTS
#DATATYPE    : YY
#XPERCHAN    : 7.862, 7.881   eV per channel (separate by commas if more than one detector)
#OFFSET      : 18.5, -22.4         eV of first channel  (separate by commas if more than one detector
#SIGNALTYPE  : XRF
#YP_TEMP     : 2.3
#LIVETIME    : 8.54761, 8.5509   seconds (separate by commas if more than one detector)
#REALTIME    : 10, 10.0   seconds (separate by commas if more than one detector)
#SPECTRUM    : start of spectrum data
0, 0
0, 0
0, 0
0, 0
0, 0
0, 0
0, 0
0, 0
0, 0
1, 1
2, 4
51, 51
65, 65
6, 5
1, 10
94, 101
404, 468
102, 98
7, 7
1, 1
1, 5
8, 10
3, 2
1, 3
21, 19
21, 28
14, 8
7, 3
6, 1
1, 2
0, 4
3, 1
3, 4
11, 8
14, 14
4, 1
2, 0
1, 5
2, 1
5, 2
0, 7
7, 10
14, 14
9, 8
3, 5
5, 9
7, 2
3, 8
9, 11
52, 15
102, 15
31, 10
16, 12
48, 40
89, 51
31, 22
20, 34
397, 599
2011, 2322
1496, 1411
185, 171
11, 10
20, 24
94, 123
294, 359
245, 185
24, 20
2, 5
10, 11
9, 8
2, 5
7, 11
4, 9
10, 7
10, 4
5, 4
6, 3
6, 4
11, 4
8, 9
11, 3
27, 6
13, 10
4, 11
3, 5
3, 2
4, 2
3, 2
5, 2
4, 7
2, 1
3, 3
2, 1
2, 2
2, 3
3, 2
4, 1
4, 1
2, 3
7, 2
7, 4
3, 3
6, 1
1, 2
1, 4
1, 1
0, 2
0, 5
2, 4
0, 2
0, 3
1, 5
0, 2
4, 1
1, 2
3, 3
5, 3
3, 5
2, 0
0, 2
1, 1
2, 1
1, 3
1, 3
0, 1
0, 0
0, 0
0, 0
2, 1
1, 1
0, 1
0, 1
0, 0
0, 0
2, 1
1, 1
0, 0
1, 1
1, 1
1, 1
1, 0
0, 0
0, 0
0, 1
1, 0
0, 1
1, 0
1, 0
0, 1
0, 0
0, 0
0, 0
0, 0
0, 0
1, 0
0, 0
0, 0
0, 0
0, 1
0, 1
1, 0
0, 0
0, 1
0, 1
0, 1
0, 0
0, 2
0, 0
0, 0
0, 0
0, 0
1, 1
0, 0
0, 1
0, 0
0, 0
0, 0
0, 0
0, 0
0, 0
0, 0
0, 0
0, 0
0, 1
1, 1
0, 0
1, 0
1, 0
0, 0
1, 0
0, 0
0, 0
0, 0
0, 0
0, 0
0, 0
0, 0
0, 0
1, 0
0, 0
0, 0
0, 0
0, 0
0, 0
0, 0
0, 0
0, 0
0, 0
0, 0
0, 0
0, 0
0, 0
0, 0
0, 0
0, 0
0, 0
0, 0
0, 0
0, 0
0, 0
0, 0
0, 1
0, 0
0, 0
0, 0
0, 0
0, 0
0, 0
0, 0
0, 0
0, 0
0, 0
0, 0
0, 0
0, 0
0, 0
0, 0
0, 0
0, 0
0, 0
0, 0
0, 0
0, 0
0, 0
0, 0
0, 0
0, 0
0, 0
0, 0
0, 0
0, 0
0, 0
0, 0
0, 0
0, 0
0, 0
0, 0
0, 0
0, 0
0, 0
0, 0
0, 0
0, 0
0, 0
0, 0
0, 0
0, 0
0, 0
0, 0
0, 0
0, 0
0, 0
0, 0
0, 0
0, 0
0, 0
0, 0
0, 0
0, 0
0, 0
0, 0
0, 0
0, 0
0, 0
0, 0
0, 0
0, 0
0, 0
0, 0
0, 0
0, 0
0, 0
0, 0
0, 0
#ENDOFDATA     end of spectrum data