File: host_upload/06-09-2024/ps_0852/dump3/ps__0852shot_2508.msa
#FORMAT      : EMSA/MAS spectral data file
#VERSION     : TC202v2.0 PIXL
#TITLE       : N/A
#DATE        :       Date in the format DD-MMM-YYYY, for example 07-JUL-2010
#TIME        :             The time of day at which the spectrum was recorded, in 24-hour format
#OWNER       : PIXL Flight Model       (PIXL will use this to indicate which instrument took the data.)
#NPOINTS     : 4096     Number of data points in the spectrum (This can be zero for configuration only files)
#NCOLUMNS    : 2     Number of data columns in the spectrum (This can be zero for configuration only files)
#XUNITS      : eV
#YUNITS      : COUNTS
#DATATYPE    : YY
#XPERCHAN    : 7.862, 7.881   eV per channel (separate by commas if more than one detector)
#OFFSET      : 18.5, -22.4         eV of first channel  (separate by commas if more than one detector
#SIGNALTYPE  : XRF
#YP_TEMP     : 2.171
#LIVETIME    : 8.56738, 8.54664   seconds (separate by commas if more than one detector)
#REALTIME    : 10, 10.0   seconds (separate by commas if more than one detector)
#SPECTRUM    : start of spectrum data
0, 0
0, 0
0, 0
0, 0
0, 0
0, 0
0, 0
0, 0
3, 0
1, 1
1, 3
29, 43
55, 29
5, 5
11, 6
98, 96
441, 446
92, 95
4, 8
5, 7
23, 29
134, 119
45, 53
13, 15
48, 59
80, 44
57, 34
19, 17
6, 5
2, 2
3, 4
2, 3
3, 6
77, 85
125, 140
23, 19
17, 17
14, 25
8, 7
1, 4
8, 11
17, 26
9, 17
9, 15
4, 7
4, 11
7, 9
2, 7
3, 15
23, 18
32, 11
37, 9
14, 6
34, 34
53, 63
25, 49
15, 47
432, 566
1960, 2248
1401, 1391
166, 140
14, 26
25, 22
116, 118
309, 357
204, 202
29, 30
15, 9
9, 17
12, 9
9, 7
8, 6
7, 4
5, 9
6, 3
6, 13
6, 15
5, 4
4, 5
1, 2
6, 5
5, 4
5, 4
7, 10
1, 3
0, 0
1, 5
7, 5
2, 2
7, 3
1, 6
3, 8
3, 3
6, 3
7, 4
1, 3
1, 3
3, 1
5, 2
2, 3
2, 4
3, 4
5, 4
1, 3
1, 1
4, 3
5, 3
2, 1
3, 2
1, 3
0, 1
1, 1
1, 1
0, 5
4, 3
2, 4
3, 2
3, 4
2, 4
2, 0
2, 1
2, 6
1, 1
2, 3
3, 2
0, 2
1, 0
1, 3
2, 3
0, 1
0, 1
4, 2
2, 2
0, 2
2, 1
3, 2
0, 1
1, 0
2, 0
0, 1
0, 1
0, 0
0, 1
0, 2
0, 0
1, 1
1, 1
2, 1
0, 1
1, 0
0, 0
0, 1
0, 0
0, 0
0, 1
0, 2
0, 2
0, 0
0, 0
0, 0
2, 0
0, 0
0, 0
0, 0
0, 1
0, 0
1, 1
0, 1
0, 1
0, 1
0, 0
2, 0
0, 0
0, 1
0, 0
0, 0
0, 1
0, 0
1, 0
0, 0
0, 0
0, 0
0, 0
0, 0
1, 0
0, 0
0, 1
0, 0
0, 0
0, 0
0, 0
0, 0
0, 0
0, 0
0, 0
0, 0
0, 0
0, 0
0, 0
0, 0
0, 0
0, 0
0, 0
0, 0
0, 0
0, 0
0, 0
0, 0
0, 0
0, 0
0, 0
0, 0
0, 0
0, 0
0, 0
0, 0
0, 0
0, 0
0, 0
0, 0
0, 0
0, 0
0, 0
0, 0
0, 0
0, 0
0, 0
0, 0
0, 0
0, 0
0, 0
0, 0
0, 0
0, 0
0, 0
0, 0
1, 0
0, 0
0, 0
0, 0
0, 0
0, 0
0, 0
0, 0
0, 0
0, 0
0, 0
0, 0
0, 0
0, 0
0, 0
0, 0
0, 0
0, 0
0, 0
0, 0
0, 0
0, 0
0, 0
0, 0
0, 0
0, 0
0, 0
0, 0
0, 0
0, 0
0, 0
0, 0
0, 0
0, 0
0, 0
0, 0
0, 0
0, 0
0, 0
0, 0
0, 0
0, 0
0, 0
0, 0
0, 0
0, 0
0, 0
0, 0
0, 0
0, 0
0, 0
0, 0
0, 0
0, 0
0, 0
0, 0
0, 0
0, 0
#ENDOFDATA     end of spectrum data