File: host_upload/06-09-2024/ps_0852/dump3/ps__0852shot_2080.msa
#FORMAT      : EMSA/MAS spectral data file
#VERSION     : TC202v2.0 PIXL
#TITLE       : N/A
#DATE        :       Date in the format DD-MMM-YYYY, for example 07-JUL-2010
#TIME        :             The time of day at which the spectrum was recorded, in 24-hour format
#OWNER       : PIXL Flight Model       (PIXL will use this to indicate which instrument took the data.)
#NPOINTS     : 4096     Number of data points in the spectrum (This can be zero for configuration only files)
#NCOLUMNS    : 2     Number of data columns in the spectrum (This can be zero for configuration only files)
#XUNITS      : eV
#YUNITS      : COUNTS
#DATATYPE    : YY
#XPERCHAN    : 7.862, 7.881   eV per channel (separate by commas if more than one detector)
#OFFSET      : 18.5, -22.4         eV of first channel  (separate by commas if more than one detector
#SIGNALTYPE  : XRF
#YP_TEMP     : 2.428
#LIVETIME    : 8.5609, 8.5569   seconds (separate by commas if more than one detector)
#REALTIME    : 10, 10.0   seconds (separate by commas if more than one detector)
#SPECTRUM    : start of spectrum data
0, 0
0, 0
0, 0
0, 0
0, 0
0, 0
0, 0
0, 0
1, 0
2, 1
3, 0
59, 50
57, 55
10, 4
6, 6
77, 92
374, 347
102, 81
5, 3
1, 1
7, 12
24, 27
15, 16
20, 8
165, 20
307, 27
66, 15
15, 22
7, 4
1, 5
2, 1
5, 1
2, 0
13, 13
26, 14
9, 3
5, 1
23, 2
49, 9
21, 6
5, 4
9, 5
14, 35
8, 76
4, 75
4, 19
7, 7
6, 8
11, 9
12, 16
31, 12
28, 10
20, 12
38, 33
62, 59
27, 33
30, 47
485, 562
2080, 2217
1461, 1274
201, 158
85, 22
114, 28
152, 127
358, 345
219, 218
37, 23
10, 13
7, 13
5, 9
3, 8
3, 2
4, 3
6, 2
17, 1
43, 2
50, 6
23, 8
7, 11
6, 5
3, 1
3, 3
4, 6
2, 2
4, 7
1, 5
2, 6
2, 10
3, 2
7, 6
13, 2
10, 3
5, 4
4, 1
2, 2
2, 1
2, 2
1, 5
2, 0
3, 5
2, 1
4, 2
8, 1
4, 2
1, 1
3, 1
1, 1
1, 1
1, 3
1, 0
1, 0
2, 0
0, 0
2, 1
3, 2
3, 3
4, 4
3, 6
0, 3
0, 0
3, 1
1, 3
4, 1
3, 1
1, 1
2, 2
1, 1
0, 1
0, 1
1, 1
3, 1
2, 0
3, 0
0, 1
0, 0
0, 0
0, 1
1, 1
1, 2
2, 2
0, 1
1, 0
0, 1
0, 1
0, 0
0, 1
0, 1
0, 0
0, 0
0, 0
1, 0
1, 0
3, 1
0, 0
0, 0
0, 0
1, 0
0, 0
0, 0
1, 1
0, 0
1, 0
0, 0
0, 0
0, 0
0, 0
0, 1
0, 0
0, 0
0, 0
0, 0
1, 0
1, 0
0, 2
0, 0
1, 1
1, 0
0, 0
0, 0
0, 0
0, 0
1, 0
0, 0
0, 0
1, 1
1, 0
0, 0
0, 0
0, 0
1, 0
0, 0
0, 0
0, 0
0, 0
0, 0
0, 0
0, 0
0, 0
0, 0
0, 0
0, 0
0, 0
0, 0
0, 0
0, 0
0, 0
0, 1
0, 0
0, 0
0, 0
0, 0
0, 0
0, 0
0, 0
0, 0
0, 0
1, 0
0, 0
0, 0
0, 0
0, 0
0, 0
0, 0
0, 0
0, 0
0, 0
0, 0
0, 0
0, 0
0, 0
0, 0
0, 0
0, 0
0, 0
0, 0
0, 0
0, 0
0, 0
0, 0
0, 0
0, 0
0, 0
0, 0
0, 0
0, 0
0, 0
0, 0
0, 0
0, 0
0, 0
0, 0
0, 0
0, 0
0, 0
0, 0
0, 0
0, 0
0, 0
0, 0
0, 0
0, 0
0, 0
0, 0
0, 0
0, 0
0, 0
0, 0
0, 0
0, 0
0, 0
0, 0
0, 0
0, 0
0, 0
0, 0
0, 0
0, 0
0, 0
0, 0
0, 0
0, 0
0, 0
0, 0
0, 0
0, 0
0, 0
0, 0
0, 0
0, 0
0, 0
0, 0
0, 0
0, 0
0, 0
#ENDOFDATA     end of spectrum data