File: host_upload/06-09-2024/ps_0852/dump3/ps__0852shot_2018.msa
#FORMAT      : EMSA/MAS spectral data file
#VERSION     : TC202v2.0 PIXL
#TITLE       : N/A
#DATE        :       Date in the format DD-MMM-YYYY, for example 07-JUL-2010
#TIME        :             The time of day at which the spectrum was recorded, in 24-hour format
#OWNER       : PIXL Flight Model       (PIXL will use this to indicate which instrument took the data.)
#NPOINTS     : 4096     Number of data points in the spectrum (This can be zero for configuration only files)
#NCOLUMNS    : 2     Number of data columns in the spectrum (This can be zero for configuration only files)
#XUNITS      : eV
#YUNITS      : COUNTS
#DATATYPE    : YY
#XPERCHAN    : 7.862, 7.881   eV per channel (separate by commas if more than one detector)
#OFFSET      : 18.5, -22.4         eV of first channel  (separate by commas if more than one detector
#SIGNALTYPE  : XRF
#YP_TEMP     : 2.46
#LIVETIME    : 8.56991, 8.56092   seconds (separate by commas if more than one detector)
#REALTIME    : 10, 10.0   seconds (separate by commas if more than one detector)
#SPECTRUM    : start of spectrum data
0, 0
0, 0
0, 0
0, 0
0, 0
0, 0
0, 0
0, 0
0, 2
0, 0
4, 1
47, 43
60, 67
3, 5
8, 6
102, 106
408, 431
100, 110
9, 3
2, 1
1, 3
3, 5
2, 3
7, 10
41, 28
46, 32
28, 31
10, 23
5, 7
2, 1
2, 3
4, 0
0, 5
23, 26
21, 22
8, 9
6, 8
4, 8
5, 18
8, 4
14, 5
5, 11
12, 16
12, 7
11, 10
3, 4
8, 9
7, 5
15, 8
17, 19
14, 13
10, 38
17, 54
35, 66
68, 54
35, 16
56, 27
498, 569
2088, 2277
1605, 1438
232, 139
15, 15
33, 24
139, 129
351, 366
224, 186
33, 21
5, 8
17, 16
9, 12
3, 6
4, 6
5, 6
6, 7
18, 11
6, 9
4, 16
1, 9
5, 7
3, 7
12, 3
4, 5
3, 1
2, 1
3, 6
4, 3
2, 5
3, 1
10, 1
2, 5
7, 3
5, 3
1, 3
6, 2
4, 1
5, 4
2, 1
6, 6
3, 5
1, 0
2, 4
6, 2
1, 5
2, 1
3, 7
6, 0
2, 2
4, 1
1, 4
6, 3
3, 1
2, 1
2, 1
4, 3
4, 3
4, 4
1, 8
1, 3
2, 1
0, 3
1, 3
0, 2
2, 5
0, 1
3, 1
3, 2
0, 2
1, 0
0, 1
1, 0
2, 1
1, 0
1, 0
0, 0
1, 1
0, 0
1, 2
0, 1
0, 0
0, 0
1, 0
1, 0
0, 1
0, 1
0, 0
1, 0
2, 0
0, 2
0, 0
0, 1
0, 1
0, 0
0, 1
0, 0
0, 0
0, 0
1, 0
0, 1
3, 0
0, 1
0, 0
0, 0
0, 0
0, 0
1, 0
0, 0
0, 0
1, 0
0, 0
0, 1
0, 0
1, 0
0, 0
0, 0
0, 0
0, 0
0, 0
0, 0
0, 0
0, 0
0, 0
1, 1
0, 0
0, 0
0, 0
0, 0
0, 1
0, 0
0, 0
0, 0
0, 0
0, 0
0, 0
0, 0
0, 0
0, 0
0, 0
0, 0
0, 0
0, 0
0, 0
0, 0
0, 0
0, 0
0, 0
0, 0
0, 0
0, 0
0, 0
0, 0
0, 0
0, 0
0, 0
0, 0
0, 0
0, 0
0, 0
0, 0
0, 0
0, 0
0, 0
0, 0
0, 0
0, 0
0, 0
0, 0
0, 0
0, 0
0, 0
0, 0
0, 0
0, 0
0, 0
0, 0
0, 0
0, 0
0, 0
0, 0
0, 0
0, 0
0, 0
0, 0
0, 0
0, 0
0, 0
0, 0
0, 0
0, 0
0, 0
0, 0
0, 0
0, 0
0, 0
0, 0
0, 0
0, 0
0, 0
0, 0
0, 0
0, 0
0, 0
0, 0
0, 0
0, 0
0, 0
0, 0
0, 0
0, 0
0, 0
0, 0
0, 0
0, 0
0, 0
0, 0
0, 0
0, 0
0, 0
0, 0
0, 0
0, 0
0, 0
0, 0
0, 0
0, 0
0, 0
0, 0
0, 0
0, 0
0, 0
0, 0
0, 0
0, 0
0, 0
0, 0
#ENDOFDATA     end of spectrum data