File: host_upload/06-09-2024/ps_0852/dump3/ps__0852shot_2103.msa
#FORMAT      : EMSA/MAS spectral data file
#VERSION     : TC202v2.0 PIXL
#TITLE       : N/A
#DATE        :       Date in the format DD-MMM-YYYY, for example 07-JUL-2010
#TIME        :             The time of day at which the spectrum was recorded, in 24-hour format
#OWNER       : PIXL Flight Model       (PIXL will use this to indicate which instrument took the data.)
#NPOINTS     : 4096     Number of data points in the spectrum (This can be zero for configuration only files)
#NCOLUMNS    : 2     Number of data columns in the spectrum (This can be zero for configuration only files)
#XUNITS      : eV
#YUNITS      : COUNTS
#DATATYPE    : YY
#XPERCHAN    : 7.862, 7.881   eV per channel (separate by commas if more than one detector)
#OFFSET      : 18.5, -22.4         eV of first channel  (separate by commas if more than one detector
#SIGNALTYPE  : XRF
#YP_TEMP     : 2.428
#LIVETIME    : 8.54955, 8.55382   seconds (separate by commas if more than one detector)
#REALTIME    : 10, 10.0   seconds (separate by commas if more than one detector)
#SPECTRUM    : start of spectrum data
0, 0
0, 0
0, 0
0, 0
0, 0
0, 0
0, 0
0, 0
1, 1
2, 1
1, 3
53, 44
67, 62
2, 3
5, 3
91, 101
436, 448
107, 101
7, 6
0, 0
3, 0
7, 8
2, 8
9, 7
22, 21
27, 27
20, 14
11, 8
3, 2
3, 2
0, 3
0, 2
0, 3
3, 8
13, 20
5, 5
4, 2
6, 5
2, 3
3, 2
6, 6
10, 8
9, 7
5, 10
8, 6
1, 5
5, 4
5, 3
5, 7
57, 14
89, 8
40, 6
12, 7
61, 39
88, 50
44, 18
35, 34
465, 585
2059, 2160
1613, 1339
213, 120
15, 12
17, 26
91, 117
315, 362
209, 187
34, 20
5, 10
6, 9
12, 4
4, 3
3, 11
7, 10
7, 4
4, 6
1, 9
6, 4
12, 4
4, 4
4, 7
15, 6
22, 6
15, 8
10, 14
3, 5
4, 2
5, 3
3, 1
5, 5
7, 3
6, 5
2, 6
3, 1
3, 2
4, 4
2, 2
0, 7
4, 3
6, 0
2, 2
3, 1
2, 0
4, 2
4, 2
4, 2
2, 3
1, 4
3, 6
1, 4
4, 0
1, 1
2, 1
0, 4
3, 5
1, 2
2, 0
3, 4
5, 3
2, 0
1, 2
1, 1
0, 1
4, 3
0, 5
2, 2
0, 2
1, 0
0, 0
2, 2
0, 1
2, 0
0, 0
2, 1
0, 1
1, 1
1, 0
0, 1
3, 0
0, 0
1, 1
0, 2
2, 0
1, 0
2, 0
0, 1
0, 1
0, 1
0, 0
0, 0
2, 0
0, 0
0, 0
0, 0
0, 0
0, 0
0, 0
0, 1
0, 0
0, 1
0, 0
0, 0
0, 0
1, 1
1, 0
1, 1
1, 0
0, 1
2, 1
0, 0
0, 1
1, 0
0, 0
0, 1
1, 0
0, 0
0, 0
1, 0
0, 0
1, 0
0, 0
0, 0
0, 0
0, 0
0, 0
0, 0
0, 0
1, 0
0, 0
0, 0
0, 0
0, 0
0, 0
1, 1
0, 0
0, 0
0, 0
0, 0
0, 0
0, 0
0, 0
0, 0
0, 0
0, 0
0, 0
0, 0
0, 0
0, 0
0, 0
0, 0
0, 0
0, 0
0, 0
0, 0
0, 0
0, 0
0, 0
0, 0
0, 0
0, 0
0, 0
0, 0
0, 0
0, 0
0, 0
0, 0
0, 0
0, 0
0, 0
0, 0
0, 0
0, 0
0, 0
0, 0
0, 0
0, 0
0, 0
0, 0
0, 0
0, 0
0, 0
0, 0
0, 0
0, 0
0, 0
0, 0
0, 0
0, 0
0, 0
0, 0
0, 0
0, 0
0, 0
0, 0
0, 0
0, 0
0, 0
0, 0
0, 0
0, 0
0, 0
0, 0
0, 0
0, 0
0, 0
0, 0
0, 0
0, 0
0, 0
0, 0
0, 0
0, 0
0, 0
0, 0
0, 0
0, 0
0, 0
0, 0
0, 0
0, 0
0, 0
0, 0
0, 0
0, 0
0, 0
0, 0
0, 0
0, 0
0, 0
0, 0
0, 0
0, 0
0, 0
0, 0
0, 0
#ENDOFDATA     end of spectrum data