File: host_upload/06-09-2024/ps_0852/dump3/ps__0852shot_2532.msa
#FORMAT      : EMSA/MAS spectral data file
#VERSION     : TC202v2.0 PIXL
#TITLE       : N/A
#DATE        :       Date in the format DD-MMM-YYYY, for example 07-JUL-2010
#TIME        :             The time of day at which the spectrum was recorded, in 24-hour format
#OWNER       : PIXL Flight Model       (PIXL will use this to indicate which instrument took the data.)
#NPOINTS     : 4096     Number of data points in the spectrum (This can be zero for configuration only files)
#NCOLUMNS    : 2     Number of data columns in the spectrum (This can be zero for configuration only files)
#XUNITS      : eV
#YUNITS      : COUNTS
#DATATYPE    : YY
#XPERCHAN    : 7.862, 7.881   eV per channel (separate by commas if more than one detector)
#OFFSET      : 18.5, -22.4         eV of first channel  (separate by commas if more than one detector
#SIGNALTYPE  : XRF
#YP_TEMP     : 2.171
#LIVETIME    : 8.54546, 8.51402   seconds (separate by commas if more than one detector)
#REALTIME    : 10, 10.0   seconds (separate by commas if more than one detector)
#SPECTRUM    : start of spectrum data
0, 0
0, 0
0, 0
0, 0
0, 0
0, 0
0, 0
0, 0
0, 0
1, 1
2, 1
43, 42
51, 63
3, 6
1, 6
109, 110
439, 463
109, 92
3, 3
3, 1
10, 18
64, 69
32, 21
13, 10
46, 30
43, 48
16, 29
13, 15
5, 8
2, 1
1, 3
0, 0
2, 1
5, 4
13, 7
4, 24
2, 10
23, 8
33, 5
12, 6
11, 4
6, 6
13, 19
19, 18
5, 4
7, 5
6, 9
9, 3
4, 7
5, 15
6, 5
6, 10
8, 10
38, 46
56, 69
35, 22
35, 38
467, 563
2172, 2382
1636, 1395
173, 138
13, 49
25, 44
97, 128
352, 382
250, 220
29, 23
4, 10
12, 11
11, 9
5, 7
6, 3
2, 3
7, 2
16, 4
28, 3
22, 6
2, 6
6, 8
5, 7
3, 9
4, 5
1, 4
3, 2
6, 3
6, 3
2, 2
4, 0
4, 4
6, 8
1, 12
1, 3
0, 3
3, 6
1, 1
3, 0
3, 3
3, 3
1, 1
4, 4
5, 2
2, 0
2, 1
2, 1
1, 2
1, 3
4, 9
0, 3
3, 4
3, 3
4, 1
2, 2
6, 2
5, 2
1, 3
3, 6
5, 5
2, 3
2, 2
3, 1
2, 1
0, 0
0, 2
1, 1
1, 0
1, 2
0, 0
5, 1
1, 3
2, 0
1, 3
2, 1
0, 3
1, 1
1, 0
1, 0
0, 1
0, 2
0, 0
0, 1
0, 0
2, 2
0, 0
2, 0
0, 1
0, 1
1, 0
0, 0
0, 0
0, 0
0, 1
0, 0
0, 0
0, 0
1, 0
0, 1
0, 0
0, 0
0, 0
1, 0
0, 0
1, 1
0, 0
0, 0
0, 0
0, 0
0, 0
0, 0
0, 0
1, 0
0, 0
0, 0
0, 1
0, 0
0, 0
0, 1
0, 0
0, 1
0, 1
0, 0
0, 1
0, 0
0, 1
0, 1
0, 0
0, 0
0, 1
0, 0
0, 0
0, 0
0, 0
1, 0
0, 0
0, 0
0, 0
0, 0
0, 0
0, 0
0, 0
0, 0
0, 0
0, 0
0, 0
0, 0
0, 0
0, 0
0, 0
0, 0
0, 0
0, 0
0, 0
0, 0
0, 0
0, 0
0, 0
0, 0
0, 0
0, 0
0, 0
0, 0
0, 0
0, 0
0, 0
0, 0
0, 0
0, 0
0, 0
0, 0
0, 0
0, 0
0, 0
0, 0
0, 0
0, 0
0, 0
0, 0
0, 0
0, 0
0, 0
0, 0
0, 0
0, 0
0, 0
0, 0
0, 0
0, 0
0, 0
0, 0
0, 0
0, 0
0, 0
0, 0
0, 0
0, 0
0, 0
0, 0
0, 0
0, 0
0, 0
0, 0
0, 0
0, 0
0, 0
0, 0
0, 0
0, 0
0, 0
0, 0
0, 0
0, 0
0, 0
0, 0
0, 0
0, 0
0, 0
0, 0
0, 0
0, 0
0, 0
0, 0
0, 0
0, 0
0, 0
0, 0
0, 0
0, 0
0, 0
0, 0
0, 0
0, 0
0, 0
0, 0
0, 0
0, 0
#ENDOFDATA     end of spectrum data