File: host_upload/06-09-2024/ps_0852/dump3/ps__0852shot_2415.msa
#FORMAT      : EMSA/MAS spectral data file
#VERSION     : TC202v2.0 PIXL
#TITLE       : N/A
#DATE        :       Date in the format DD-MMM-YYYY, for example 07-JUL-2010
#TIME        :             The time of day at which the spectrum was recorded, in 24-hour format
#OWNER       : PIXL Flight Model       (PIXL will use this to indicate which instrument took the data.)
#NPOINTS     : 4096     Number of data points in the spectrum (This can be zero for configuration only files)
#NCOLUMNS    : 2     Number of data columns in the spectrum (This can be zero for configuration only files)
#XUNITS      : eV
#YUNITS      : COUNTS
#DATATYPE    : YY
#XPERCHAN    : 7.862, 7.881   eV per channel (separate by commas if more than one detector)
#OFFSET      : 18.5, -22.4         eV of first channel  (separate by commas if more than one detector
#SIGNALTYPE  : XRF
#YP_TEMP     : 2.556
#LIVETIME    : 8.56563, 8.53347   seconds (separate by commas if more than one detector)
#REALTIME    : 10, 10.0   seconds (separate by commas if more than one detector)
#SPECTRUM    : start of spectrum data
0, 0
0, 0
0, 0
0, 0
0, 0
0, 0
0, 0
0, 0
0, 1
0, 2
6, 0
36, 52
73, 44
4, 7
3, 6
98, 92
461, 432
114, 102
2, 4
1, 1
1, 3
3, 2
3, 1
5, 6
24, 24
36, 27
27, 18
25, 5
5, 3
2, 0
2, 4
1, 2
0, 2
11, 11
12, 16
5, 2
4, 4
7, 2
6, 4
29, 5
63, 2
15, 11
11, 20
15, 9
2, 7
10, 8
4, 14
10, 12
3, 12
11, 9
15, 8
40, 10
65, 6
128, 36
97, 55
18, 18
30, 45
486, 573
2217, 2224
1597, 1274
202, 134
11, 44
17, 45
113, 144
340, 361
210, 163
34, 33
7, 11
15, 15
7, 7
7, 4
5, 5
2, 1
3, 2
9, 2
11, 4
8, 5
11, 17
13, 17
6, 9
6, 13
3, 11
0, 12
2, 1
2, 4
1, 5
3, 1
5, 5
3, 3
1, 4
4, 9
3, 6
5, 13
9, 14
3, 14
4, 2
3, 2
3, 2
3, 2
2, 5
2, 2
2, 2
7, 1
5, 3
2, 1
2, 0
3, 2
1, 5
0, 4
3, 4
2, 2
1, 1
1, 3
3, 0
2, 2
3, 4
3, 1
3, 3
4, 1
2, 1
5, 1
1, 2
0, 3
2, 2
2, 2
3, 2
0, 2
1, 0
1, 0
1, 0
0, 0
0, 0
0, 1
2, 0
0, 2
0, 1
0, 1
1, 2
1, 0
0, 1
1, 1
2, 0
1, 1
0, 2
0, 2
0, 0
0, 0
0, 0
1, 1
0, 2
0, 1
1, 0
1, 0
1, 1
1, 0
0, 0
1, 0
0, 0
2, 0
0, 1
1, 0
1, 1
0, 0
1, 0
1, 1
1, 1
0, 0
0, 0
0, 0
0, 1
1, 0
0, 0
1, 1
0, 0
0, 0
0, 0
0, 0
0, 0
0, 0
1, 0
0, 0
0, 0
1, 0
0, 0
1, 0
0, 0
0, 0
0, 0
1, 0
0, 0
0, 0
0, 0
0, 0
0, 0
1, 0
0, 0
0, 0
1, 0
0, 0
0, 0
0, 0
0, 0
0, 1
0, 0
0, 0
0, 0
0, 0
0, 0
0, 0
0, 0
0, 0
0, 0
1, 0
0, 0
0, 0
0, 0
0, 0
0, 0
0, 0
0, 0
0, 0
0, 0
0, 0
0, 0
0, 0
0, 0
0, 0
0, 0
0, 0
0, 0
0, 0
0, 0
0, 0
0, 0
0, 0
0, 0
0, 0
0, 0
0, 0
0, 0
0, 0
0, 0
0, 0
0, 0
0, 0
0, 0
0, 0
0, 0
0, 0
0, 0
0, 0
0, 0
0, 0
0, 0
0, 0
0, 0
0, 0
0, 0
0, 0
0, 0
0, 0
0, 0
0, 0
0, 0
0, 0
0, 0
0, 0
0, 0
0, 0
0, 0
0, 0
0, 0
0, 0
0, 0
0, 0
0, 0
0, 0
0, 0
0, 0
0, 0
0, 0
0, 0
0, 0
0, 0
0, 0
0, 0
0, 0
0, 0
0, 0
0, 0
0, 0
0, 0
0, 0
0, 0
#ENDOFDATA     end of spectrum data