File: host_upload/06-09-2024/ps_0852/dump3/ps__0852shot_2298.msa
#FORMAT      : EMSA/MAS spectral data file
#VERSION     : TC202v2.0 PIXL
#TITLE       : N/A
#DATE        :       Date in the format DD-MMM-YYYY, for example 07-JUL-2010
#TIME        :             The time of day at which the spectrum was recorded, in 24-hour format
#OWNER       : PIXL Flight Model       (PIXL will use this to indicate which instrument took the data.)
#NPOINTS     : 4096     Number of data points in the spectrum (This can be zero for configuration only files)
#NCOLUMNS    : 2     Number of data columns in the spectrum (This can be zero for configuration only files)
#XUNITS      : eV
#YUNITS      : COUNTS
#DATATYPE    : YY
#XPERCHAN    : 7.862, 7.881   eV per channel (separate by commas if more than one detector)
#OFFSET      : 18.5, -22.4         eV of first channel  (separate by commas if more than one detector
#SIGNALTYPE  : XRF
#YP_TEMP     : 2.364
#LIVETIME    : 8.5284, 8.54585   seconds (separate by commas if more than one detector)
#REALTIME    : 10, 10.0   seconds (separate by commas if more than one detector)
#SPECTRUM    : start of spectrum data
0, 0
0, 0
0, 0
0, 0
0, 0
0, 0
0, 0
0, 0
0, 0
2, 3
4, 3
47, 47
65, 55
12, 4
3, 3
102, 81
452, 385
114, 87
4, 6
2, 2
3, 5
18, 15
13, 6
10, 8
44, 42
66, 45
27, 28
14, 14
0, 5
2, 0
1, 4
3, 3
4, 3
15, 21
35, 21
18, 3
3, 8
11, 10
26, 12
10, 6
8, 7
12, 14
15, 13
20, 13
5, 6
4, 5
10, 3
7, 3
10, 6
24, 6
48, 20
25, 11
17, 13
36, 34
75, 66
23, 49
40, 52
505, 563
2166, 2245
1654, 1422
209, 137
31, 31
48, 24
105, 120
361, 345
224, 194
33, 23
7, 5
9, 14
15, 5
9, 1
10, 4
7, 1
6, 4
4, 9
5, 10
7, 10
6, 6
5, 4
4, 3
5, 2
6, 6
3, 4
2, 4
3, 9
1, 4
4, 4
4, 3
8, 3
5, 3
8, 3
4, 2
2, 2
4, 4
3, 1
2, 2
0, 5
3, 2
2, 3
1, 1
1, 0
3, 2
2, 2
3, 3
1, 4
0, 3
6, 6
9, 3
2, 2
1, 1
1, 3
3, 2
1, 1
1, 3
2, 2
2, 4
3, 4
1, 3
2, 5
0, 0
2, 2
3, 4
4, 3
2, 2
1, 1
4, 0
1, 1
1, 2
2, 1
1, 2
0, 3
1, 1
0, 1
0, 2
0, 0
1, 0
2, 0
0, 0
0, 0
0, 0
1, 0
1, 0
0, 2
0, 0
1, 1
0, 0
1, 3
0, 1
3, 0
0, 1
1, 1
1, 0
2, 2
1, 1
1, 1
1, 0
0, 0
0, 1
1, 0
0, 0
0, 0
1, 0
0, 0
0, 0
1, 1
0, 0
0, 0
0, 0
1, 0
0, 1
1, 0
0, 0
0, 0
1, 0
0, 0
0, 0
0, 0
0, 0
0, 0
0, 0
0, 0
1, 0
0, 0
1, 1
0, 0
0, 0
0, 0
0, 0
0, 0
0, 0
0, 0
1, 0
0, 0
0, 0
0, 0
0, 0
0, 0
0, 0
0, 0
0, 0
0, 0
0, 0
0, 0
0, 0
0, 0
0, 0
0, 0
0, 0
0, 0
0, 0
0, 0
0, 0
0, 0
0, 0
0, 0
0, 0
1, 0
0, 0
0, 0
0, 0
0, 0
0, 0
0, 0
0, 0
0, 0
0, 0
0, 0
0, 0
0, 0
0, 0
0, 0
0, 0
0, 0
0, 0
0, 0
0, 0
0, 0
0, 0
0, 0
0, 0
0, 0
0, 0
0, 0
0, 0
0, 0
0, 0
0, 0
0, 0
0, 0
0, 0
0, 0
0, 0
0, 0
0, 0
0, 0
0, 0
0, 0
0, 0
0, 0
0, 0
0, 0
0, 0
0, 0
0, 0
0, 0
0, 0
0, 0
0, 0
0, 0
0, 0
0, 0
0, 0
0, 0
0, 0
0, 0
0, 0
0, 0
0, 0
0, 0
0, 0
0, 0
0, 0
0, 0
0, 0
0, 0
0, 0
0, 0
0, 0
0, 0
0, 0
0, 0
0, 0
0, 0
0, 0
#ENDOFDATA     end of spectrum data