File: host_upload/06-09-2024/ps_0852/dump3/ps__0852shot_2206.msa
#FORMAT      : EMSA/MAS spectral data file
#VERSION     : TC202v2.0 PIXL
#TITLE       : N/A
#DATE        :       Date in the format DD-MMM-YYYY, for example 07-JUL-2010
#TIME        :             The time of day at which the spectrum was recorded, in 24-hour format
#OWNER       : PIXL Flight Model       (PIXL will use this to indicate which instrument took the data.)
#NPOINTS     : 4096     Number of data points in the spectrum (This can be zero for configuration only files)
#NCOLUMNS    : 2     Number of data columns in the spectrum (This can be zero for configuration only files)
#XUNITS      : eV
#YUNITS      : COUNTS
#DATATYPE    : YY
#XPERCHAN    : 7.862, 7.881   eV per channel (separate by commas if more than one detector)
#OFFSET      : 18.5, -22.4         eV of first channel  (separate by commas if more than one detector
#SIGNALTYPE  : XRF
#YP_TEMP     : 2.107
#LIVETIME    : 8.57396, 8.5616   seconds (separate by commas if more than one detector)
#REALTIME    : 10, 10.0   seconds (separate by commas if more than one detector)
#SPECTRUM    : start of spectrum data
0, 0
0, 0
0, 0
0, 0
0, 0
0, 0
0, 0
0, 1
2, 2
0, 3
2, 1
35, 50
52, 61
8, 4
4, 7
80, 124
386, 434
85, 98
4, 11
5, 1
8, 5
8, 6
3, 14
17, 35
34, 55
62, 34
19, 37
10, 18
3, 3
1, 2
1, 4
1, 2
4, 4
57, 71
75, 87
12, 11
13, 14
12, 20
12, 1
4, 2
6, 7
6, 6
15, 23
6, 16
6, 5
2, 15
3, 23
2, 17
7, 9
27, 16
37, 16
20, 13
13, 15
34, 46
74, 67
31, 22
22, 67
425, 686
1912, 2479
1413, 1431
164, 155
26, 15
33, 20
87, 130
305, 349
193, 209
36, 20
7, 11
18, 35
18, 16
4, 3
2, 3
4, 1
3, 6
6, 1
6, 6
1, 4
4, 4
3, 8
2, 3
4, 7
10, 10
8, 8
16, 10
5, 6
2, 2
2, 0
4, 4
3, 5
6, 3
1, 2
2, 1
5, 2
1, 0
0, 5
2, 4
2, 6
6, 2
2, 0
1, 3
8, 0
1, 5
2, 4
0, 2
2, 3
3, 4
1, 5
2, 1
2, 1
3, 4
2, 1
3, 0
2, 4
0, 3
2, 2
2, 5
2, 5
1, 3
1, 3
1, 0
6, 0
2, 3
0, 4
0, 2
4, 2
0, 2
2, 1
1, 1
1, 0
0, 2
0, 1
1, 1
2, 1
1, 1
2, 1
0, 0
2, 0
1, 2
0, 0
0, 1
0, 1
0, 0
0, 1
0, 1
1, 0
0, 1
2, 0
0, 0
1, 1
1, 1
0, 1
0, 0
0, 0
0, 0
0, 0
0, 0
0, 0
0, 0
1, 1
0, 1
1, 0
1, 0
1, 0
0, 0
0, 0
0, 0
1, 1
0, 0
1, 0
0, 0
0, 1
0, 0
0, 1
0, 0
0, 2
0, 0
0, 0
0, 0
0, 0
0, 0
0, 0
0, 0
0, 0
0, 0
0, 0
0, 0
0, 0
0, 0
0, 0
0, 0
0, 0
0, 0
0, 0
1, 0
0, 0
0, 0
0, 0
0, 0
0, 0
0, 0
0, 0
0, 0
0, 0
0, 0
0, 0
0, 0
0, 0
0, 0
0, 0
0, 0
0, 0
0, 0
0, 1
0, 0
0, 0
0, 0
0, 0
0, 0
0, 0
0, 0
0, 0
0, 0
0, 0
0, 0
0, 0
0, 0
0, 0
0, 0
0, 0
0, 0
0, 0
0, 0
0, 0
0, 0
0, 0
0, 0
0, 0
0, 0
0, 0
0, 0
0, 0
0, 0
0, 0
0, 0
0, 0
0, 0
0, 0
0, 0
0, 0
0, 0
0, 0
0, 0
0, 0
0, 0
0, 0
0, 0
0, 0
0, 0
0, 0
0, 0
0, 0
0, 0
0, 0
0, 0
0, 0
0, 0
0, 0
0, 0
0, 0
0, 0
0, 0
0, 0
0, 0
0, 0
0, 0
0, 0
0, 0
0, 0
0, 0
0, 0
0, 0
0, 0
0, 0
0, 0
0, 0
0, 0
0, 0
0, 0
0, 0
0, 0
0, 0
0, 0
0, 0
0, 0
#ENDOFDATA     end of spectrum data