File: host_upload/06-09-2024/ps_0852/dump3/ps__0852shot_2244.msa
#FORMAT      : EMSA/MAS spectral data file
#VERSION     : TC202v2.0 PIXL
#TITLE       : N/A
#DATE        :       Date in the format DD-MMM-YYYY, for example 07-JUL-2010
#TIME        :             The time of day at which the spectrum was recorded, in 24-hour format
#OWNER       : PIXL Flight Model       (PIXL will use this to indicate which instrument took the data.)
#NPOINTS     : 4096     Number of data points in the spectrum (This can be zero for configuration only files)
#NCOLUMNS    : 2     Number of data columns in the spectrum (This can be zero for configuration only files)
#XUNITS      : eV
#YUNITS      : COUNTS
#DATATYPE    : YY
#XPERCHAN    : 7.862, 7.881   eV per channel (separate by commas if more than one detector)
#OFFSET      : 18.5, -22.4         eV of first channel  (separate by commas if more than one detector
#SIGNALTYPE  : XRF
#YP_TEMP     : 2.075
#LIVETIME    : 8.57679, 8.57961   seconds (separate by commas if more than one detector)
#REALTIME    : 10, 10.0   seconds (separate by commas if more than one detector)
#SPECTRUM    : start of spectrum data
0, 0
0, 0
0, 0
0, 0
0, 0
0, 0
0, 0
0, 0
1, 0
0, 1
1, 5
39, 43
52, 58
8, 3
4, 7
84, 116
406, 434
93, 97
4, 3
4, 1
1, 0
8, 6
5, 12
11, 22
32, 37
38, 45
26, 26
18, 15
3, 7
0, 2
0, 2
5, 1
9, 3
16, 14
30, 30
10, 3
5, 6
5, 11
3, 11
7, 2
3, 8
15, 15
12, 24
18, 17
7, 7
6, 20
7, 27
9, 14
9, 8
16, 16
18, 19
10, 11
18, 9
51, 42
69, 63
31, 27
37, 41
487, 622
2188, 2468
1611, 1396
195, 173
24, 21
30, 23
120, 122
309, 337
241, 213
36, 27
7, 7
17, 12
13, 14
7, 4
3, 6
5, 7
3, 3
5, 10
16, 3
5, 4
6, 3
6, 1
3, 6
3, 3
6, 5
8, 7
7, 4
2, 11
5, 2
4, 3
8, 5
8, 8
9, 5
5, 2
5, 1
4, 3
1, 3
3, 4
3, 8
4, 7
3, 2
4, 3
5, 2
4, 2
2, 3
4, 3
1, 1
3, 2
3, 1
1, 7
2, 3
5, 0
1, 6
2, 1
1, 3
1, 1
1, 3
2, 2
0, 3
4, 3
1, 3
3, 2
2, 2
2, 0
5, 2
2, 1
2, 3
3, 1
1, 3
2, 3
0, 0
0, 3
1, 0
0, 2
0, 0
3, 0
1, 0
0, 0
0, 1
1, 1
0, 0
1, 0
1, 1
0, 0
0, 3
0, 1
2, 0
1, 0
3, 1
0, 0
0, 0
0, 1
0, 0
0, 0
1, 0
1, 0
0, 1
0, 1
0, 1
0, 0
0, 2
0, 0
1, 0
0, 0
1, 0
0, 0
0, 0
0, 0
0, 0
0, 1
0, 0
0, 1
0, 0
0, 0
0, 0
0, 0
1, 0
0, 0
1, 0
1, 0
0, 0
0, 0
0, 1
2, 0
0, 0
0, 0
0, 0
0, 1
1, 0
0, 0
0, 0
0, 0
0, 0
0, 0
0, 0
0, 0
0, 0
1, 0
0, 0
0, 0
0, 0
0, 0
0, 0
0, 0
0, 0
0, 0
0, 0
0, 0
0, 0
0, 0
0, 0
0, 0
1, 0
0, 0
0, 0
0, 0
0, 0
0, 0
0, 0
0, 0
0, 0
0, 0
0, 0
0, 0
0, 0
0, 0
0, 0
0, 0
0, 0
0, 0
0, 0
0, 0
0, 0
0, 0
0, 0
0, 0
0, 0
0, 0
0, 0
0, 0
0, 0
0, 0
0, 0
0, 0
0, 0
0, 0
0, 0
0, 0
0, 0
0, 0
0, 0
0, 0
0, 0
0, 0
0, 0
0, 0
0, 0
0, 0
0, 0
0, 0
0, 0
0, 0
0, 0
0, 0
0, 0
0, 0
0, 0
0, 0
0, 0
0, 0
0, 0
0, 0
0, 0
0, 0
0, 0
0, 0
0, 0
0, 0
0, 0
0, 0
0, 0
0, 0
0, 0
0, 0
0, 0
0, 0
0, 0
0, 0
0, 0
0, 0
0, 0
0, 0
0, 0
0, 0
0, 0
0, 0
0, 0
#ENDOFDATA     end of spectrum data