File: host_upload/06-09-2024/ps_0852/dump3/ps__0852shot_2444.msa
#FORMAT      : EMSA/MAS spectral data file
#VERSION     : TC202v2.0 PIXL
#TITLE       : N/A
#DATE        :       Date in the format DD-MMM-YYYY, for example 07-JUL-2010
#TIME        :             The time of day at which the spectrum was recorded, in 24-hour format
#OWNER       : PIXL Flight Model       (PIXL will use this to indicate which instrument took the data.)
#NPOINTS     : 4096     Number of data points in the spectrum (This can be zero for configuration only files)
#NCOLUMNS    : 2     Number of data columns in the spectrum (This can be zero for configuration only files)
#XUNITS      : eV
#YUNITS      : COUNTS
#DATATYPE    : YY
#XPERCHAN    : 7.862, 7.881   eV per channel (separate by commas if more than one detector)
#OFFSET      : 18.5, -22.4         eV of first channel  (separate by commas if more than one detector
#SIGNALTYPE  : XRF
#YP_TEMP     : 2.46
#LIVETIME    : 8.56285, 8.54626   seconds (separate by commas if more than one detector)
#REALTIME    : 10, 10.0   seconds (separate by commas if more than one detector)
#SPECTRUM    : start of spectrum data
0, 0
0, 0
0, 0
0, 0
0, 0
0, 0
0, 0
0, 1
0, 3
3, 23
0, 3
40, 62
51, 67
10, 9
2, 4
90, 112
394, 427
110, 87
4, 2
1, 2
4, 1
7, 3
5, 10
6, 54
37, 1461
44, 2110
25, 243
10, 17
7, 4
4, 2
1, 1
2, 1
1, 2
8, 18
14, 21
4, 9
10, 16
10, 18
3, 8
2, 5
1, 13
10, 17
8, 13
16, 8
8, 7
4, 6
6, 5
10, 5
24, 8
30, 26
17, 19
4, 10
9, 8
41, 60
63, 74
22, 18
33, 35
453, 594
2078, 2371
1501, 1390
187, 157
33, 25
13, 39
95, 128
340, 377
211, 194
24, 18
7, 8
21, 11
3, 6
8, 3
5, 4
4, 1
13, 5
11, 11
13, 11
6, 8
3, 5
6, 4
5, 6
5, 6
5, 1
2, 12
6, 10
11, 3
8, 4
5, 5
6, 7
3, 3
3, 2
2, 0
1, 0
2, 3
5, 5
2, 4
2, 3
3, 4
9, 0
4, 5
5, 15
1, 5
1, 1
1, 3
4, 6
1, 3
2, 1
1, 5
1, 2
3, 3
2, 1
5, 5
2, 2
1, 0
0, 5
4, 2
2, 4
2, 3
1, 5
4, 2
1, 2
3, 3
2, 0
0, 2
3, 1
1, 0
0, 1
1, 1
1, 1
0, 1
1, 1
0, 1
1, 1
1, 0
1, 1
0, 1
1, 1
0, 1
0, 1
0, 0
1, 1
1, 0
0, 2
1, 1
0, 1
0, 0
0, 0
0, 0
0, 2
0, 0
0, 1
0, 0
0, 1
1, 1
0, 0
1, 2
0, 1
0, 0
0, 0
0, 0
0, 0
1, 0
0, 0
0, 1
0, 1
0, 0
1, 0
0, 0
0, 0
0, 0
0, 0
0, 1
1, 0
0, 0
1, 2
0, 0
0, 0
0, 0
0, 0
0, 1
0, 0
0, 0
0, 0
0, 0
0, 1
0, 0
0, 0
0, 0
0, 0
1, 0
0, 0
0, 0
1, 0
0, 0
0, 0
0, 0
0, 0
0, 0
0, 0
0, 0
0, 0
0, 0
0, 0
0, 0
0, 0
0, 0
0, 0
0, 0
0, 0
0, 0
0, 0
0, 0
0, 0
0, 0
0, 0
0, 1
0, 0
0, 0
0, 0
0, 0
1, 0
0, 0
0, 0
0, 0
0, 0
0, 0
0, 0
0, 0
0, 0
0, 0
0, 0
0, 0
0, 0
0, 0
0, 0
0, 0
0, 0
0, 0
0, 0
0, 0
0, 0
0, 0
0, 0
0, 0
0, 0
0, 0
0, 0
0, 0
0, 0
0, 0
0, 0
0, 0
0, 0
0, 0
0, 0
0, 0
0, 0
0, 0
0, 0
0, 0
0, 0
0, 0
0, 0
0, 0
0, 0
0, 0
0, 0
0, 0
0, 0
0, 0
0, 0
0, 0
0, 0
0, 0
0, 0
0, 0
0, 0
0, 0
0, 0
0, 0
0, 0
0, 0
0, 0
0, 0
0, 0
0, 0
0, 0
0, 0
0, 0
0, 0
0, 0
0, 0
0, 0
0, 0
0, 0
#ENDOFDATA     end of spectrum data