File: host_upload/06-09-2024/ps_0852/dump3/ps__0852shot_2194.msa
#FORMAT      : EMSA/MAS spectral data file
#VERSION     : TC202v2.0 PIXL
#TITLE       : N/A
#DATE        :       Date in the format DD-MMM-YYYY, for example 07-JUL-2010
#TIME        :             The time of day at which the spectrum was recorded, in 24-hour format
#OWNER       : PIXL Flight Model       (PIXL will use this to indicate which instrument took the data.)
#NPOINTS     : 4096     Number of data points in the spectrum (This can be zero for configuration only files)
#NCOLUMNS    : 2     Number of data columns in the spectrum (This can be zero for configuration only files)
#XUNITS      : eV
#YUNITS      : COUNTS
#DATATYPE    : YY
#XPERCHAN    : 7.862, 7.881   eV per channel (separate by commas if more than one detector)
#OFFSET      : 18.5, -22.4         eV of first channel  (separate by commas if more than one detector
#SIGNALTYPE  : XRF
#YP_TEMP     : 1.979
#LIVETIME    : 8.57436, 8.55352   seconds (separate by commas if more than one detector)
#REALTIME    : 10, 10.0   seconds (separate by commas if more than one detector)
#SPECTRUM    : start of spectrum data
0, 0
0, 0
0, 0
0, 0
0, 0
0, 0
0, 0
0, 0
0, 1
2, 1
4, 5
42, 54
79, 53
6, 6
7, 4
106, 107
478, 368
109, 87
9, 4
1, 2
1, 0
5, 8
3, 2
4, 19
42, 47
44, 80
26, 69
11, 11
2, 3
3, 3
4, 1
2, 2
4, 2
15, 14
31, 18
13, 4
8, 5
7, 7
5, 5
4, 6
7, 4
15, 3
19, 33
33, 25
27, 7
11, 12
11, 10
11, 8
10, 8
24, 14
23, 22
14, 24
14, 24
39, 44
57, 44
29, 27
31, 44
516, 514
2382, 2017
1778, 1260
220, 140
63, 20
79, 24
133, 107
371, 320
252, 176
28, 34
3, 11
18, 10
8, 6
2, 7
3, 3
7, 4
4, 11
9, 3
8, 4
11, 8
6, 1
8, 6
7, 2
4, 1
5, 5
7, 0
3, 3
7, 14
3, 11
6, 9
5, 5
5, 2
8, 7
4, 5
9, 7
9, 2
4, 5
3, 6
5, 3
2, 1
2, 1
2, 1
2, 0
3, 1
4, 1
1, 6
0, 1
3, 4
1, 7
2, 3
0, 1
1, 2
4, 2
3, 0
2, 3
5, 2
4, 1
1, 1
3, 3
2, 1
5, 2
2, 0
2, 0
0, 0
3, 1
2, 0
3, 2
0, 0
1, 1
1, 2
0, 2
3, 1
0, 0
1, 1
1, 2
1, 0
1, 2
0, 1
2, 2
0, 0
0, 2
4, 1
0, 0
1, 0
0, 1
1, 1
0, 3
0, 0
0, 0
1, 1
0, 0
2, 1
0, 1
0, 0
1, 1
0, 0
0, 0
1, 1
1, 0
0, 0
0, 0
0, 0
0, 1
0, 1
0, 0
2, 0
0, 0
2, 0
0, 1
0, 0
0, 0
0, 0
0, 0
0, 0
0, 1
0, 0
0, 0
0, 0
0, 0
1, 1
0, 0
0, 1
0, 0
0, 0
0, 0
0, 0
0, 0
0, 0
0, 0
0, 0
0, 0
0, 0
0, 0
0, 0
0, 0
0, 0
0, 0
0, 0
0, 0
0, 0
0, 0
0, 0
0, 0
0, 0
0, 0
0, 0
0, 0
0, 0
0, 0
0, 0
0, 1
0, 0
0, 0
0, 0
0, 0
0, 0
0, 0
0, 0
0, 0
0, 0
0, 0
0, 0
0, 0
0, 0
0, 0
0, 0
0, 0
0, 0
0, 0
0, 0
0, 0
0, 0
0, 0
0, 0
0, 0
0, 0
0, 0
0, 0
0, 0
0, 0
0, 0
0, 0
0, 0
0, 0
0, 0
0, 0
0, 0
0, 0
0, 0
0, 0
0, 0
0, 0
0, 0
0, 0
0, 0
0, 0
0, 0
0, 0
0, 0
0, 0
0, 0
0, 0
0, 0
0, 0
0, 0
0, 0
0, 0
0, 0
0, 0
0, 0
0, 0
0, 0
0, 0
0, 0
0, 0
0, 0
0, 0
0, 0
0, 0
0, 0
0, 0
0, 0
0, 0
0, 0
0, 0
0, 0
0, 0
0, 0
0, 0
0, 0
0, 0
0, 0
0, 0
0, 0
0, 0
0, 0
0, 0
#ENDOFDATA     end of spectrum data