File: host_upload/06-09-2024/ps_0852/dump3/ps__0852shot_2447.msa
#FORMAT      : EMSA/MAS spectral data file
#VERSION     : TC202v2.0 PIXL
#TITLE       : N/A
#DATE        :       Date in the format DD-MMM-YYYY, for example 07-JUL-2010
#TIME        :             The time of day at which the spectrum was recorded, in 24-hour format
#OWNER       : PIXL Flight Model       (PIXL will use this to indicate which instrument took the data.)
#NPOINTS     : 4096     Number of data points in the spectrum (This can be zero for configuration only files)
#NCOLUMNS    : 2     Number of data columns in the spectrum (This can be zero for configuration only files)
#XUNITS      : eV
#YUNITS      : COUNTS
#DATATYPE    : YY
#XPERCHAN    : 7.862, 7.881   eV per channel (separate by commas if more than one detector)
#OFFSET      : 18.5, -22.4         eV of first channel  (separate by commas if more than one detector
#SIGNALTYPE  : XRF
#YP_TEMP     : 2.428
#LIVETIME    : 8.55736, 8.55917   seconds (separate by commas if more than one detector)
#REALTIME    : 10, 10.0   seconds (separate by commas if more than one detector)
#SPECTRUM    : start of spectrum data
0, 0
0, 0
0, 0
0, 0
0, 0
0, 0
0, 0
0, 0
1, 0
1, 0
2, 5
45, 38
78, 55
5, 4
4, 1
88, 86
452, 353
117, 83
2, 4
1, 1
22, 10
83, 65
31, 25
6, 14
39, 51
44, 51
26, 31
15, 15
6, 3
5, 1
6, 3
3, 6
6, 0
27, 20
25, 16
7, 7
4, 7
6, 10
10, 15
18, 11
5, 12
14, 19
24, 15
15, 19
22, 15
14, 10
13, 7
7, 7
16, 9
24, 19
21, 29
11, 19
17, 15
53, 48
69, 54
36, 23
36, 36
531, 532
2414, 1961
1781, 1219
207, 111
34, 20
31, 12
120, 121
377, 307
245, 175
38, 21
12, 7
19, 10
15, 7
5, 5
3, 8
6, 3
10, 6
7, 8
4, 6
4, 6
5, 3
9, 3
4, 6
2, 6
7, 4
4, 3
5, 3
9, 2
5, 3
8, 2
7, 10
9, 4
7, 3
8, 6
6, 3
7, 1
9, 3
4, 3
1, 4
3, 0
7, 2
4, 5
1, 2
2, 0
0, 0
6, 1
6, 0
3, 4
6, 1
3, 5
2, 5
2, 3
4, 2
1, 5
1, 3
2, 2
5, 5
2, 5
3, 4
3, 4
7, 2
3, 2
2, 1
0, 5
3, 2
1, 2
0, 3
1, 2
0, 0
0, 0
3, 0
2, 1
1, 0
4, 1
0, 0
0, 0
1, 1
1, 1
2, 1
1, 1
1, 1
0, 0
0, 0
1, 0
0, 0
0, 0
1, 0
1, 2
0, 0
1, 0
0, 2
0, 0
0, 1
0, 1
0, 0
1, 0
1, 0
0, 0
1, 0
0, 0
0, 0
0, 0
0, 1
0, 0
0, 1
2, 0
0, 1
0, 2
0, 0
0, 0
1, 0
0, 2
1, 0
0, 0
0, 0
0, 1
2, 0
0, 0
0, 0
1, 0
1, 1
0, 0
0, 0
0, 0
0, 0
0, 0
1, 0
1, 0
0, 0
0, 0
0, 0
0, 0
0, 0
0, 0
1, 0
0, 0
0, 0
0, 0
1, 0
0, 0
0, 0
0, 0
0, 0
0, 0
0, 0
0, 0
0, 0
0, 0
0, 0
0, 0
0, 0
0, 0
0, 0
0, 0
0, 0
0, 0
0, 0
0, 0
0, 0
0, 0
0, 0
0, 0
0, 0
0, 0
0, 0
0, 0
0, 0
0, 0
0, 0
0, 0
0, 0
0, 0
0, 0
0, 0
0, 0
0, 0
0, 0
0, 0
0, 0
0, 0
0, 0
0, 0
0, 0
0, 0
0, 0
0, 0
0, 0
0, 0
0, 0
0, 0
0, 0
0, 0
0, 0
0, 0
0, 0
0, 0
0, 0
0, 0
0, 0
0, 0
0, 0
0, 0
0, 0
0, 0
0, 0
0, 0
0, 0
0, 0
0, 0
0, 0
0, 0
0, 0
0, 0
0, 0
0, 0
0, 0
0, 0
0, 0
0, 0
0, 0
0, 0
0, 0
0, 0
0, 0
0, 0
0, 0
0, 0
0, 0
0, 0
0, 0
0, 0
0, 0
0, 0
0, 0
0, 0
0, 0
0, 0
#ENDOFDATA     end of spectrum data