File: host_upload/06-09-2024/ps_0852/dump3/ps__0852shot_2163.msa
#FORMAT      : EMSA/MAS spectral data file
#VERSION     : TC202v2.0 PIXL
#TITLE       : N/A
#DATE        :       Date in the format DD-MMM-YYYY, for example 07-JUL-2010
#TIME        :             The time of day at which the spectrum was recorded, in 24-hour format
#OWNER       : PIXL Flight Model       (PIXL will use this to indicate which instrument took the data.)
#NPOINTS     : 4096     Number of data points in the spectrum (This can be zero for configuration only files)
#NCOLUMNS    : 2     Number of data columns in the spectrum (This can be zero for configuration only files)
#XUNITS      : eV
#YUNITS      : COUNTS
#DATATYPE    : YY
#XPERCHAN    : 7.862, 7.881   eV per channel (separate by commas if more than one detector)
#OFFSET      : 18.5, -22.4         eV of first channel  (separate by commas if more than one detector
#SIGNALTYPE  : XRF
#YP_TEMP     : 2.396
#LIVETIME    : 8.5612, 8.56614   seconds (separate by commas if more than one detector)
#REALTIME    : 10, 10.0   seconds (separate by commas if more than one detector)
#SPECTRUM    : start of spectrum data
0, 0
0, 0
0, 0
0, 0
0, 0
0, 0
0, 0
0, 0
2, 0
2, 4
2, 3
36, 44
51, 47
4, 4
1, 5
78, 69
284, 350
82, 80
7, 6
3, 3
61, 74
369, 357
132, 144
56, 64
131, 142
57, 81
39, 36
13, 13
9, 4
8, 11
22, 26
14, 18
3, 3
11, 13
20, 13
3, 2
5, 4
5, 8
2, 2
5, 4
6, 6
6, 12
16, 22
14, 12
7, 11
6, 41
5, 23
3, 4
7, 7
23, 17
63, 32
45, 22
12, 12
47, 51
55, 59
25, 22
34, 43
422, 602
2028, 2371
1462, 1419
194, 148
13, 15
17, 23
85, 119
279, 358
208, 185
33, 31
12, 10
20, 8
51, 2
38, 2
11, 2
8, 4
8, 4
8, 4
1, 7
5, 5
2, 3
5, 4
4, 2
4, 7
9, 7
9, 2
6, 9
8, 2
3, 7
3, 3
9, 3
9, 7
6, 8
2, 9
6, 13
4, 6
5, 4
4, 8
2, 4
2, 6
1, 6
6, 3
7, 3
6, 2
12, 2
3, 2
1, 2
2, 0
2, 1
0, 2
0, 1
1, 2
3, 2
3, 1
2, 1
0, 1
3, 1
2, 5
3, 5
2, 4
2, 2
3, 2
2, 1
1, 2
0, 2
2, 3
2, 1
1, 1
0, 0
0, 1
3, 3
0, 0
0, 1
1, 2
0, 0
1, 1
0, 1
0, 2
0, 0
1, 1
0, 0
0, 2
1, 0
1, 0
0, 0
1, 0
0, 0
1, 1
0, 1
1, 0
0, 1
0, 0
0, 0
0, 0
1, 0
2, 0
0, 0
0, 1
0, 0
0, 1
0, 1
1, 0
0, 0
0, 0
0, 0
1, 0
0, 0
0, 0
0, 1
0, 0
0, 0
0, 0
0, 1
0, 1
0, 0
0, 0
0, 0
0, 0
0, 0
0, 0
0, 0
0, 0
0, 0
0, 0
0, 1
0, 0
1, 1
0, 0
0, 0
0, 0
0, 0
0, 0
0, 0
1, 0
0, 0
0, 1
0, 0
0, 0
0, 0
0, 0
0, 0
0, 0
0, 0
0, 0
0, 0
0, 0
0, 0
0, 0
0, 0
0, 0
0, 0
0, 0
0, 0
0, 0
0, 0
0, 0
0, 0
0, 0
0, 0
0, 0
0, 0
0, 0
0, 0
0, 0
0, 0
0, 0
0, 0
0, 0
0, 0
0, 0
0, 0
0, 0
0, 0
0, 0
0, 0
0, 0
0, 0
0, 0
0, 0
0, 0
0, 0
0, 0
0, 0
0, 0
0, 0
0, 0
0, 0
0, 0
0, 0
0, 0
0, 0
0, 0
0, 0
0, 0
0, 0
0, 0
0, 0
0, 0
0, 0
0, 0
0, 0
0, 0
0, 0
0, 0
0, 0
0, 0
0, 0
0, 0
0, 0
0, 0
0, 0
0, 0
0, 0
0, 0
0, 0
0, 0
0, 0
0, 0
0, 0
0, 0
0, 0
0, 0
0, 0
0, 0
0, 0
0, 0
0, 0
0, 0
0, 0
0, 0
0, 0
0, 0
0, 0
0, 0
0, 0
0, 0
0, 0
#ENDOFDATA     end of spectrum data