File: host_upload/06-09-2024/ps_0852/dump3/ps__0852shot_2113.msa
#FORMAT      : EMSA/MAS spectral data file
#VERSION     : TC202v2.0 PIXL
#TITLE       : N/A
#DATE        :       Date in the format DD-MMM-YYYY, for example 07-JUL-2010
#TIME        :             The time of day at which the spectrum was recorded, in 24-hour format
#OWNER       : PIXL Flight Model       (PIXL will use this to indicate which instrument took the data.)
#NPOINTS     : 4096     Number of data points in the spectrum (This can be zero for configuration only files)
#NCOLUMNS    : 2     Number of data columns in the spectrum (This can be zero for configuration only files)
#XUNITS      : eV
#YUNITS      : COUNTS
#DATATYPE    : YY
#XPERCHAN    : 7.862, 7.881   eV per channel (separate by commas if more than one detector)
#OFFSET      : 18.5, -22.4         eV of first channel  (separate by commas if more than one detector
#SIGNALTYPE  : XRF
#YP_TEMP     : 2.364
#LIVETIME    : 8.55634, 8.55336   seconds (separate by commas if more than one detector)
#REALTIME    : 10, 10.0   seconds (separate by commas if more than one detector)
#SPECTRUM    : start of spectrum data
0, 0
0, 0
0, 0
0, 0
0, 0
0, 0
0, 0
1, 2
1, 1
1, 4
3, 3
25, 29
42, 39
10, 3
10, 11
78, 60
355, 345
82, 86
7, 9
6, 5
46, 48
264, 269
96, 150
28, 241
49, 95
41, 66
30, 24
21, 13
5, 2
0, 4
1, 9
4, 1
3, 10
81, 71
137, 147
17, 19
13, 17
20, 12
14, 5
2, 5
3, 10
8, 17
27, 17
17, 7
5, 16
2, 58
4, 70
6, 17
9, 17
15, 35
18, 29
5, 10
11, 10
33, 39
69, 56
19, 24
33, 34
440, 532
2119, 2188
1527, 1358
207, 123
15, 13
10, 16
85, 112
308, 347
223, 200
42, 22
9, 18
20, 18
9, 5
2, 5
2, 12
5, 11
7, 14
9, 7
7, 7
5, 2
3, 1
7, 3
10, 6
12, 6
2, 1
2, 4
4, 5
4, 6
1, 2
1, 0
5, 5
5, 3
3, 3
4, 2
9, 4
5, 5
8, 4
8, 4
9, 0
7, 0
4, 3
5, 5
7, 2
0, 2
0, 1
6, 2
4, 2
1, 4
1, 3
2, 1
0, 4
3, 1
1, 2
0, 3
0, 0
1, 2
0, 1
0, 2
1, 3
5, 4
3, 4
5, 2
1, 1
2, 4
0, 1
1, 1
5, 3
1, 1
0, 1
1, 2
1, 0
1, 1
0, 2
0, 1
1, 1
1, 1
0, 1
1, 1
1, 1
0, 0
1, 1
1, 0
1, 1
1, 1
0, 1
0, 1
0, 1
2, 2
0, 1
0, 0
0, 0
3, 1
0, 2
3, 1
0, 1
2, 1
0, 1
0, 0
0, 0
0, 0
0, 0
0, 0
0, 0
0, 0
2, 0
0, 0
0, 0
0, 0
0, 0
0, 0
0, 0
1, 1
0, 0
0, 2
0, 0
0, 0
0, 0
0, 0
0, 0
0, 1
0, 0
1, 0
1, 0
0, 0
0, 1
0, 0
0, 0
0, 0
0, 0
0, 0
0, 0
0, 1
0, 0
0, 0
0, 0
1, 0
0, 0
0, 0
0, 0
0, 0
0, 0
0, 0
0, 0
0, 0
0, 0
1, 0
0, 0
0, 0
0, 0
0, 0
0, 0
0, 0
0, 0
0, 0
0, 0
0, 0
0, 0
0, 0
0, 0
0, 0
0, 0
0, 0
0, 0
0, 0
0, 0
0, 0
0, 0
0, 0
0, 0
0, 0
0, 0
0, 0
0, 0
0, 0
0, 0
0, 0
0, 0
0, 0
0, 0
0, 0
0, 0
0, 0
0, 0
0, 0
0, 0
0, 0
0, 0
0, 0
0, 0
0, 0
0, 0
0, 0
0, 0
0, 0
0, 0
0, 0
0, 0
0, 0
0, 0
0, 0
0, 0
0, 0
0, 0
0, 0
0, 0
0, 0
0, 0
0, 0
0, 0
0, 0
0, 0
0, 0
0, 0
0, 0
0, 0
0, 0
0, 0
0, 0
0, 0
0, 0
0, 0
0, 0
0, 0
0, 0
0, 0
0, 0
0, 0
0, 0
0, 0
0, 0
0, 0
0, 0
0, 0
0, 0
0, 0
0, 0
0, 0
#ENDOFDATA     end of spectrum data