File: host_upload/06-09-2024/ps_0852/dump3/ps__0852shot_2368.msa
#FORMAT      : EMSA/MAS spectral data file
#VERSION     : TC202v2.0 PIXL
#TITLE       : N/A
#DATE        :       Date in the format DD-MMM-YYYY, for example 07-JUL-2010
#TIME        :             The time of day at which the spectrum was recorded, in 24-hour format
#OWNER       : PIXL Flight Model       (PIXL will use this to indicate which instrument took the data.)
#NPOINTS     : 4096     Number of data points in the spectrum (This can be zero for configuration only files)
#NCOLUMNS    : 2     Number of data columns in the spectrum (This can be zero for configuration only files)
#XUNITS      : eV
#YUNITS      : COUNTS
#DATATYPE    : YY
#XPERCHAN    : 7.862, 7.881   eV per channel (separate by commas if more than one detector)
#OFFSET      : 18.5, -22.4         eV of first channel  (separate by commas if more than one detector
#SIGNALTYPE  : XRF
#YP_TEMP     : 2.3
#LIVETIME    : 8.55416, 8.5575   seconds (separate by commas if more than one detector)
#REALTIME    : 10, 10.0   seconds (separate by commas if more than one detector)
#SPECTRUM    : start of spectrum data
0, 0
0, 0
0, 0
0, 0
0, 0
0, 0
0, 0
0, 0
1, 2
3, 1
6, 1
42, 43
80, 51
2, 4
6, 2
116, 77
423, 394
91, 89
6, 6
0, 1
1, 2
3, 4
3, 0
5, 7
106, 59
184, 70
30, 31
17, 19
1, 2
6, 1
2, 3
2, 1
6, 2
12, 15
17, 28
10, 9
4, 2
30, 4
53, 3
33, 7
7, 6
14, 11
6, 24
12, 72
7, 83
6, 15
3, 5
5, 5
10, 10
20, 45
44, 17
53, 17
28, 10
39, 36
76, 55
24, 28
27, 74
459, 552
2257, 2191
1581, 1383
186, 163
28, 12
69, 27
144, 131
357, 376
256, 195
30, 12
10, 6
17, 6
5, 10
6, 4
4, 4
5, 2
6, 2
18, 1
71, 6
71, 8
21, 8
6, 8
3, 4
6, 4
0, 2
2, 4
2, 3
5, 0
3, 3
5, 8
9, 9
3, 5
5, 1
4, 4
7, 5
2, 2
4, 2
3, 7
1, 4
3, 2
1, 2
3, 4
2, 6
9, 0
3, 2
6, 2
1, 3
0, 1
0, 4
2, 4
2, 2
4, 1
1, 1
2, 4
1, 1
2, 3
3, 4
0, 2
8, 1
5, 5
6, 3
4, 1
1, 3
2, 2
0, 1
0, 4
1, 2
1, 0
1, 3
3, 1
2, 1
4, 1
3, 2
2, 0
1, 2
2, 0
1, 1
0, 0
2, 0
0, 0
1, 1
1, 0
1, 0
3, 1
1, 0
0, 1
1, 1
1, 0
0, 0
0, 0
0, 1
0, 1
2, 0
0, 0
0, 0
0, 0
0, 0
0, 1
3, 0
0, 0
2, 0
1, 0
1, 0
0, 0
0, 0
0, 0
0, 0
1, 0
0, 0
0, 0
0, 1
1, 0
0, 0
0, 0
1, 0
1, 0
1, 0
0, 0
0, 1
0, 0
0, 0
0, 0
0, 0
0, 0
0, 0
0, 0
0, 0
0, 0
0, 0
0, 0
0, 0
0, 0
0, 0
0, 1
0, 0
0, 0
0, 0
0, 0
0, 0
1, 0
0, 0
0, 0
0, 0
0, 0
1, 0
0, 0
0, 0
0, 0
0, 0
0, 0
0, 0
0, 0
0, 0
0, 0
0, 0
0, 0
0, 0
0, 0
0, 0
0, 0
0, 0
0, 0
0, 0
0, 0
0, 0
0, 0
0, 0
0, 0
0, 0
0, 0
0, 0
0, 0
0, 0
0, 0
0, 0
0, 0
0, 0
0, 0
0, 0
0, 0
0, 0
0, 0
0, 0
0, 0
0, 0
0, 0
0, 0
0, 0
0, 0
0, 0
0, 0
0, 0
0, 0
0, 0
0, 0
0, 0
0, 0
0, 0
0, 0
0, 0
0, 0
0, 0
0, 0
0, 0
0, 0
0, 0
0, 0
0, 0
0, 0
0, 0
0, 0
0, 0
0, 0
0, 0
0, 0
0, 0
0, 0
0, 0
0, 0
0, 0
0, 0
0, 0
0, 0
0, 0
0, 0
0, 0
0, 0
0, 0
0, 0
0, 0
0, 0
0, 0
0, 0
0, 0
0, 0
0, 0
0, 0
#ENDOFDATA     end of spectrum data