File: host_upload/06-09-2024/ps_0852/dump3/ps__0852shot_2317.msa
#FORMAT      : EMSA/MAS spectral data file
#VERSION     : TC202v2.0 PIXL
#TITLE       : N/A
#DATE        :       Date in the format DD-MMM-YYYY, for example 07-JUL-2010
#TIME        :             The time of day at which the spectrum was recorded, in 24-hour format
#OWNER       : PIXL Flight Model       (PIXL will use this to indicate which instrument took the data.)
#NPOINTS     : 4096     Number of data points in the spectrum (This can be zero for configuration only files)
#NCOLUMNS    : 2     Number of data columns in the spectrum (This can be zero for configuration only files)
#XUNITS      : eV
#YUNITS      : COUNTS
#DATATYPE    : YY
#XPERCHAN    : 7.862, 7.881   eV per channel (separate by commas if more than one detector)
#OFFSET      : 18.5, -22.4         eV of first channel  (separate by commas if more than one detector
#SIGNALTYPE  : XRF
#YP_TEMP     : 2.62
#LIVETIME    : 8.5693, 8.5395   seconds (separate by commas if more than one detector)
#REALTIME    : 10, 10.0   seconds (separate by commas if more than one detector)
#SPECTRUM    : start of spectrum data
0, 0
0, 0
0, 0
0, 0
0, 0
0, 0
0, 0
0, 0
0, 3
3, 1
5, 4
37, 42
43, 44
7, 5
7, 5
71, 96
359, 429
79, 107
15, 17
13, 7
13, 19
98, 123
40, 42
21, 22
117, 80
112, 62
33, 29
20, 9
5, 8
5, 7
4, 7
3, 1
6, 8
90, 106
136, 155
31, 24
14, 20
23, 32
9, 7
4, 6
9, 6
14, 16
15, 12
29, 21
28, 8
7, 4
8, 7
5, 5
6, 12
17, 23
13, 17
9, 9
8, 10
43, 56
53, 92
19, 26
34, 47
379, 624
1757, 2438
1310, 1413
167, 144
18, 15
21, 26
90, 130
290, 344
194, 222
25, 27
16, 10
13, 12
13, 4
2, 5
4, 4
4, 3
3, 5
4, 3
4, 10
6, 3
5, 3
4, 6
4, 8
2, 2
1, 2
4, 6
2, 6
5, 7
5, 3
5, 2
3, 4
5, 4
2, 4
13, 2
20, 4
17, 2
4, 4
3, 4
2, 4
4, 9
2, 3
0, 3
4, 3
1, 5
1, 4
6, 3
0, 5
6, 1
9, 2
1, 1
2, 0
4, 3
2, 1
0, 5
3, 0
1, 0
2, 1
2, 2
1, 5
4, 10
3, 2
0, 0
0, 0
1, 2
0, 2
1, 5
5, 1
0, 4
1, 0
1, 2
1, 1
0, 1
1, 1
1, 0
0, 0
1, 1
1, 0
0, 0
0, 3
0, 1
0, 1
0, 1
0, 1
0, 0
0, 1
0, 1
0, 0
1, 3
0, 0
0, 0
1, 0
1, 0
0, 1
0, 0
0, 1
1, 0
0, 0
0, 0
1, 0
0, 0
1, 0
0, 0
0, 0
0, 0
0, 0
0, 0
0, 0
0, 0
3, 1
0, 0
0, 0
0, 0
0, 0
0, 0
1, 2
1, 0
0, 1
0, 0
0, 0
1, 0
0, 0
0, 0
0, 0
0, 0
0, 0
0, 0
0, 0
1, 1
0, 0
0, 0
1, 0
0, 1
1, 0
0, 0
0, 0
0, 0
0, 0
0, 0
0, 0
0, 0
0, 0
0, 0
0, 1
0, 0
0, 0
0, 0
0, 0
0, 0
0, 0
0, 0
0, 0
0, 0
0, 0
0, 0
0, 0
0, 0
0, 0
0, 0
0, 0
0, 0
0, 0
0, 0
0, 0
0, 0
0, 0
0, 0
0, 0
0, 0
0, 0
0, 0
0, 0
0, 0
0, 0
0, 0
0, 0
0, 0
0, 0
0, 0
0, 0
0, 0
0, 0
0, 0
0, 0
0, 0
0, 0
0, 0
0, 0
0, 0
0, 0
0, 0
0, 0
0, 0
0, 0
0, 0
0, 0
0, 0
0, 0
0, 0
0, 0
0, 0
0, 0
0, 0
0, 0
0, 0
0, 0
0, 0
0, 0
0, 0
0, 0
0, 0
0, 0
0, 0
0, 0
0, 0
0, 0
0, 0
0, 0
0, 0
0, 0
0, 0
0, 0
0, 0
0, 0
0, 0
0, 0
0, 0
0, 0
0, 0
0, 0
0, 0
0, 0
0, 0
0, 0
0, 0
0, 0
0, 0
0, 0
#ENDOFDATA     end of spectrum data