File: host_upload/06-09-2024/ps_0852/dump3/ps__0852shot_2475.msa
#FORMAT      : EMSA/MAS spectral data file
#VERSION     : TC202v2.0 PIXL
#TITLE       : N/A
#DATE        :       Date in the format DD-MMM-YYYY, for example 07-JUL-2010
#TIME        :             The time of day at which the spectrum was recorded, in 24-hour format
#OWNER       : PIXL Flight Model       (PIXL will use this to indicate which instrument took the data.)
#NPOINTS     : 4096     Number of data points in the spectrum (This can be zero for configuration only files)
#NCOLUMNS    : 2     Number of data columns in the spectrum (This can be zero for configuration only files)
#XUNITS      : eV
#YUNITS      : COUNTS
#DATATYPE    : YY
#XPERCHAN    : 7.862, 7.881   eV per channel (separate by commas if more than one detector)
#OFFSET      : 18.5, -22.4         eV of first channel  (separate by commas if more than one detector
#SIGNALTYPE  : XRF
#YP_TEMP     : 2.267
#LIVETIME    : 8.55506, 8.55573   seconds (separate by commas if more than one detector)
#REALTIME    : 10, 10.0   seconds (separate by commas if more than one detector)
#SPECTRUM    : start of spectrum data
0, 0
0, 0
0, 0
0, 0
0, 0
0, 0
0, 0
0, 0
0, 0
0, 1
1, 3
38, 46
63, 42
4, 8
6, 7
91, 97
481, 472
90, 107
5, 9
2, 2
10, 16
82, 89
44, 40
25, 16
56, 46
80, 40
83, 27
22, 16
7, 6
1, 2
4, 0
2, 3
5, 5
39, 53
73, 69
16, 16
16, 11
13, 17
6, 6
2, 5
3, 5
4, 7
11, 13
8, 14
4, 3
4, 7
7, 7
5, 6
12, 9
39, 15
48, 12
36, 7
19, 14
37, 39
48, 79
25, 67
34, 47
420, 616
2061, 2440
1431, 1382
174, 139
21, 40
24, 23
97, 119
315, 357
206, 200
23, 37
7, 14
11, 17
7, 15
4, 6
2, 7
5, 7
2, 3
7, 5
6, 12
11, 19
7, 11
6, 9
4, 5
6, 5
7, 3
1, 6
2, 0
2, 4
2, 3
6, 2
5, 2
2, 2
2, 1
5, 4
1, 3
1, 8
5, 3
2, 1
1, 3
2, 1
5, 3
2, 1
0, 3
3, 0
4, 3
4, 3
0, 1
1, 4
3, 1
3, 3
4, 4
1, 2
1, 3
2, 0
2, 1
4, 2
4, 4
3, 3
0, 2
2, 2
0, 2
0, 1
0, 0
3, 1
1, 6
1, 2
0, 3
0, 1
1, 2
0, 1
1, 1
1, 2
0, 1
1, 1
2, 2
0, 1
0, 2
1, 0
2, 0
1, 0
2, 1
1, 1
0, 0
0, 0
1, 1
0, 2
0, 0
0, 0
0, 0
0, 1
0, 0
1, 0
0, 0
1, 0
0, 2
0, 0
1, 0
1, 0
0, 1
0, 0
0, 1
2, 0
0, 0
2, 1
0, 0
0, 0
1, 0
0, 0
0, 0
0, 2
0, 1
2, 0
1, 1
1, 0
1, 0
0, 0
1, 0
1, 0
0, 0
0, 0
0, 0
0, 0
0, 0
0, 0
0, 1
0, 0
0, 0
0, 0
0, 0
0, 0
0, 0
0, 0
0, 0
0, 0
0, 0
0, 0
0, 0
0, 0
0, 1
0, 0
0, 0
0, 0
0, 0
0, 0
0, 0
0, 0
0, 0
0, 0
1, 0
0, 0
0, 0
0, 0
0, 0
0, 0
0, 0
0, 0
0, 0
0, 0
0, 0
0, 0
0, 0
0, 0
0, 0
0, 0
0, 0
0, 0
0, 0
0, 0
0, 0
0, 0
0, 0
0, 0
0, 0
0, 0
0, 0
0, 0
0, 0
0, 0
0, 0
0, 0
0, 0
0, 0
0, 0
0, 0
0, 0
0, 0
0, 0
0, 0
0, 0
0, 0
0, 0
0, 0
0, 0
0, 0
0, 0
0, 0
0, 0
0, 0
0, 0
0, 0
0, 0
0, 0
0, 0
0, 0
0, 0
0, 0
0, 0
0, 0
0, 0
0, 0
0, 0
0, 0
0, 0
0, 0
0, 0
0, 0
0, 0
0, 0
0, 0
0, 0
0, 0
0, 0
0, 0
0, 0
0, 0
0, 0
0, 0
0, 0
0, 0
0, 0
0, 0
0, 0
0, 0
0, 0
0, 0
0, 0
0, 0
#ENDOFDATA     end of spectrum data