File: host_upload/06-09-2024/ps_0852/dump3/ps__0852shot_2384.msa
#FORMAT      : EMSA/MAS spectral data file
#VERSION     : TC202v2.0 PIXL
#TITLE       : N/A
#DATE        :       Date in the format DD-MMM-YYYY, for example 07-JUL-2010
#TIME        :             The time of day at which the spectrum was recorded, in 24-hour format
#OWNER       : PIXL Flight Model       (PIXL will use this to indicate which instrument took the data.)
#NPOINTS     : 4096     Number of data points in the spectrum (This can be zero for configuration only files)
#NCOLUMNS    : 2     Number of data columns in the spectrum (This can be zero for configuration only files)
#XUNITS      : eV
#YUNITS      : COUNTS
#DATATYPE    : YY
#XPERCHAN    : 7.862, 7.881   eV per channel (separate by commas if more than one detector)
#OFFSET      : 18.5, -22.4         eV of first channel  (separate by commas if more than one detector
#SIGNALTYPE  : XRF
#YP_TEMP     : 2.332
#LIVETIME    : 8.5519, 8.56453   seconds (separate by commas if more than one detector)
#REALTIME    : 10, 10.0   seconds (separate by commas if more than one detector)
#SPECTRUM    : start of spectrum data
0, 0
0, 0
0, 0
0, 0
0, 0
0, 0
0, 0
0, 1
0, 0
0, 0
3, 4
40, 56
55, 61
7, 11
6, 7
72, 114
429, 436
100, 118
8, 3
1, 5
3, 4
4, 3
2, 13
13, 33
46, 55
50, 40
26, 20
10, 13
2, 1
4, 2
0, 2
3, 5
1, 5
16, 15
18, 23
6, 5
6, 7
2, 10
5, 7
4, 7
2, 3
6, 10
7, 14
9, 17
9, 9
9, 11
7, 13
7, 11
4, 14
17, 13
23, 11
23, 12
10, 11
39, 48
50, 54
24, 26
29, 61
436, 680
2042, 2515
1513, 1523
182, 135
15, 17
31, 24
104, 148
332, 369
190, 221
35, 30
7, 10
21, 15
12, 15
5, 6
4, 5
6, 5
5, 8
3, 0
6, 6
8, 2
5, 5
6, 4
2, 3
9, 7
7, 12
24, 13
18, 5
10, 4
2, 6
1, 5
5, 6
11, 2
9, 2
0, 4
1, 2
1, 4
2, 5
5, 5
1, 4
1, 5
1, 4
4, 2
6, 6
3, 2
8, 2
3, 0
0, 4
3, 7
3, 2
1, 9
0, 2
5, 5
1, 3
1, 2
3, 4
0, 1
1, 2
3, 4
2, 5
2, 5
5, 5
5, 1
2, 4
1, 0
1, 1
2, 3
4, 3
1, 1
4, 1
0, 0
0, 2
3, 2
0, 1
0, 1
2, 1
0, 0
0, 0
0, 0
0, 2
0, 0
0, 4
0, 1
1, 0
0, 1
1, 0
2, 0
1, 1
0, 0
0, 1
1, 1
0, 1
0, 0
0, 0
0, 2
1, 2
0, 0
1, 1
0, 0
0, 1
0, 0
0, 0
0, 1
0, 1
0, 2
0, 0
0, 1
0, 0
0, 0
1, 1
0, 0
2, 0
0, 0
1, 0
0, 0
0, 0
0, 1
1, 0
0, 0
1, 0
0, 0
0, 0
0, 0
0, 0
0, 0
0, 0
1, 0
0, 0
0, 0
0, 0
0, 0
0, 1
0, 0
1, 0
0, 0
0, 0
0, 0
0, 0
0, 0
0, 0
0, 0
0, 0
0, 0
0, 0
0, 0
0, 0
0, 0
0, 0
0, 0
0, 0
0, 0
0, 0
0, 0
0, 0
0, 0
0, 0
0, 0
0, 0
0, 0
0, 0
0, 0
0, 0
0, 0
0, 0
0, 0
0, 0
0, 0
0, 0
0, 0
0, 0
0, 0
0, 0
0, 0
0, 0
0, 0
0, 0
0, 0
0, 0
0, 0
0, 0
0, 0
0, 0
0, 0
0, 0
0, 0
0, 0
0, 0
0, 0
0, 0
0, 0
0, 0
0, 0
0, 0
0, 0
0, 0
0, 0
0, 0
0, 0
0, 0
0, 0
0, 0
0, 0
0, 0
0, 0
0, 0
0, 0
0, 0
0, 0
0, 0
0, 0
0, 0
0, 0
0, 0
0, 0
0, 0
0, 0
0, 0
0, 0
0, 0
0, 0
0, 0
0, 0
0, 0
0, 0
0, 0
0, 0
0, 0
0, 0
0, 0
0, 0
0, 0
0, 0
0, 0
0, 0
0, 0
0, 0
0, 0
0, 0
#ENDOFDATA     end of spectrum data