File: host_upload/06-09-2024/ps_0852/dump3/ps__0852shot_2469.msa
#FORMAT      : EMSA/MAS spectral data file
#VERSION     : TC202v2.0 PIXL
#TITLE       : N/A
#DATE        :       Date in the format DD-MMM-YYYY, for example 07-JUL-2010
#TIME        :             The time of day at which the spectrum was recorded, in 24-hour format
#OWNER       : PIXL Flight Model       (PIXL will use this to indicate which instrument took the data.)
#NPOINTS     : 4096     Number of data points in the spectrum (This can be zero for configuration only files)
#NCOLUMNS    : 2     Number of data columns in the spectrum (This can be zero for configuration only files)
#XUNITS      : eV
#YUNITS      : COUNTS
#DATATYPE    : YY
#XPERCHAN    : 7.862, 7.881   eV per channel (separate by commas if more than one detector)
#OFFSET      : 18.5, -22.4         eV of first channel  (separate by commas if more than one detector
#SIGNALTYPE  : XRF
#YP_TEMP     : 2.396
#LIVETIME    : 8.54349, 8.5638   seconds (separate by commas if more than one detector)
#REALTIME    : 10, 10.0   seconds (separate by commas if more than one detector)
#SPECTRUM    : start of spectrum data
0, 0
0, 0
0, 0
0, 0
0, 0
0, 0
0, 0
1, 1
1, 1
0, 4
2, 6
42, 51
53, 67
6, 3
6, 8
78, 90
318, 425
86, 106
7, 5
4, 2
28, 24
183, 189
53, 72
17, 23
46, 58
34, 59
35, 25
11, 14
3, 4
2, 1
4, 6
3, 3
1, 3
15, 12
17, 19
3, 3
3, 2
2, 6
5, 8
7, 6
3, 6
12, 10
12, 21
7, 14
3, 40
4, 79
6, 37
8, 4
11, 6
35, 10
31, 12
12, 10
18, 12
30, 39
59, 66
28, 23
28, 36
416, 702
1954, 2528
1543, 1544
245, 156
20, 12
24, 20
116, 129
287, 412
221, 186
22, 24
8, 15
8, 25
7, 18
1, 1
2, 4
1, 4
4, 3
4, 4
5, 4
7, 16
1, 2
3, 5
7, 5
9, 2
2, 6
4, 8
2, 1
3, 4
7, 5
2, 2
2, 6
3, 9
3, 13
3, 12
3, 12
2, 4
2, 3
1, 2
2, 3
1, 3
5, 2
8, 2
5, 2
5, 3
3, 2
3, 1
2, 0
2, 4
2, 2
1, 6
0, 2
3, 5
3, 2
4, 0
3, 1
1, 4
3, 2
5, 2
1, 3
3, 6
0, 7
2, 1
0, 1
1, 3
5, 3
2, 1
0, 3
0, 0
2, 0
0, 0
1, 0
1, 2
0, 2
1, 5
0, 1
0, 1
0, 1
1, 0
0, 0
0, 2
0, 0
1, 1
0, 2
0, 0
0, 1
3, 2
0, 0
0, 0
1, 0
0, 1
0, 0
0, 0
2, 1
2, 0
0, 0
0, 0
1, 0
1, 0
0, 1
0, 0
0, 0
0, 0
1, 2
0, 0
0, 0
0, 0
1, 2
0, 0
1, 0
0, 2
1, 0
1, 0
0, 0
0, 0
0, 0
1, 1
0, 0
0, 0
1, 0
0, 0
0, 0
2, 1
0, 0
0, 0
0, 0
0, 0
0, 0
0, 1
0, 0
1, 0
0, 0
0, 0
0, 0
0, 0
0, 0
0, 0
0, 0
0, 0
1, 0
0, 0
0, 0
0, 0
0, 0
0, 0
0, 0
0, 0
0, 0
0, 0
0, 0
0, 0
0, 0
0, 0
0, 0
0, 0
0, 0
0, 0
0, 0
0, 0
0, 0
0, 0
0, 0
0, 0
0, 0
0, 0
0, 0
0, 0
0, 0
0, 0
0, 0
0, 0
0, 0
0, 0
0, 0
0, 0
0, 0
0, 0
0, 0
0, 0
0, 0
0, 0
0, 0
0, 0
0, 0
0, 0
0, 0
0, 0
0, 0
0, 0
0, 0
0, 0
0, 0
0, 0
0, 0
0, 0
0, 0
0, 0
0, 0
0, 0
0, 0
0, 0
0, 0
0, 0
0, 0
0, 0
0, 0
0, 0
0, 0
0, 0
0, 0
0, 0
0, 0
0, 0
0, 0
0, 0
0, 0
0, 0
0, 0
0, 0
0, 0
0, 0
0, 0
0, 0
0, 0
0, 0
0, 0
0, 0
0, 0
0, 0
0, 0
0, 0
0, 0
0, 0
0, 0
0, 0
0, 0
0, 0
0, 0
#ENDOFDATA     end of spectrum data