File: host_upload/06-09-2024/ps_0852/dump3/ps__0852shot_2166.msa
#FORMAT      : EMSA/MAS spectral data file
#VERSION     : TC202v2.0 PIXL
#TITLE       : N/A
#DATE        :       Date in the format DD-MMM-YYYY, for example 07-JUL-2010
#TIME        :             The time of day at which the spectrum was recorded, in 24-hour format
#OWNER       : PIXL Flight Model       (PIXL will use this to indicate which instrument took the data.)
#NPOINTS     : 4096     Number of data points in the spectrum (This can be zero for configuration only files)
#NCOLUMNS    : 2     Number of data columns in the spectrum (This can be zero for configuration only files)
#XUNITS      : eV
#YUNITS      : COUNTS
#DATATYPE    : YY
#XPERCHAN    : 7.862, 7.881   eV per channel (separate by commas if more than one detector)
#OFFSET      : 18.5, -22.4         eV of first channel  (separate by commas if more than one detector
#SIGNALTYPE  : XRF
#YP_TEMP     : 2.492
#LIVETIME    : 8.56081, 8.56477   seconds (separate by commas if more than one detector)
#REALTIME    : 10, 10.0   seconds (separate by commas if more than one detector)
#SPECTRUM    : start of spectrum data
0, 0
0, 0
0, 0
0, 0
0, 0
0, 0
0, 0
0, 0
1, 0
1, 2
2, 4
25, 46
58, 55
5, 3
7, 9
99, 111
502, 521
111, 124
7, 10
3, 3
9, 10
55, 51
10, 20
7, 10
35, 39
39, 27
15, 22
13, 14
7, 5
1, 1
1, 4
1, 10
7, 13
126, 144
194, 196
51, 36
28, 33
34, 31
13, 8
3, 0
5, 7
8, 15
11, 19
7, 11
9, 5
9, 9
0, 8
5, 20
6, 24
29, 26
41, 19
20, 3
8, 8
62, 29
123, 63
47, 16
30, 27
338, 492
1631, 1880
1228, 1084
150, 140
11, 16
10, 15
78, 98
236, 296
215, 166
52, 26
10, 12
10, 12
12, 2
4, 1
1, 3
2, 8
3, 5
9, 5
7, 1
11, 3
10, 3
7, 5
3, 3
2, 4
6, 6
4, 3
3, 6
5, 7
5, 7
3, 0
6, 2
5, 2
4, 1
7, 1
6, 3
5, 4
1, 6
3, 5
0, 5
1, 1
1, 1
4, 6
2, 6
1, 6
2, 5
2, 3
3, 2
3, 2
1, 2
2, 4
4, 1
11, 3
5, 3
4, 3
2, 1
2, 4
3, 1
1, 4
2, 5
5, 5
1, 2
2, 2
0, 2
1, 0
1, 0
1, 2
2, 1
1, 3
2, 3
3, 3
2, 0
1, 1
4, 2
0, 0
0, 0
1, 2
2, 0
0, 0
2, 1
0, 2
1, 2
1, 0
1, 0
2, 0
0, 0
1, 0
1, 0
1, 1
0, 0
1, 1
0, 0
2, 0
1, 0
0, 0
1, 0
1, 2
0, 1
0, 0
0, 1
0, 0
1, 0
0, 0
0, 0
0, 0
0, 0
0, 0
0, 0
1, 0
0, 1
0, 0
0, 0
0, 0
0, 0
0, 0
0, 0
0, 0
1, 1
0, 0
1, 0
0, 0
0, 0
0, 0
0, 0
0, 0
0, 0
0, 1
0, 0
0, 0
0, 0
0, 0
0, 0
0, 0
0, 0
0, 0
0, 0
0, 0
0, 0
1, 0
0, 0
0, 0
0, 0
0, 0
0, 0
0, 0
0, 0
0, 0
0, 0
0, 0
0, 0
0, 0
0, 0
0, 0
0, 0
0, 0
0, 0
0, 0
0, 0
0, 0
0, 0
0, 0
0, 0
0, 0
0, 0
0, 0
0, 0
0, 0
0, 0
0, 0
0, 0
0, 0
0, 0
0, 0
0, 0
0, 0
0, 0
0, 0
0, 0
0, 0
0, 0
0, 0
0, 0
0, 0
0, 0
0, 0
0, 0
0, 0
0, 0
0, 0
0, 0
0, 0
0, 0
0, 0
0, 0
0, 0
0, 0
0, 0
0, 0
0, 0
0, 0
0, 0
0, 0
0, 0
0, 0
0, 0
0, 0
0, 0
0, 0
0, 0
0, 0
0, 0
0, 0
0, 0
0, 0
0, 0
0, 0
0, 0
0, 0
0, 0
0, 0
0, 0
0, 0
0, 0
0, 0
0, 0
0, 0
0, 0
0, 0
0, 0
0, 0
0, 0
0, 0
0, 0
0, 0
0, 0
0, 0
0, 0
0, 0
#ENDOFDATA     end of spectrum data