File: host_upload/06-09-2024/ps_0852/dump3/ps__0852shot_2408.msa
#FORMAT      : EMSA/MAS spectral data file
#VERSION     : TC202v2.0 PIXL
#TITLE       : N/A
#DATE        :       Date in the format DD-MMM-YYYY, for example 07-JUL-2010
#TIME        :             The time of day at which the spectrum was recorded, in 24-hour format
#OWNER       : PIXL Flight Model       (PIXL will use this to indicate which instrument took the data.)
#NPOINTS     : 4096     Number of data points in the spectrum (This can be zero for configuration only files)
#NCOLUMNS    : 2     Number of data columns in the spectrum (This can be zero for configuration only files)
#XUNITS      : eV
#YUNITS      : COUNTS
#DATATYPE    : YY
#XPERCHAN    : 7.862, 7.881   eV per channel (separate by commas if more than one detector)
#OFFSET      : 18.5, -22.4         eV of first channel  (separate by commas if more than one detector
#SIGNALTYPE  : XRF
#YP_TEMP     : 2.396
#LIVETIME    : 8.58702, 8.37484   seconds (separate by commas if more than one detector)
#REALTIME    : 10, 10.0   seconds (separate by commas if more than one detector)
#SPECTRUM    : start of spectrum data
0, 0
0, 0
0, 0
0, 0
0, 0
0, 0
0, 0
0, 0
0, 0
0, 3
1, 3
44, 41
70, 71
3, 5
6, 5
92, 107
423, 445
106, 96
3, 3
0, 2
1, 2
6, 7
0, 12
7, 19
43, 118
33, 104
17, 22
11, 11
3, 7
1, 0
3, 3
1, 0
3, 2
10, 10
19, 8
18, 5
12, 5
1, 7
3, 11
7, 14
3, 2
5, 10
18, 14
13, 13
4, 4
8, 16
5, 7
5, 7
6, 15
12, 14
41, 12
95, 10
54, 5
51, 47
70, 54
17, 20
25, 28
482, 644
2092, 2418
1520, 1446
212, 144
20, 19
13, 24
110, 110
335, 364
233, 202
28, 13
10, 9
11, 10
8, 5
3, 5
8, 4
3, 6
1, 6
3, 4
2, 11
6, 3
1, 0
3, 1
4, 5
3, 3
10, 7
4, 9
3, 1
4, 5
7, 2
11, 0
2, 2
3, 0
2, 0
2, 1
0, 4
1, 6
3, 3
4, 4
3, 7
5, 3
9, 3
8, 3
6, 3
3, 3
3, 1
0, 1
2, 0
1, 4
2, 5
6, 3
4, 1
2, 4
2, 0
2, 0
4, 3
0, 2
2, 3
4, 1
2, 4
4, 12
2, 4
4, 4
0, 3
4, 2
2, 0
2, 1
3, 3
3, 1
1, 1
1, 6
0, 2
0, 1
0, 1
2, 0
0, 0
0, 1
1, 0
2, 1
0, 0
0, 0
1, 1
0, 0
0, 1
0, 0
0, 0
1, 1
1, 1
0, 1
3, 1
3, 1
0, 1
2, 1
1, 1
0, 1
0, 1
1, 0
0, 1
0, 1
0, 1
0, 1
0, 0
0, 0
0, 1
0, 2
0, 0
0, 0
0, 1
0, 0
1, 0
0, 1
1, 0
0, 0
0, 0
0, 1
0, 0
0, 0
0, 1
0, 0
0, 0
0, 0
0, 0
0, 1
0, 0
0, 0
0, 0
0, 0
0, 0
0, 0
0, 0
1, 0
1, 0
0, 0
0, 0
1, 0
0, 0
0, 0
1, 0
0, 0
0, 0
0, 0
0, 0
0, 0
0, 0
0, 0
0, 0
0, 0
0, 0
0, 0
0, 0
0, 0
0, 0
0, 0
0, 0
0, 0
0, 0
0, 0
0, 1
0, 0
0, 0
0, 0
0, 0
0, 0
0, 0
0, 0
0, 0
0, 0
0, 0
0, 0
0, 0
0, 0
0, 0
0, 0
0, 0
0, 0
0, 0
0, 0
0, 0
0, 0
0, 0
0, 0
0, 0
0, 0
0, 0
0, 0
0, 0
0, 0
0, 0
0, 0
0, 0
0, 0
0, 0
0, 0
0, 0
0, 0
0, 0
0, 0
0, 0
0, 0
0, 0
0, 0
0, 0
0, 0
0, 0
0, 0
0, 0
0, 0
0, 0
0, 0
0, 0
0, 0
0, 0
0, 0
0, 0
0, 0
0, 0
0, 0
0, 0
0, 0
0, 0
0, 0
0, 0
0, 0
0, 0
0, 0
0, 0
0, 0
0, 0
0, 0
0, 0
0, 0
0, 0
0, 0
0, 0
0, 0
0, 0
0, 0
0, 0
#ENDOFDATA     end of spectrum data