File: host_upload/06-09-2024/ps_0852/dump3/ps__0852shot_2366.msa
#FORMAT      : EMSA/MAS spectral data file
#VERSION     : TC202v2.0 PIXL
#TITLE       : N/A
#DATE        :       Date in the format DD-MMM-YYYY, for example 07-JUL-2010
#TIME        :             The time of day at which the spectrum was recorded, in 24-hour format
#OWNER       : PIXL Flight Model       (PIXL will use this to indicate which instrument took the data.)
#NPOINTS     : 4096     Number of data points in the spectrum (This can be zero for configuration only files)
#NCOLUMNS    : 2     Number of data columns in the spectrum (This can be zero for configuration only files)
#XUNITS      : eV
#YUNITS      : COUNTS
#DATATYPE    : YY
#XPERCHAN    : 7.862, 7.881   eV per channel (separate by commas if more than one detector)
#OFFSET      : 18.5, -22.4         eV of first channel  (separate by commas if more than one detector
#SIGNALTYPE  : XRF
#YP_TEMP     : 2.524
#LIVETIME    : 8.56165, 8.55249   seconds (separate by commas if more than one detector)
#REALTIME    : 10, 10.0   seconds (separate by commas if more than one detector)
#SPECTRUM    : start of spectrum data
0, 0
0, 0
0, 0
0, 0
0, 0
0, 0
0, 0
0, 0
0, 2
4, 0
4, 3
39, 42
63, 64
8, 9
3, 1
84, 98
392, 388
116, 103
3, 8
1, 4
1, 1
7, 4
4, 1
12, 4
174, 26
256, 35
51, 25
21, 18
4, 2
0, 4
0, 1
1, 6
3, 2
14, 21
33, 32
7, 8
3, 7
17, 7
23, 2
8, 1
4, 12
15, 10
17, 19
11, 55
6, 48
13, 10
6, 10
5, 4
9, 7
15, 13
24, 9
31, 6
20, 12
36, 40
54, 55
15, 26
24, 69
434, 597
2034, 2354
1440, 1426
177, 172
22, 24
58, 24
114, 123
284, 351
211, 189
24, 20
8, 9
3, 11
8, 10
4, 5
3, 13
3, 12
7, 7
17, 1
37, 2
24, 2
13, 5
5, 5
4, 3
5, 1
3, 6
1, 3
4, 5
1, 4
5, 4
1, 6
4, 7
3, 10
5, 2
2, 1
2, 1
1, 7
3, 3
3, 4
3, 4
2, 2
2, 3
4, 1
2, 3
2, 4
1, 1
5, 5
3, 1
3, 2
1, 2
2, 3
0, 1
1, 1
1, 1
1, 7
3, 3
1, 2
2, 2
3, 2
3, 2
3, 2
2, 1
1, 1
2, 1
2, 1
0, 1
0, 4
1, 0
1, 0
3, 1
2, 0
0, 2
0, 5
1, 0
0, 2
0, 0
2, 3
2, 0
1, 0
0, 2
0, 3
1, 3
1, 0
1, 1
0, 0
0, 1
1, 1
2, 1
0, 0
0, 0
1, 1
1, 0
0, 1
1, 0
0, 0
0, 1
1, 0
0, 1
0, 2
1, 0
0, 0
2, 0
0, 0
0, 0
0, 0
0, 0
0, 0
0, 0
0, 0
0, 0
0, 1
1, 0
0, 0
0, 0
0, 0
0, 0
0, 1
0, 1
0, 0
1, 0
0, 0
0, 0
0, 0
0, 1
0, 0
0, 0
0, 0
1, 0
0, 0
0, 0
0, 0
0, 0
0, 0
0, 0
0, 0
0, 0
0, 0
0, 0
0, 0
0, 0
0, 0
0, 0
1, 0
0, 0
0, 0
0, 0
0, 0
0, 0
0, 0
0, 0
0, 0
0, 1
0, 0
0, 0
0, 0
0, 0
0, 0
0, 0
0, 0
0, 0
0, 0
0, 0
0, 0
0, 0
0, 0
0, 0
0, 0
0, 0
0, 0
0, 0
0, 0
0, 0
0, 0
0, 0
0, 0
0, 0
0, 0
0, 0
0, 0
0, 0
0, 0
0, 0
0, 0
0, 0
0, 0
0, 0
0, 0
0, 0
0, 0
0, 0
0, 0
0, 0
0, 0
0, 0
0, 0
0, 0
0, 0
0, 0
0, 0
0, 0
0, 0
0, 0
0, 0
0, 0
0, 0
0, 0
0, 0
0, 0
0, 0
0, 0
0, 0
0, 0
0, 0
0, 0
0, 0
0, 0
0, 0
0, 0
0, 0
0, 0
0, 0
0, 0
0, 0
0, 0
0, 0
0, 0
0, 0
0, 0
0, 0
0, 0
0, 0
0, 0
0, 0
0, 0
0, 0
0, 0
0, 0
0, 0
#ENDOFDATA     end of spectrum data