File: host_upload/06-09-2024/ps_0852/dump3/ps__0852shot_2349.msa
#FORMAT      : EMSA/MAS spectral data file
#VERSION     : TC202v2.0 PIXL
#TITLE       : N/A
#DATE        :       Date in the format DD-MMM-YYYY, for example 07-JUL-2010
#TIME        :             The time of day at which the spectrum was recorded, in 24-hour format
#OWNER       : PIXL Flight Model       (PIXL will use this to indicate which instrument took the data.)
#NPOINTS     : 4096     Number of data points in the spectrum (This can be zero for configuration only files)
#NCOLUMNS    : 2     Number of data columns in the spectrum (This can be zero for configuration only files)
#XUNITS      : eV
#YUNITS      : COUNTS
#DATATYPE    : YY
#XPERCHAN    : 7.862, 7.881   eV per channel (separate by commas if more than one detector)
#OFFSET      : 18.5, -22.4         eV of first channel  (separate by commas if more than one detector
#SIGNALTYPE  : XRF
#YP_TEMP     : 2.364
#LIVETIME    : 8.56756, 8.54988   seconds (separate by commas if more than one detector)
#REALTIME    : 10, 10.0   seconds (separate by commas if more than one detector)
#SPECTRUM    : start of spectrum data
0, 0
0, 0
0, 0
0, 0
0, 0
0, 0
0, 0
0, 0
1, 0
2, 0
1, 1
38, 47
66, 51
9, 2
5, 5
99, 103
475, 466
102, 100
3, 10
1, 1
1, 4
18, 37
5, 11
15, 11
38, 37
42, 37
20, 28
8, 12
3, 7
1, 1
5, 0
9, 3
7, 4
15, 21
42, 56
9, 43
5, 30
7, 10
5, 2
0, 4
8, 4
21, 9
21, 9
15, 14
11, 8
5, 24
2, 32
3, 16
4, 23
13, 35
13, 22
7, 25
8, 17
44, 47
64, 58
31, 19
41, 39
480, 612
2154, 2366
1552, 1382
206, 145
24, 20
40, 25
160, 114
363, 347
246, 171
37, 28
3, 9
17, 8
20, 10
5, 16
1, 7
1, 9
4, 3
5, 9
6, 2
5, 10
13, 3
9, 5
7, 5
4, 6
4, 3
1, 5
4, 5
2, 11
6, 7
18, 3
11, 1
4, 0
5, 3
6, 6
3, 11
3, 9
2, 3
4, 1
5, 3
4, 0
1, 5
4, 2
10, 1
1, 4
2, 1
1, 0
0, 3
5, 4
5, 2
2, 1
2, 5
4, 3
6, 1
3, 4
3, 2
0, 0
5, 3
2, 3
2, 2
3, 7
4, 4
0, 1
3, 1
2, 1
3, 1
2, 2
3, 2
3, 1
1, 0
5, 0
1, 0
2, 0
1, 0
0, 0
0, 1
1, 2
2, 3
0, 1
0, 0
2, 0
2, 0
1, 1
0, 1
2, 2
0, 0
0, 0
0, 0
2, 0
0, 0
1, 1
0, 1
0, 1
0, 1
0, 0
1, 0
0, 0
0, 1
0, 0
0, 0
0, 0
1, 0
0, 0
0, 0
0, 0
0, 0
0, 0
0, 0
0, 0
0, 1
1, 0
0, 0
0, 0
0, 1
0, 0
2, 0
0, 0
0, 0
0, 1
1, 0
1, 0
0, 0
0, 0
0, 0
0, 0
0, 0
0, 1
0, 0
0, 0
0, 0
0, 0
1, 0
0, 0
0, 0
0, 0
0, 0
0, 0
0, 0
0, 0
0, 0
0, 1
0, 0
0, 0
0, 0
0, 1
0, 1
0, 0
0, 0
0, 0
0, 0
0, 0
0, 0
0, 0
0, 0
0, 0
0, 0
0, 0
0, 0
0, 0
0, 0
0, 0
0, 0
0, 0
0, 0
0, 0
0, 0
0, 0
0, 0
0, 0
0, 0
0, 0
0, 0
0, 0
0, 0
0, 0
0, 0
0, 0
0, 0
0, 0
0, 0
0, 0
0, 0
0, 0
0, 0
0, 0
0, 0
0, 0
0, 0
0, 0
0, 0
0, 0
0, 0
0, 0
0, 0
0, 0
0, 0
0, 0
0, 0
0, 0
0, 0
0, 0
0, 0
0, 0
0, 0
0, 0
0, 0
0, 0
0, 0
0, 0
0, 0
0, 0
0, 0
0, 0
0, 0
0, 0
0, 0
0, 0
0, 0
0, 0
0, 0
0, 0
0, 0
0, 0
0, 0
0, 0
0, 0
0, 0
0, 0
0, 0
0, 0
0, 0
0, 0
0, 0
0, 0
0, 0
0, 0
0, 0
0, 0
#ENDOFDATA     end of spectrum data