File: host_upload/06-09-2024/ps_0852/dump3/ps__0852shot_2568.msa
#FORMAT      : EMSA/MAS spectral data file
#VERSION     : TC202v2.0 PIXL
#TITLE       : N/A
#DATE        :       Date in the format DD-MMM-YYYY, for example 07-JUL-2010
#TIME        :             The time of day at which the spectrum was recorded, in 24-hour format
#OWNER       : PIXL Flight Model       (PIXL will use this to indicate which instrument took the data.)
#NPOINTS     : 4096     Number of data points in the spectrum (This can be zero for configuration only files)
#NCOLUMNS    : 2     Number of data columns in the spectrum (This can be zero for configuration only files)
#XUNITS      : eV
#YUNITS      : COUNTS
#DATATYPE    : YY
#XPERCHAN    : 7.862, 7.881   eV per channel (separate by commas if more than one detector)
#OFFSET      : 18.5, -22.4         eV of first channel  (separate by commas if more than one detector
#SIGNALTYPE  : XRF
#YP_TEMP     : 2.235
#LIVETIME    : 8.53077, 8.54351   seconds (separate by commas if more than one detector)
#REALTIME    : 10, 10.0   seconds (separate by commas if more than one detector)
#SPECTRUM    : start of spectrum data
0, 0
0, 0
0, 0
0, 0
0, 0
0, 0
0, 0
0, 0
0, 0
1, 0
2, 2
49, 39
69, 51
4, 10
7, 6
110, 83
501, 409
131, 102
8, 4
2, 2
2, 2
6, 8
3, 1
2, 3
43, 21
47, 33
31, 14
15, 11
6, 3
2, 3
2, 4
2, 3
1, 2
5, 3
19, 14
4, 3
4, 2
7, 5
14, 3
44, 2
100, 1
31, 6
14, 12
6, 12
3, 11
3, 7
7, 9
4, 11
4, 15
21, 15
12, 11
41, 8
103, 9
156, 30
106, 54
32, 16
26, 31
543, 536
2334, 2099
1719, 1294
196, 125
13, 15
19, 27
109, 106
350, 315
245, 183
41, 22
11, 8
16, 11
6, 7
9, 6
5, 3
2, 2
4, 3
2, 3
7, 4
14, 8
8, 28
19, 17
15, 6
7, 19
2, 25
1, 9
3, 2
2, 2
2, 6
3, 4
4, 5
4, 4
5, 6
2, 2
13, 5
14, 10
10, 13
5, 10
3, 1
4, 1
1, 1
3, 2
0, 5
3, 4
2, 0
5, 3
2, 2
3, 2
3, 3
2, 1
1, 2
1, 5
4, 2
1, 2
0, 0
5, 2
1, 1
5, 1
4, 4
3, 1
4, 1
3, 0
0, 1
2, 1
2, 0
1, 4
2, 2
1, 1
0, 4
0, 4
1, 0
2, 0
2, 1
1, 0
2, 1
2, 1
1, 3
0, 0
1, 0
1, 0
0, 0
0, 0
0, 0
0, 2
0, 0
0, 0
2, 2
0, 1
0, 1
1, 2
0, 0
0, 0
1, 0
1, 0
0, 1
0, 0
0, 1
0, 0
1, 0
1, 0
0, 0
0, 0
0, 0
0, 1
0, 0
0, 0
0, 0
0, 1
0, 0
0, 0
0, 1
1, 0
0, 1
0, 0
1, 0
2, 1
1, 0
0, 0
1, 0
0, 0
0, 0
0, 0
0, 0
0, 0
0, 0
0, 0
0, 0
0, 2
1, 0
0, 0
0, 1
0, 0
0, 1
0, 0
0, 0
0, 0
0, 0
1, 0
0, 0
0, 0
0, 0
0, 0
0, 0
0, 0
0, 0
0, 0
0, 0
0, 0
0, 0
0, 0
0, 0
0, 0
0, 0
0, 0
0, 0
0, 0
0, 0
0, 0
0, 0
0, 0
0, 0
0, 0
0, 0
0, 0
0, 0
0, 0
0, 0
0, 0
0, 0
0, 0
0, 0
0, 0
0, 0
0, 1
0, 0
0, 0
0, 0
0, 0
0, 0
0, 0
0, 0
0, 0
0, 0
0, 0
0, 0
0, 0
0, 0
0, 0
0, 0
0, 0
0, 0
0, 0
0, 0
0, 0
0, 0
0, 0
0, 0
0, 0
0, 0
0, 0
0, 0
0, 0
0, 0
0, 0
0, 0
0, 0
0, 0
0, 0
0, 0
0, 0
0, 0
0, 0
0, 0
0, 0
0, 0
0, 0
0, 0
0, 0
0, 0
0, 0
0, 0
0, 0
0, 0
0, 0
0, 0
0, 0
0, 0
0, 0
0, 0
0, 0
0, 0
0, 0
0, 0
0, 0
0, 0
0, 0
0, 0
#ENDOFDATA     end of spectrum data