File: host_upload/06-09-2024/ps_0852/dump3/ps__0852shot_2491.msa
#FORMAT      : EMSA/MAS spectral data file
#VERSION     : TC202v2.0 PIXL
#TITLE       : N/A
#DATE        :       Date in the format DD-MMM-YYYY, for example 07-JUL-2010
#TIME        :             The time of day at which the spectrum was recorded, in 24-hour format
#OWNER       : PIXL Flight Model       (PIXL will use this to indicate which instrument took the data.)
#NPOINTS     : 4096     Number of data points in the spectrum (This can be zero for configuration only files)
#NCOLUMNS    : 2     Number of data columns in the spectrum (This can be zero for configuration only files)
#XUNITS      : eV
#YUNITS      : COUNTS
#DATATYPE    : YY
#XPERCHAN    : 7.862, 7.881   eV per channel (separate by commas if more than one detector)
#OFFSET      : 18.5, -22.4         eV of first channel  (separate by commas if more than one detector
#SIGNALTYPE  : XRF
#YP_TEMP     : 2.62
#LIVETIME    : 8.53437, 8.57725   seconds (separate by commas if more than one detector)
#REALTIME    : 10, 10.0   seconds (separate by commas if more than one detector)
#SPECTRUM    : start of spectrum data
0, 0
0, 0
0, 0
0, 0
0, 0
0, 0
0, 0
0, 0
0, 0
1, 2
3, 0
48, 41
61, 57
5, 8
5, 5
98, 110
427, 435
102, 107
6, 5
5, 0
2, 2
8, 5
4, 2
10, 12
28, 25
43, 35
170, 17
203, 17
17, 4
5, 3
2, 2
6, 2
2, 17
6, 28
14, 12
7, 4
3, 4
3, 6
5, 10
2, 14
2, 6
27, 6
98, 14
46, 13
13, 5
9, 14
10, 6
3, 7
8, 9
17, 21
11, 16
7, 9
29, 14
87, 65
107, 117
25, 102
36, 79
483, 608
2170, 2359
1572, 1392
194, 115
22, 19
20, 23
105, 109
337, 351
204, 207
24, 23
10, 11
14, 9
5, 6
0, 2
7, 7
4, 1
4, 5
6, 3
5, 6
6, 3
9, 4
6, 7
6, 2
6, 1
5, 4
2, 2
11, 5
16, 0
16, 3
6, 5
5, 6
1, 6
5, 5
4, 6
1, 2
5, 3
3, 3
7, 4
4, 2
0, 2
1, 2
2, 4
1, 2
1, 3
6, 0
1, 4
0, 2
1, 2
2, 1
3, 1
2, 2
3, 6
2, 7
3, 3
1, 5
3, 1
2, 2
1, 1
2, 2
2, 6
1, 3
4, 2
0, 3
3, 1
0, 1
3, 1
3, 1
1, 0
1, 2
2, 1
0, 0
1, 0
2, 1
2, 0
1, 0
1, 2
0, 1
0, 0
0, 2
3, 1
0, 0
1, 0
1, 0
0, 1
0, 3
1, 0
2, 1
0, 0
0, 1
0, 0
1, 1
0, 0
1, 1
0, 1
1, 1
0, 0
0, 0
0, 0
0, 0
1, 1
0, 1
0, 0
0, 0
1, 0
0, 0
2, 0
0, 0
0, 0
0, 1
1, 0
0, 0
0, 1
0, 0
1, 0
0, 0
2, 0
0, 1
1, 0
0, 0
0, 0
1, 0
0, 0
0, 0
0, 0
0, 0
0, 1
0, 0
0, 0
1, 0
0, 0
1, 0
0, 0
0, 0
0, 1
0, 0
0, 0
0, 0
0, 0
0, 0
0, 0
0, 0
0, 0
0, 0
0, 0
0, 0
0, 0
0, 0
0, 0
0, 0
0, 0
0, 0
0, 0
0, 0
0, 0
0, 0
0, 0
0, 0
0, 0
0, 0
0, 0
0, 0
0, 0
0, 0
0, 0
0, 0
0, 0
0, 1
0, 0
0, 0
0, 0
0, 0
0, 0
0, 0
0, 0
0, 0
0, 0
0, 0
0, 0
0, 0
0, 0
0, 0
0, 0
0, 0
0, 0
0, 0
0, 0
0, 0
0, 0
0, 0
0, 0
0, 0
0, 0
0, 0
0, 0
0, 0
0, 0
0, 0
0, 0
0, 0
0, 0
0, 0
0, 0
0, 0
0, 0
0, 0
0, 0
0, 0
0, 0
0, 0
0, 0
0, 0
0, 0
0, 0
0, 0
0, 0
0, 0
0, 0
0, 0
0, 0
0, 0
0, 0
0, 0
0, 0
0, 0
0, 0
0, 0
0, 0
0, 0
0, 0
0, 0
0, 0
0, 0
0, 0
0, 0
0, 0
0, 0
0, 0
#ENDOFDATA     end of spectrum data