File: host_upload/06-09-2024/ps_0852/dump3/ps__0852shot_2078.msa
#FORMAT      : EMSA/MAS spectral data file
#VERSION     : TC202v2.0 PIXL
#TITLE       : N/A
#DATE        :       Date in the format DD-MMM-YYYY, for example 07-JUL-2010
#TIME        :             The time of day at which the spectrum was recorded, in 24-hour format
#OWNER       : PIXL Flight Model       (PIXL will use this to indicate which instrument took the data.)
#NPOINTS     : 4096     Number of data points in the spectrum (This can be zero for configuration only files)
#NCOLUMNS    : 2     Number of data columns in the spectrum (This can be zero for configuration only files)
#XUNITS      : eV
#YUNITS      : COUNTS
#DATATYPE    : YY
#XPERCHAN    : 7.862, 7.881   eV per channel (separate by commas if more than one detector)
#OFFSET      : 18.5, -22.4         eV of first channel  (separate by commas if more than one detector
#SIGNALTYPE  : XRF
#YP_TEMP     : 2.203
#LIVETIME    : 8.56924, 8.55032   seconds (separate by commas if more than one detector)
#REALTIME    : 10, 10.0   seconds (separate by commas if more than one detector)
#SPECTRUM    : start of spectrum data
0, 0
0, 0
0, 0
0, 0
0, 0
0, 0
0, 0
0, 0
0, 0
3, 0
4, 1
35, 43
78, 68
8, 4
6, 3
95, 110
445, 454
98, 102
10, 5
1, 2
1, 3
17, 4
7, 3
10, 16
45, 40
58, 73
24, 82
16, 18
5, 8
3, 0
4, 0
3, 5
5, 6
25, 22
31, 20
16, 5
6, 7
6, 5
6, 9
5, 13
9, 8
8, 20
25, 28
19, 9
7, 11
13, 7
12, 7
4, 6
9, 14
20, 19
20, 34
10, 32
10, 22
53, 46
60, 61
23, 22
40, 41
483, 652
2069, 2357
1540, 1496
208, 145
37, 30
36, 22
141, 127
324, 389
204, 219
37, 23
18, 12
12, 13
9, 14
4, 6
6, 4
6, 8
4, 7
2, 4
8, 11
3, 4
7, 6
9, 5
8, 4
5, 7
5, 9
5, 3
1, 1
2, 4
3, 4
4, 4
3, 2
5, 6
2, 3
6, 6
2, 9
3, 5
4, 5
1, 5
4, 2
7, 2
3, 2
1, 2
4, 2
4, 1
1, 2
1, 1
4, 2
2, 7
3, 1
0, 4
1, 3
2, 2
4, 1
5, 0
1, 3
0, 3
3, 3
1, 5
7, 3
3, 2
2, 6
2, 4
3, 1
2, 1
0, 2
0, 2
3, 2
2, 0
1, 1
0, 0
1, 1
1, 0
0, 2
1, 4
1, 0
0, 0
0, 0
1, 1
1, 0
1, 2
0, 0
1, 1
0, 0
1, 1
1, 1
0, 1
1, 1
0, 1
0, 0
2, 1
0, 0
2, 0
1, 0
3, 3
0, 0
0, 0
0, 0
0, 0
1, 0
1, 0
0, 1
0, 0
0, 2
0, 1
0, 0
1, 0
0, 1
0, 0
0, 0
0, 1
0, 0
0, 0
1, 1
0, 0
1, 0
0, 0
1, 0
0, 0
0, 0
0, 0
0, 0
0, 0
0, 0
0, 0
0, 0
0, 1
0, 0
2, 0
0, 0
0, 1
0, 0
0, 1
0, 0
1, 0
0, 0
0, 0
0, 0
0, 0
0, 0
0, 0
0, 0
0, 1
0, 1
0, 0
0, 0
0, 0
0, 1
0, 0
0, 0
1, 0
0, 0
0, 0
0, 0
0, 0
0, 0
0, 0
0, 0
0, 0
0, 0
0, 0
0, 0
0, 0
0, 0
0, 0
0, 0
0, 0
0, 0
0, 0
0, 0
0, 0
0, 0
0, 0
0, 0
0, 0
0, 0
0, 0
0, 0
0, 0
0, 0
0, 0
0, 0
0, 0
0, 0
0, 0
0, 0
0, 0
0, 0
0, 0
0, 0
0, 0
0, 0
0, 0
0, 0
0, 0
0, 0
0, 0
0, 0
0, 0
0, 0
0, 0
0, 0
0, 0
0, 0
0, 0
0, 0
0, 0
0, 0
0, 0
0, 0
0, 0
0, 0
0, 0
0, 0
0, 0
0, 0
0, 0
0, 0
0, 0
0, 0
0, 0
0, 0
0, 0
0, 0
0, 0
0, 0
0, 0
0, 0
0, 0
0, 0
0, 0
0, 0
0, 0
0, 0
0, 0
0, 0
0, 0
0, 0
#ENDOFDATA     end of spectrum data