File: host_upload/06-09-2024/ps_0852/dump3/ps__0852shot_2221.msa
#FORMAT      : EMSA/MAS spectral data file
#VERSION     : TC202v2.0 PIXL
#TITLE       : N/A
#DATE        :       Date in the format DD-MMM-YYYY, for example 07-JUL-2010
#TIME        :             The time of day at which the spectrum was recorded, in 24-hour format
#OWNER       : PIXL Flight Model       (PIXL will use this to indicate which instrument took the data.)
#NPOINTS     : 4096     Number of data points in the spectrum (This can be zero for configuration only files)
#NCOLUMNS    : 2     Number of data columns in the spectrum (This can be zero for configuration only files)
#XUNITS      : eV
#YUNITS      : COUNTS
#DATATYPE    : YY
#XPERCHAN    : 7.862, 7.881   eV per channel (separate by commas if more than one detector)
#OFFSET      : 18.5, -22.4         eV of first channel  (separate by commas if more than one detector
#SIGNALTYPE  : XRF
#YP_TEMP     : 2.043
#LIVETIME    : 8.56364, 8.5786   seconds (separate by commas if more than one detector)
#REALTIME    : 10, 10.0   seconds (separate by commas if more than one detector)
#SPECTRUM    : start of spectrum data
0, 0
0, 0
0, 0
0, 0
0, 0
0, 0
0, 0
0, 0
2, 23
1, 77
2, 18
56, 49
69, 66
6, 5
3, 9
92, 89
455, 416
146, 86
0, 5
1, 4
1, 4
6, 7
1, 9
4, 161
25, 2817
26, 4228
13, 410
9, 13
6, 5
6, 2
10, 2
4, 2
0, 3
7, 9
20, 13
3, 4
2, 11
8, 3
4, 16
2, 14
5, 8
5, 8
20, 13
49, 3
140, 6
58, 10
8, 6
7, 8
10, 65
8, 106
7, 35
7, 9
8, 3
40, 35
52, 53
29, 26
41, 38
443, 571
2237, 2305
1580, 1401
216, 167
16, 28
21, 59
112, 146
348, 354
214, 188
38, 24
8, 7
24, 10
12, 2
4, 7
3, 8
8, 29
33, 70
16, 47
9, 9
14, 2
4, 2
4, 2
2, 5
8, 5
5, 8
3, 13
4, 9
5, 7
2, 5
3, 10
3, 12
4, 5
2, 4
2, 3
3, 2
1, 0
8, 3
13, 2
18, 2
8, 4
6, 10
1, 10
2, 5
1, 3
0, 2
2, 1
3, 4
1, 1
0, 0
2, 2
0, 2
2, 4
0, 2
3, 4
4, 3
2, 5
1, 8
0, 3
5, 1
6, 3
3, 3
0, 4
2, 0
0, 4
1, 2
2, 2
2, 1
2, 0
1, 1
2, 0
2, 1
1, 0
1, 1
0, 0
1, 2
2, 1
5, 1
0, 0
2, 0
2, 0
0, 1
0, 0
1, 1
1, 0
0, 1
1, 0
2, 0
0, 0
0, 0
1, 1
2, 0
1, 1
0, 0
0, 0
0, 0
1, 1
0, 0
0, 1
0, 0
0, 1
1, 1
0, 0
1, 1
0, 1
0, 0
0, 1
0, 0
0, 0
1, 0
2, 0
0, 0
0, 0
1, 0
0, 1
0, 1
0, 1
0, 0
0, 0
1, 0
0, 0
0, 0
0, 0
0, 0
0, 0
0, 0
0, 0
0, 0
0, 0
0, 0
0, 0
0, 1
0, 0
0, 0
0, 0
0, 0
0, 0
0, 0
0, 0
0, 0
0, 0
0, 1
0, 0
0, 0
0, 0
0, 0
0, 0
0, 0
0, 1
0, 1
0, 0
0, 0
0, 0
0, 0
0, 0
0, 0
0, 0
0, 0
0, 0
0, 0
0, 0
0, 0
0, 0
0, 0
0, 0
0, 0
0, 0
0, 0
0, 0
0, 0
0, 0
0, 0
0, 0
0, 0
0, 0
0, 0
0, 0
0, 0
0, 0
0, 0
0, 0
0, 0
0, 0
0, 0
0, 0
0, 0
0, 0
0, 0
0, 0
0, 0
0, 0
0, 0
0, 0
0, 0
0, 0
0, 0
0, 0
0, 0
0, 0
0, 0
0, 0
0, 0
0, 0
0, 0
0, 0
0, 0
0, 0
0, 0
0, 0
0, 0
0, 0
0, 0
0, 0
0, 0
0, 0
0, 0
0, 0
0, 0
0, 0
0, 0
0, 0
0, 0
0, 0
0, 0
0, 0
0, 0
0, 0
0, 0
0, 0
0, 0
0, 0
0, 0
0, 0
0, 0
0, 0
0, 0
0, 0
0, 0
#ENDOFDATA     end of spectrum data