File: host_upload/06-09-2024/ps_0852/dump3/ps__0852shot_2082.msa
#FORMAT      : EMSA/MAS spectral data file
#VERSION     : TC202v2.0 PIXL
#TITLE       : N/A
#DATE        :       Date in the format DD-MMM-YYYY, for example 07-JUL-2010
#TIME        :             The time of day at which the spectrum was recorded, in 24-hour format
#OWNER       : PIXL Flight Model       (PIXL will use this to indicate which instrument took the data.)
#NPOINTS     : 4096     Number of data points in the spectrum (This can be zero for configuration only files)
#NCOLUMNS    : 2     Number of data columns in the spectrum (This can be zero for configuration only files)
#XUNITS      : eV
#YUNITS      : COUNTS
#DATATYPE    : YY
#XPERCHAN    : 7.862, 7.881   eV per channel (separate by commas if more than one detector)
#OFFSET      : 18.5, -22.4         eV of first channel  (separate by commas if more than one detector
#SIGNALTYPE  : XRF
#YP_TEMP     : 2.652
#LIVETIME    : 8.57117, 8.54804   seconds (separate by commas if more than one detector)
#REALTIME    : 10, 10.0   seconds (separate by commas if more than one detector)
#SPECTRUM    : start of spectrum data
0, 0
0, 0
0, 0
0, 0
0, 0
0, 0
0, 0
0, 0
1, 0
12, 0
3, 1
51, 47
56, 62
13, 7
6, 2
111, 81
430, 370
95, 92
6, 10
3, 2
4, 4
19, 10
13, 5
18, 5
277, 15
568, 29
85, 16
14, 12
3, 8
1, 3
1, 3
3, 4
3, 6
8, 5
21, 11
6, 5
3, 3
46, 3
77, 2
22, 3
5, 4
13, 14
14, 39
9, 110
9, 135
7, 21
6, 10
4, 4
7, 7
14, 10
35, 10
64, 9
37, 10
35, 31
57, 55
21, 18
38, 60
489, 584
2242, 2185
1572, 1287
233, 137
32, 20
118, 20
214, 125
392, 319
256, 190
30, 27
3, 4
12, 8
10, 4
7, 2
4, 2
2, 1
5, 2
26, 1
72, 4
114, 5
45, 4
5, 2
6, 0
2, 0
3, 5
3, 3
4, 6
1, 7
6, 4
4, 8
2, 7
8, 5
2, 2
4, 4
2, 4
1, 2
2, 4
7, 6
1, 3
2, 1
2, 3
4, 3
3, 4
5, 3
7, 2
8, 2
4, 0
2, 3
1, 2
3, 2
2, 1
2, 0
2, 5
4, 1
2, 1
3, 3
6, 2
4, 2
1, 2
2, 3
2, 2
0, 1
2, 0
0, 1
3, 1
2, 0
4, 0
3, 1
1, 1
2, 1
0, 1
3, 1
1, 2
1, 2
0, 1
1, 2
2, 1
1, 1
1, 0
0, 0
0, 0
1, 0
1, 0
1, 0
1, 1
0, 1
0, 1
1, 0
0, 2
1, 1
0, 0
1, 0
0, 0
1, 0
0, 2
0, 1
0, 0
0, 0
2, 0
1, 0
0, 0
0, 0
0, 0
0, 0
0, 1
0, 0
0, 0
0, 0
0, 0
0, 0
0, 0
0, 2
0, 0
0, 0
0, 1
0, 0
0, 0
1, 2
0, 0
1, 0
0, 0
0, 0
1, 0
1, 0
0, 0
1, 0
0, 0
0, 0
0, 1
0, 0
0, 0
0, 0
0, 1
0, 0
1, 0
0, 0
0, 0
0, 0
0, 0
0, 0
0, 0
0, 0
0, 0
0, 0
0, 0
0, 0
0, 0
0, 0
0, 0
1, 0
0, 0
0, 0
0, 0
0, 0
0, 0
0, 0
0, 0
0, 0
0, 0
0, 0
0, 0
0, 0
0, 0
0, 0
0, 0
0, 0
0, 0
0, 0
0, 0
0, 0
0, 0
0, 0
0, 0
0, 0
0, 0
0, 0
0, 0
0, 0
0, 0
0, 0
0, 0
0, 0
0, 0
0, 0
0, 0
0, 0
0, 0
0, 0
0, 0
0, 0
0, 0
0, 0
0, 0
0, 0
0, 0
0, 0
0, 0
0, 0
0, 0
0, 0
0, 0
0, 0
0, 0
0, 0
0, 0
0, 0
0, 0
0, 0
0, 0
0, 0
0, 0
0, 0
0, 0
0, 0
0, 0
0, 0
0, 0
0, 0
0, 0
0, 0
0, 0
0, 0
0, 0
0, 0
0, 0
0, 0
0, 0
0, 0
0, 0
0, 0
0, 0
0, 0
0, 0
0, 0
0, 0
0, 0
0, 0
#ENDOFDATA     end of spectrum data