File: host_upload/06-09-2024/ps_0852/dump3/ps__0852shot_2287.msa
#FORMAT      : EMSA/MAS spectral data file
#VERSION     : TC202v2.0 PIXL
#TITLE       : N/A
#DATE        :       Date in the format DD-MMM-YYYY, for example 07-JUL-2010
#TIME        :             The time of day at which the spectrum was recorded, in 24-hour format
#OWNER       : PIXL Flight Model       (PIXL will use this to indicate which instrument took the data.)
#NPOINTS     : 4096     Number of data points in the spectrum (This can be zero for configuration only files)
#NCOLUMNS    : 2     Number of data columns in the spectrum (This can be zero for configuration only files)
#XUNITS      : eV
#YUNITS      : COUNTS
#DATATYPE    : YY
#XPERCHAN    : 7.862, 7.881   eV per channel (separate by commas if more than one detector)
#OFFSET      : 18.5, -22.4         eV of first channel  (separate by commas if more than one detector
#SIGNALTYPE  : XRF
#YP_TEMP     : 2.107
#LIVETIME    : 8.54941, 8.54171   seconds (separate by commas if more than one detector)
#REALTIME    : 10, 10.0   seconds (separate by commas if more than one detector)
#SPECTRUM    : start of spectrum data
0, 0
0, 0
0, 0
0, 0
0, 0
0, 0
0, 0
0, 0
1, 1
0, 2
4, 2
40, 29
51, 43
6, 6
4, 3
48, 65
215, 265
52, 65
6, 7
8, 12
118, 119
652, 633
245, 260
79, 75
148, 152
68, 94
44, 44
19, 22
7, 11
9, 5
25, 29
11, 9
5, 13
19, 20
16, 35
4, 7
3, 6
3, 8
6, 6
3, 7
10, 7
7, 5
13, 16
10, 11
1, 8
10, 29
6, 14
3, 15
12, 9
18, 24
57, 27
45, 18
19, 12
42, 38
63, 57
29, 21
26, 41
418, 568
1939, 2316
1459, 1343
173, 139
13, 13
10, 15
93, 119
301, 343
240, 156
29, 23
6, 11
22, 7
48, 6
54, 5
20, 3
5, 1
8, 7
4, 3
8, 9
2, 2
4, 5
5, 3
8, 2
5, 4
7, 7
11, 2
6, 2
2, 6
5, 8
3, 7
7, 0
5, 6
5, 12
3, 16
10, 9
10, 8
3, 5
0, 3
0, 2
4, 4
3, 5
0, 0
7, 8
12, 5
9, 1
1, 3
2, 5
0, 2
1, 2
3, 4
2, 1
1, 1
1, 1
1, 2
0, 0
2, 1
1, 4
4, 2
1, 3
5, 4
3, 3
5, 3
4, 0
2, 1
1, 3
1, 5
1, 1
4, 2
1, 0
0, 1
4, 3
1, 2
1, 0
0, 1
0, 0
1, 0
1, 0
0, 1
0, 1
0, 1
1, 0
1, 1
2, 0
0, 0
1, 1
0, 1
0, 1
0, 1
1, 1
1, 2
1, 1
0, 0
0, 0
1, 0
0, 0
0, 0
1, 0
0, 0
0, 0
1, 0
0, 1
1, 0
0, 0
1, 0
1, 0
0, 0
0, 0
0, 0
0, 1
0, 0
0, 0
0, 0
0, 0
0, 0
0, 0
0, 0
0, 0
1, 0
0, 0
0, 0
0, 0
0, 0
0, 1
0, 0
0, 0
0, 0
1, 0
0, 0
0, 0
0, 0
0, 0
0, 0
0, 0
0, 0
0, 0
0, 0
0, 1
0, 0
0, 0
0, 0
0, 0
0, 0
0, 0
1, 0
0, 0
0, 0
0, 0
0, 0
0, 0
0, 0
0, 0
0, 0
0, 0
0, 0
0, 0
0, 0
0, 0
0, 0
0, 0
0, 0
0, 0
0, 0
0, 0
0, 0
0, 0
0, 0
0, 0
0, 0
0, 0
0, 0
0, 0
0, 0
0, 0
0, 0
0, 0
0, 0
0, 0
0, 0
0, 0
0, 0
0, 0
0, 0
0, 0
0, 0
0, 0
0, 0
0, 0
0, 0
0, 0
0, 0
0, 0
0, 0
0, 0
0, 0
0, 0
0, 0
0, 0
0, 0
0, 0
0, 0
0, 0
0, 0
0, 0
0, 0
0, 0
0, 0
0, 0
0, 0
0, 0
0, 0
0, 0
0, 0
0, 0
0, 0
0, 0
0, 0
0, 0
0, 0
0, 0
0, 0
0, 0
0, 0
0, 0
0, 0
0, 0
0, 0
0, 0
0, 0
0, 0
0, 0
0, 0
0, 0
0, 0
0, 0
0, 0
0, 0
0, 0
#ENDOFDATA     end of spectrum data