File: host_upload/06-09-2024/ps_0852/dump3/ps__0852shot_2325.msa
#FORMAT      : EMSA/MAS spectral data file
#VERSION     : TC202v2.0 PIXL
#TITLE       : N/A
#DATE        :       Date in the format DD-MMM-YYYY, for example 07-JUL-2010
#TIME        :             The time of day at which the spectrum was recorded, in 24-hour format
#OWNER       : PIXL Flight Model       (PIXL will use this to indicate which instrument took the data.)
#NPOINTS     : 4096     Number of data points in the spectrum (This can be zero for configuration only files)
#NCOLUMNS    : 2     Number of data columns in the spectrum (This can be zero for configuration only files)
#XUNITS      : eV
#YUNITS      : COUNTS
#DATATYPE    : YY
#XPERCHAN    : 7.862, 7.881   eV per channel (separate by commas if more than one detector)
#OFFSET      : 18.5, -22.4         eV of first channel  (separate by commas if more than one detector
#SIGNALTYPE  : XRF
#YP_TEMP     : 2.267
#LIVETIME    : 8.57302, 8.54519   seconds (separate by commas if more than one detector)
#REALTIME    : 10, 10.0   seconds (separate by commas if more than one detector)
#SPECTRUM    : start of spectrum data
0, 0
0, 0
0, 0
0, 0
0, 0
0, 0
0, 0
0, 0
3, 0
0, 0
3, 2
45, 48
61, 53
5, 3
4, 3
112, 100
439, 375
109, 60
2, 6
1, 0
2, 0
2, 0
0, 1
12, 4
29, 27
39, 36
20, 16
9, 12
5, 2
3, 3
5, 1
4, 5
6, 1
23, 12
22, 17
6, 4
4, 3
3, 1
1, 4
9, 4
6, 3
15, 14
16, 16
10, 12
4, 11
6, 6
7, 5
9, 6
18, 15
91, 63
66, 51
27, 18
14, 17
67, 48
68, 57
29, 31
43, 35
456, 569
2177, 2139
1702, 1215
202, 116
18, 18
17, 20
118, 101
343, 330
251, 178
51, 30
12, 5
15, 11
14, 9
8, 2
2, 6
4, 7
7, 3
2, 4
4, 4
4, 5
5, 1
11, 5
5, 5
4, 3
2, 2
3, 6
4, 17
4, 15
4, 7
2, 4
1, 4
2, 5
2, 11
2, 1
2, 2
1, 5
4, 0
4, 4
1, 2
3, 2
1, 0
4, 4
2, 3
4, 1
6, 1
1, 5
2, 3
3, 4
3, 1
2, 5
3, 4
2, 3
4, 2
3, 2
3, 0
6, 0
8, 3
3, 0
2, 2
4, 2
4, 2
2, 1
5, 3
2, 1
1, 1
0, 4
0, 1
0, 2
1, 2
0, 3
2, 0
2, 0
0, 1
0, 0
4, 1
2, 2
1, 1
1, 1
1, 1
1, 0
2, 0
0, 2
0, 0
0, 0
0, 0
0, 2
0, 1
0, 0
0, 2
1, 0
1, 0
2, 0
0, 1
1, 0
0, 0
2, 0
0, 0
0, 0
1, 0
0, 0
0, 1
0, 0
0, 1
0, 0
0, 2
0, 0
1, 0
0, 0
0, 0
0, 1
0, 0
0, 0
0, 0
0, 0
0, 0
0, 0
0, 1
0, 0
0, 0
0, 0
0, 0
0, 0
0, 0
0, 0
0, 0
0, 0
0, 0
0, 0
0, 0
0, 0
0, 0
0, 0
0, 0
1, 0
0, 1
0, 0
0, 0
0, 0
0, 0
0, 0
0, 1
1, 0
0, 0
0, 0
0, 0
0, 0
0, 0
0, 0
0, 0
0, 0
0, 0
0, 1
0, 0
0, 0
0, 1
0, 0
0, 0
0, 0
0, 0
0, 0
0, 0
0, 0
0, 0
0, 0
0, 0
0, 0
0, 0
0, 0
0, 0
0, 0
0, 0
0, 0
0, 0
0, 0
0, 0
0, 0
0, 0
0, 0
0, 0
0, 0
0, 0
0, 0
0, 0
0, 0
0, 0
0, 0
0, 0
0, 0
0, 0
0, 0
0, 0
0, 0
0, 0
0, 0
0, 0
0, 0
0, 0
0, 0
0, 0
0, 0
0, 0
0, 0
0, 0
0, 0
0, 0
0, 0
0, 0
0, 0
0, 0
0, 0
0, 0
0, 0
0, 0
0, 0
0, 0
0, 0
0, 0
0, 0
0, 0
0, 0
0, 0
0, 0
0, 0
0, 0
0, 0
0, 0
0, 0
0, 0
0, 0
0, 0
0, 0
0, 0
0, 0
0, 0
0, 0
0, 0
0, 0
#ENDOFDATA     end of spectrum data