File: host_upload/06-09-2024/ps_0852/dump3/ps__0852shot_2203.msa
#FORMAT      : EMSA/MAS spectral data file
#VERSION     : TC202v2.0 PIXL
#TITLE       : N/A
#DATE        :       Date in the format DD-MMM-YYYY, for example 07-JUL-2010
#TIME        :             The time of day at which the spectrum was recorded, in 24-hour format
#OWNER       : PIXL Flight Model       (PIXL will use this to indicate which instrument took the data.)
#NPOINTS     : 4096     Number of data points in the spectrum (This can be zero for configuration only files)
#NCOLUMNS    : 2     Number of data columns in the spectrum (This can be zero for configuration only files)
#XUNITS      : eV
#YUNITS      : COUNTS
#DATATYPE    : YY
#XPERCHAN    : 7.862, 7.881   eV per channel (separate by commas if more than one detector)
#OFFSET      : 18.5, -22.4         eV of first channel  (separate by commas if more than one detector
#SIGNALTYPE  : XRF
#YP_TEMP     : 2.139
#LIVETIME    : 8.57205, 8.55744   seconds (separate by commas if more than one detector)
#REALTIME    : 10, 10.0   seconds (separate by commas if more than one detector)
#SPECTRUM    : start of spectrum data
0, 0
0, 0
0, 0
0, 0
0, 0
0, 0
0, 0
0, 0
0, 0
1, 2
5, 7
46, 57
63, 68
6, 2
2, 3
87, 108
408, 419
131, 104
4, 2
4, 2
2, 2
4, 2
3, 2
7, 7
26, 38
47, 42
16, 40
10, 15
1, 3
2, 5
1, 2
3, 3
4, 5
10, 4
14, 11
6, 8
16, 4
14, 4
1, 4
3, 2
22, 8
108, 14
76, 14
13, 14
6, 7
6, 13
5, 10
2, 10
11, 9
13, 14
16, 34
8, 47
5, 39
43, 57
61, 71
29, 27
38, 61
460, 628
2194, 2394
1588, 1420
208, 156
22, 62
21, 38
90, 139
362, 381
230, 215
27, 16
12, 10
16, 17
8, 8
4, 2
4, 2
7, 8
8, 9
9, 7
5, 7
7, 5
2, 7
2, 5
6, 5
1, 2
14, 3
9, 2
8, 4
5, 4
9, 7
8, 7
2, 7
1, 1
5, 0
5, 5
1, 1
0, 5
4, 5
6, 3
1, 3
2, 2
3, 8
4, 3
1, 4
1, 3
4, 1
3, 3
3, 0
1, 1
3, 1
1, 7
3, 3
3, 1
2, 2
1, 1
0, 2
1, 1
0, 2
4, 4
1, 2
5, 13
4, 2
3, 3
1, 2
0, 2
1, 1
0, 2
1, 2
0, 3
3, 1
0, 1
0, 2
0, 1
3, 0
3, 0
2, 1
2, 3
1, 2
1, 0
0, 0
0, 1
0, 1
1, 0
0, 1
0, 0
1, 1
0, 0
0, 0
0, 2
1, 0
2, 0
0, 2
0, 0
0, 0
0, 0
2, 0
1, 0
0, 0
1, 0
1, 0
1, 1
0, 0
0, 0
0, 1
0, 0
1, 2
0, 0
0, 0
1, 2
0, 1
0, 0
0, 0
0, 0
0, 0
0, 0
1, 0
1, 1
1, 1
0, 0
1, 0
0, 0
0, 0
0, 0
0, 0
0, 2
0, 0
0, 0
0, 0
0, 0
0, 0
0, 0
0, 1
0, 0
0, 0
0, 0
0, 0
0, 0
0, 0
0, 0
0, 0
0, 0
0, 0
0, 0
0, 0
0, 0
0, 0
0, 0
0, 0
0, 0
0, 0
0, 0
1, 0
0, 1
0, 0
0, 0
0, 0
0, 0
0, 0
0, 0
0, 0
0, 0
0, 0
0, 0
0, 0
0, 0
0, 0
0, 0
0, 0
0, 0
0, 0
0, 0
0, 0
0, 0
0, 0
0, 0
0, 0
0, 0
0, 0
0, 0
0, 0
0, 0
0, 0
0, 0
0, 0
0, 0
0, 0
0, 0
0, 0
0, 0
0, 0
0, 0
0, 0
0, 0
0, 0
0, 0
0, 0
0, 0
0, 0
0, 0
0, 0
0, 0
0, 0
0, 0
0, 0
0, 0
0, 0
0, 0
0, 0
0, 0
0, 0
0, 0
0, 0
0, 0
0, 0
0, 0
0, 0
0, 0
0, 0
0, 0
0, 0
0, 0
0, 0
0, 0
0, 0
0, 0
0, 0
0, 0
0, 0
0, 0
0, 0
0, 0
0, 0
0, 0
0, 0
0, 0
0, 0
0, 0
0, 0
#ENDOFDATA     end of spectrum data