File: host_upload/06-09-2024/ps_0852/dump3/ps__0852shot_2541.msa
#FORMAT      : EMSA/MAS spectral data file
#VERSION     : TC202v2.0 PIXL
#TITLE       : N/A
#DATE        :       Date in the format DD-MMM-YYYY, for example 07-JUL-2010
#TIME        :             The time of day at which the spectrum was recorded, in 24-hour format
#OWNER       : PIXL Flight Model       (PIXL will use this to indicate which instrument took the data.)
#NPOINTS     : 4096     Number of data points in the spectrum (This can be zero for configuration only files)
#NCOLUMNS    : 2     Number of data columns in the spectrum (This can be zero for configuration only files)
#XUNITS      : eV
#YUNITS      : COUNTS
#DATATYPE    : YY
#XPERCHAN    : 7.862, 7.881   eV per channel (separate by commas if more than one detector)
#OFFSET      : 18.5, -22.4         eV of first channel  (separate by commas if more than one detector
#SIGNALTYPE  : XRF
#YP_TEMP     : 2.3
#LIVETIME    : 8.55992, 8.55531   seconds (separate by commas if more than one detector)
#REALTIME    : 10, 10.0   seconds (separate by commas if more than one detector)
#SPECTRUM    : start of spectrum data
0, 0
0, 0
0, 0
0, 0
0, 0
0, 0
0, 0
0, 0
0, 6
1, 30
1, 6
36, 56
70, 60
11, 9
8, 7
95, 117
463, 445
106, 106
6, 8
0, 3
2, 2
5, 11
3, 2
10, 47
49, 819
47, 1183
20, 110
11, 17
5, 4
1, 3
0, 2
3, 4
3, 2
10, 11
17, 14
6, 6
4, 21
11, 14
7, 1
2, 2
3, 4
5, 12
12, 12
13, 13
5, 13
5, 7
1, 9
5, 8
5, 5
10, 14
9, 11
21, 12
10, 8
38, 49
58, 77
21, 31
39, 30
494, 628
2161, 2438
1601, 1465
198, 161
19, 20
16, 29
87, 115
350, 376
226, 180
31, 22
7, 16
19, 15
9, 10
8, 4
1, 4
2, 7
6, 6
13, 3
9, 5
7, 2
2, 10
4, 3
1, 2
7, 5
8, 4
5, 6
4, 7
8, 8
4, 2
5, 4
0, 1
0, 7
1, 3
2, 4
2, 5
3, 3
4, 3
4, 5
1, 3
3, 4
6, 6
4, 5
5, 8
2, 6
3, 2
5, 4
1, 4
2, 4
1, 3
1, 0
1, 3
1, 2
3, 0
4, 8
3, 4
3, 2
1, 3
4, 1
1, 6
4, 3
2, 2
2, 1
0, 0
2, 3
1, 8
6, 4
3, 1
0, 2
1, 2
4, 2
2, 1
2, 1
0, 0
2, 1
0, 1
0, 3
2, 0
2, 0
0, 0
2, 0
1, 1
0, 1
2, 1
1, 0
1, 1
0, 0
1, 1
1, 1
1, 1
0, 1
1, 2
1, 1
0, 1
0, 1
0, 1
0, 0
3, 0
0, 0
0, 0
0, 0
0, 1
0, 1
0, 0
0, 0
0, 0
0, 0
0, 0
0, 0
0, 0
1, 1
2, 0
0, 0
0, 0
0, 0
0, 1
0, 1
0, 0
0, 0
1, 0
0, 0
1, 1
0, 0
0, 0
0, 0
0, 1
0, 1
0, 0
0, 1
0, 1
0, 0
0, 0
0, 0
0, 0
0, 0
0, 0
0, 0
1, 0
0, 0
0, 0
0, 1
0, 0
0, 0
0, 0
0, 0
0, 0
0, 0
0, 0
0, 0
0, 0
0, 0
0, 0
0, 0
0, 0
0, 0
0, 0
0, 0
0, 0
0, 0
0, 0
1, 0
0, 0
0, 0
0, 0
0, 0
0, 0
0, 0
0, 0
0, 0
0, 0
0, 0
0, 0
0, 0
0, 0
0, 0
0, 0
0, 0
0, 0
0, 0
0, 0
0, 0
0, 0
0, 0
0, 0
0, 0
0, 0
0, 0
0, 0
0, 0
0, 0
0, 0
0, 0
0, 0
0, 0
0, 0
0, 0
0, 0
0, 0
0, 0
0, 0
0, 0
0, 0
0, 0
0, 0
0, 0
0, 0
0, 0
0, 0
0, 0
0, 0
0, 0
0, 0
0, 0
0, 0
0, 0
0, 0
0, 0
0, 0
0, 0
0, 0
0, 0
0, 0
0, 0
0, 0
0, 0
0, 0
0, 0
0, 0
0, 0
0, 0
0, 0
0, 0
0, 0
0, 0
0, 0
0, 0
0, 0
0, 0
#ENDOFDATA     end of spectrum data