File: host_upload/06-09-2024/ps_0852/dump3/ps__0852shot_2267.msa
#FORMAT      : EMSA/MAS spectral data file
#VERSION     : TC202v2.0 PIXL
#TITLE       : N/A
#DATE        :       Date in the format DD-MMM-YYYY, for example 07-JUL-2010
#TIME        :             The time of day at which the spectrum was recorded, in 24-hour format
#OWNER       : PIXL Flight Model       (PIXL will use this to indicate which instrument took the data.)
#NPOINTS     : 4096     Number of data points in the spectrum (This can be zero for configuration only files)
#NCOLUMNS    : 2     Number of data columns in the spectrum (This can be zero for configuration only files)
#XUNITS      : eV
#YUNITS      : COUNTS
#DATATYPE    : YY
#XPERCHAN    : 7.862, 7.881   eV per channel (separate by commas if more than one detector)
#OFFSET      : 18.5, -22.4         eV of first channel  (separate by commas if more than one detector
#SIGNALTYPE  : XRF
#YP_TEMP     : 2.652
#LIVETIME    : 8.56224, 8.55961   seconds (separate by commas if more than one detector)
#REALTIME    : 10, 10.0   seconds (separate by commas if more than one detector)
#SPECTRUM    : start of spectrum data
0, 0
0, 0
0, 0
0, 0
0, 0
0, 0
0, 0
0, 0
1, 8
1, 28
1, 3
41, 51
58, 58
11, 7
4, 2
104, 97
448, 435
119, 105
1, 5
0, 3
0, 1
4, 5
2, 4
3, 50
30, 971
53, 1403
26, 181
10, 13
10, 1
7, 2
9, 1
1, 0
0, 1
24, 31
40, 46
11, 15
6, 35
11, 20
2, 12
6, 4
1, 14
10, 17
15, 19
57, 11
123, 10
64, 7
10, 3
6, 1
15, 7
22, 21
20, 16
15, 12
10, 9
31, 49
60, 61
28, 30
41, 26
495, 600
2165, 2295
1626, 1323
195, 124
20, 22
25, 44
94, 139
285, 340
240, 199
26, 25
7, 10
10, 11
8, 7
6, 5
2, 19
12, 28
32, 14
28, 5
7, 14
4, 14
5, 3
1, 5
3, 7
4, 6
2, 9
0, 4
4, 7
2, 5
7, 2
5, 1
5, 4
8, 4
5, 6
2, 7
3, 4
1, 4
3, 8
15, 7
16, 6
7, 6
6, 3
4, 2
1, 6
3, 5
4, 2
2, 2
5, 2
1, 2
5, 0
1, 4
1, 1
5, 3
1, 6
3, 3
4, 3
4, 2
1, 3
2, 4
2, 5
6, 1
7, 2
3, 3
2, 2
1, 3
1, 3
2, 3
2, 1
1, 4
0, 2
1, 1
0, 2
2, 0
3, 0
1, 1
1, 1
1, 0
0, 0
0, 1
1, 0
0, 0
2, 2
0, 1
0, 0
0, 0
1, 0
0, 0
0, 2
0, 2
1, 0
0, 0
0, 0
1, 0
1, 0
0, 0
1, 0
0, 0
0, 1
0, 0
0, 1
0, 1
0, 1
0, 0
0, 1
0, 1
0, 0
0, 0
1, 0
1, 0
0, 2
0, 0
0, 0
1, 1
1, 1
0, 0
0, 1
0, 0
0, 0
0, 0
0, 0
0, 0
0, 0
0, 0
0, 0
1, 0
0, 0
0, 1
0, 0
0, 0
0, 1
0, 1
0, 0
0, 0
0, 0
0, 0
0, 0
0, 0
0, 0
0, 0
1, 0
0, 0
0, 0
0, 0
0, 0
0, 0
1, 0
0, 0
0, 0
0, 0
0, 0
0, 0
0, 0
0, 0
1, 0
0, 0
0, 0
0, 0
0, 0
0, 0
0, 0
0, 0
0, 0
0, 0
0, 0
0, 0
0, 0
0, 0
0, 0
0, 0
0, 0
0, 0
0, 0
0, 0
0, 0
0, 0
0, 0
0, 0
0, 0
0, 0
0, 0
0, 0
0, 0
0, 0
0, 0
0, 0
0, 0
0, 0
0, 0
0, 0
0, 0
0, 0
0, 0
0, 0
0, 0
0, 0
0, 0
0, 0
0, 0
0, 0
0, 0
0, 0
0, 0
0, 0
0, 0
0, 0
0, 0
0, 0
0, 0
0, 0
0, 0
0, 0
0, 0
0, 0
0, 0
0, 0
0, 0
0, 0
0, 0
0, 0
0, 0
0, 0
0, 0
0, 0
0, 0
0, 0
0, 0
0, 0
0, 0
0, 0
0, 0
0, 0
0, 0
0, 0
0, 0
0, 0
0, 0
0, 0
0, 0
#ENDOFDATA     end of spectrum data