File: host_upload/06-09-2024/ps_0852/dump3/ps__0852shot_2574.msa
#FORMAT      : EMSA/MAS spectral data file
#VERSION     : TC202v2.0 PIXL
#TITLE       : N/A
#DATE        :       Date in the format DD-MMM-YYYY, for example 07-JUL-2010
#TIME        :             The time of day at which the spectrum was recorded, in 24-hour format
#OWNER       : PIXL Flight Model       (PIXL will use this to indicate which instrument took the data.)
#NPOINTS     : 4096     Number of data points in the spectrum (This can be zero for configuration only files)
#NCOLUMNS    : 2     Number of data columns in the spectrum (This can be zero for configuration only files)
#XUNITS      : eV
#YUNITS      : COUNTS
#DATATYPE    : YY
#XPERCHAN    : 7.862, 7.881   eV per channel (separate by commas if more than one detector)
#OFFSET      : 18.5, -22.4         eV of first channel  (separate by commas if more than one detector
#SIGNALTYPE  : XRF
#YP_TEMP     : 2.235
#LIVETIME    : 8.54357, 8.56249   seconds (separate by commas if more than one detector)
#REALTIME    : 10, 10.0   seconds (separate by commas if more than one detector)
#SPECTRUM    : start of spectrum data
0, 0
0, 0
0, 0
0, 0
0, 0
0, 0
0, 0
0, 3
0, 0
0, 1
3, 0
37, 38
47, 62
4, 8
5, 5
109, 123
425, 481
87, 106
7, 5
3, 0
2, 2
4, 6
2, 6
8, 27
52, 199
49, 174
28, 34
12, 21
3, 4
3, 0
2, 3
4, 3
4, 5
6, 9
9, 19
5, 4
2, 3
3, 5
16, 5
20, 7
9, 4
6, 11
12, 13
13, 16
20, 6
11, 6
5, 6
1, 16
9, 55
18, 33
16, 15
19, 5
13, 9
39, 57
39, 75
12, 20
28, 39
456, 645
2033, 2644
1428, 1578
172, 150
15, 22
25, 21
87, 134
312, 367
206, 246
29, 21
4, 13
10, 18
2, 7
2, 5
4, 4
4, 12
4, 12
4, 6
3, 5
7, 3
4, 3
4, 1
6, 4
5, 8
6, 2
4, 4
3, 12
4, 18
3, 17
2, 8
4, 3
3, 4
3, 2
8, 3
11, 4
14, 2
4, 3
2, 6
4, 2
1, 9
4, 6
2, 2
2, 2
0, 2
2, 2
2, 4
1, 3
4, 1
1, 3
2, 2
1, 3
1, 4
0, 3
1, 5
3, 1
0, 2
4, 2
5, 2
4, 1
5, 3
5, 1
1, 2
1, 1
0, 3
3, 3
1, 1
1, 3
2, 2
1, 1
2, 0
1, 2
2, 2
0, 0
0, 4
1, 1
0, 1
2, 1
1, 1
0, 0
1, 1
0, 0
0, 0
0, 0
1, 2
0, 1
2, 0
1, 0
1, 1
0, 1
1, 0
1, 1
2, 0
0, 0
0, 0
0, 1
0, 0
0, 0
1, 0
1, 0
0, 1
0, 0
0, 0
0, 0
0, 0
2, 1
0, 0
0, 0
0, 1
1, 1
0, 0
0, 0
0, 0
1, 1
0, 1
0, 0
0, 0
0, 0
1, 0
0, 1
0, 0
0, 0
0, 0
0, 1
0, 1
0, 0
0, 0
0, 0
0, 0
0, 0
0, 0
0, 0
0, 0
0, 0
0, 0
0, 0
0, 0
0, 0
0, 1
0, 0
0, 0
0, 0
0, 0
0, 0
0, 0
0, 0
0, 0
0, 0
0, 0
0, 0
0, 0
0, 0
0, 0
0, 0
0, 0
0, 0
0, 0
0, 0
0, 0
0, 0
0, 0
0, 0
0, 0
0, 0
0, 0
0, 0
0, 0
0, 0
0, 0
0, 0
0, 0
0, 0
0, 0
0, 0
0, 0
0, 0
0, 0
0, 0
0, 0
0, 0
0, 0
0, 0
0, 0
0, 0
0, 0
0, 0
0, 0
0, 0
0, 0
0, 0
0, 0
0, 0
0, 0
0, 0
0, 0
0, 0
0, 0
0, 0
0, 0
0, 0
0, 0
0, 0
0, 0
0, 0
0, 0
0, 0
0, 0
0, 0
0, 0
0, 0
0, 0
0, 0
0, 0
0, 0
0, 0
0, 0
0, 0
0, 0
0, 0
0, 0
0, 0
0, 0
0, 0
0, 0
0, 0
0, 0
0, 0
0, 0
0, 0
0, 0
0, 0
0, 0
0, 0
0, 0
0, 0
0, 0
0, 0
0, 0
#ENDOFDATA     end of spectrum data