File: host_upload/06-09-2024/ps_0852/dump3/ps__0852shot_2047.msa
#FORMAT      : EMSA/MAS spectral data file
#VERSION     : TC202v2.0 PIXL
#TITLE       : N/A
#DATE        :       Date in the format DD-MMM-YYYY, for example 07-JUL-2010
#TIME        :             The time of day at which the spectrum was recorded, in 24-hour format
#OWNER       : PIXL Flight Model       (PIXL will use this to indicate which instrument took the data.)
#NPOINTS     : 4096     Number of data points in the spectrum (This can be zero for configuration only files)
#NCOLUMNS    : 2     Number of data columns in the spectrum (This can be zero for configuration only files)
#XUNITS      : eV
#YUNITS      : COUNTS
#DATATYPE    : YY
#XPERCHAN    : 7.862, 7.881   eV per channel (separate by commas if more than one detector)
#OFFSET      : 18.5, -22.4         eV of first channel  (separate by commas if more than one detector
#SIGNALTYPE  : XRF
#YP_TEMP     : 2.171
#LIVETIME    : 8.56734, 8.56649   seconds (separate by commas if more than one detector)
#REALTIME    : 10, 10.0   seconds (separate by commas if more than one detector)
#SPECTRUM    : start of spectrum data
0, 0
0, 0
0, 0
0, 0
0, 0
0, 0
0, 0
0, 0
1, 0
1, 1
4, 0
63, 43
78, 51
6, 4
5, 4
93, 86
465, 438
143, 97
5, 2
2, 0
4, 1
3, 8
2, 30
2, 15
29, 20
30, 24
16, 21
8, 15
3, 3
2, 2
2, 1
3, 3
2, 3
10, 10
20, 10
4, 2
1, 5
3, 10
5, 4
11, 1
4, 3
11, 3
6, 9
14, 29
6, 51
3, 46
8, 6
5, 0
26, 4
82, 10
33, 10
10, 8
4, 19
34, 56
54, 53
25, 25
34, 44
501, 606
2223, 2338
1723, 1388
213, 129
20, 19
23, 17
92, 117
336, 327
254, 216
37, 172
10, 145
12, 46
13, 10
8, 5
4, 0
4, 8
6, 4
5, 15
5, 15
9, 5
12, 1
12, 2
7, 5
3, 5
3, 7
4, 5
2, 3
4, 2
5, 3
11, 3
14, 3
10, 6
6, 8
2, 2
5, 3
2, 1
2, 2
4, 2
1, 2
9, 8
7, 3
6, 5
1, 1
3, 1
3, 3
2, 5
1, 2
3, 3
4, 1
2, 2
5, 2
3, 3
1, 2
1, 3
2, 1
3, 1
2, 1
1, 3
3, 4
6, 2
1, 2
1, 1
0, 1
1, 1
1, 1
2, 1
2, 3
1, 1
0, 2
3, 2
0, 1
1, 0
2, 1
0, 1
0, 0
0, 0
0, 0
0, 2
2, 1
2, 2
0, 1
0, 0
2, 0
0, 1
2, 2
1, 0
0, 0
0, 1
0, 0
0, 0
0, 0
1, 0
0, 2
0, 0
0, 1
2, 3
0, 2
0, 0
0, 0
2, 2
0, 1
0, 0
0, 1
1, 1
0, 0
0, 0
1, 1
1, 0
0, 0
1, 0
1, 0
0, 0
0, 0
1, 1
1, 0
0, 0
0, 0
0, 0
0, 1
0, 0
0, 0
0, 0
0, 0
0, 0
0, 0
0, 0
0, 0
1, 0
0, 0
0, 0
0, 0
0, 0
0, 0
0, 0
0, 0
0, 1
0, 0
0, 0
1, 0
0, 0
0, 0
0, 0
0, 0
0, 0
0, 0
0, 0
0, 0
0, 0
1, 0
0, 0
0, 0
0, 0
0, 0
0, 0
0, 0
0, 0
0, 0
0, 0
0, 0
0, 0
0, 0
0, 0
0, 0
0, 0
0, 0
0, 0
0, 0
0, 0
0, 0
0, 0
0, 0
0, 0
0, 0
0, 0
0, 0
0, 0
0, 0
0, 0
0, 0
0, 0
0, 0
0, 0
0, 0
0, 0
0, 0
0, 0
0, 0
0, 0
0, 0
0, 0
0, 0
0, 0
0, 0
0, 0
0, 0
0, 0
0, 0
0, 0
0, 0
0, 0
0, 0
0, 0
0, 0
0, 0
0, 0
0, 0
0, 0
0, 0
0, 0
0, 0
0, 0
0, 0
0, 0
0, 0
0, 0
0, 0
0, 0
0, 0
0, 0
0, 0
0, 0
0, 0
0, 0
0, 0
0, 0
0, 0
0, 0
0, 0
0, 0
0, 0
0, 0
0, 0
0, 0
0, 0
0, 0
0, 0
0, 0
#ENDOFDATA     end of spectrum data