File: host_upload/06-09-2024/ps_0852/dump3/ps__0852shot_2151.msa
#FORMAT      : EMSA/MAS spectral data file
#VERSION     : TC202v2.0 PIXL
#TITLE       : N/A
#DATE        :       Date in the format DD-MMM-YYYY, for example 07-JUL-2010
#TIME        :             The time of day at which the spectrum was recorded, in 24-hour format
#OWNER       : PIXL Flight Model       (PIXL will use this to indicate which instrument took the data.)
#NPOINTS     : 4096     Number of data points in the spectrum (This can be zero for configuration only files)
#NCOLUMNS    : 2     Number of data columns in the spectrum (This can be zero for configuration only files)
#XUNITS      : eV
#YUNITS      : COUNTS
#DATATYPE    : YY
#XPERCHAN    : 7.862, 7.881   eV per channel (separate by commas if more than one detector)
#OFFSET      : 18.5, -22.4         eV of first channel  (separate by commas if more than one detector
#SIGNALTYPE  : XRF
#YP_TEMP     : 2.203
#LIVETIME    : 8.53595, 8.55998   seconds (separate by commas if more than one detector)
#REALTIME    : 10, 10.0   seconds (separate by commas if more than one detector)
#SPECTRUM    : start of spectrum data
0, 0
0, 0
0, 0
0, 0
0, 0
0, 0
0, 0
0, 0
0, 1
1, 1
5, 0
36, 49
79, 49
5, 5
4, 5
108, 101
446, 398
116, 98
2, 6
1, 2
4, 2
17, 18
8, 6
8, 12
37, 47
52, 45
25, 24
9, 9
2, 6
0, 2
2, 6
1, 4
3, 2
39, 38
70, 46
22, 6
9, 12
16, 11
22, 8
13, 1
7, 7
12, 12
14, 14
10, 9
7, 8
5, 10
10, 5
6, 6
13, 7
38, 19
39, 12
27, 13
6, 13
35, 32
59, 53
15, 45
42, 50
467, 536
2164, 2187
1522, 1303
163, 136
28, 23
34, 18
101, 122
339, 353
228, 202
25, 24
9, 6
9, 16
7, 11
2, 2
4, 6
8, 1
3, 5
6, 3
9, 11
6, 16
6, 4
0, 4
4, 5
2, 5
4, 3
2, 8
8, 1
7, 3
3, 5
2, 1
2, 7
6, 2
6, 3
8, 1
2, 6
4, 2
2, 1
3, 5
0, 2
3, 7
4, 4
4, 2
4, 5
2, 3
1, 2
3, 3
3, 0
1, 6
3, 1
1, 2
5, 4
4, 1
2, 4
2, 2
2, 2
2, 1
2, 2
1, 1
6, 0
2, 2
3, 0
1, 0
0, 0
2, 0
2, 2
2, 1
2, 0
2, 1
2, 2
3, 1
3, 1
0, 1
0, 2
0, 4
1, 2
2, 1
2, 1
1, 3
0, 1
1, 0
1, 1
0, 1
1, 0
1, 1
1, 1
0, 3
2, 0
2, 1
0, 2
1, 0
0, 0
0, 0
0, 0
0, 0
1, 0
0, 0
2, 1
0, 0
0, 0
0, 0
1, 0
1, 0
0, 1
0, 0
0, 0
0, 0
1, 0
0, 0
0, 0
0, 1
0, 0
1, 0
0, 1
0, 0
0, 0
0, 0
0, 0
0, 0
0, 0
0, 1
0, 1
0, 0
0, 0
0, 1
0, 0
0, 0
1, 0
0, 0
0, 0
0, 0
0, 0
0, 0
0, 0
1, 0
0, 0
0, 0
0, 0
0, 0
0, 0
0, 0
0, 0
0, 0
1, 0
0, 0
1, 0
0, 0
0, 0
0, 0
0, 0
0, 0
0, 0
0, 0
0, 0
0, 0
0, 0
0, 0
0, 0
0, 0
0, 0
0, 1
0, 0
0, 0
0, 0
0, 0
0, 0
0, 0
0, 0
0, 0
0, 0
0, 0
0, 0
0, 0
0, 0
0, 0
0, 0
0, 0
0, 0
0, 0
0, 0
0, 0
0, 0
0, 0
0, 0
0, 0
0, 0
0, 0
0, 0
0, 0
0, 0
0, 0
0, 0
0, 0
0, 0
0, 0
0, 0
0, 0
0, 0
0, 0
0, 0
0, 0
0, 0
0, 0
0, 0
0, 0
0, 0
0, 0
0, 0
0, 0
0, 0
0, 0
0, 0
0, 0
0, 0
0, 0
0, 0
0, 0
0, 0
0, 0
0, 0
0, 0
0, 0
0, 0
0, 0
0, 0
0, 0
0, 0
0, 0
0, 0
0, 0
0, 0
0, 0
0, 0
0, 0
0, 0
0, 0
0, 0
0, 0
#ENDOFDATA     end of spectrum data