File: host_upload/06-09-2024/ps_0852/dump3/ps__0852shot_2142.msa
#FORMAT      : EMSA/MAS spectral data file
#VERSION     : TC202v2.0 PIXL
#TITLE       : N/A
#DATE        :       Date in the format DD-MMM-YYYY, for example 07-JUL-2010
#TIME        :             The time of day at which the spectrum was recorded, in 24-hour format
#OWNER       : PIXL Flight Model       (PIXL will use this to indicate which instrument took the data.)
#NPOINTS     : 4096     Number of data points in the spectrum (This can be zero for configuration only files)
#NCOLUMNS    : 2     Number of data columns in the spectrum (This can be zero for configuration only files)
#XUNITS      : eV
#YUNITS      : COUNTS
#DATATYPE    : YY
#XPERCHAN    : 7.862, 7.881   eV per channel (separate by commas if more than one detector)
#OFFSET      : 18.5, -22.4         eV of first channel  (separate by commas if more than one detector
#SIGNALTYPE  : XRF
#YP_TEMP     : 2.524
#LIVETIME    : 8.55929, 8.56589   seconds (separate by commas if more than one detector)
#REALTIME    : 10, 10.0   seconds (separate by commas if more than one detector)
#SPECTRUM    : start of spectrum data
0, 0
0, 0
0, 0
0, 0
0, 0
0, 0
0, 0
0, 0
0, 3
0, 0
2, 2
51, 42
58, 39
5, 6
3, 7
103, 106
411, 418
96, 83
7, 10
2, 2
3, 1
3, 7
2, 5
10, 11
48, 59
53, 55
25, 22
13, 20
5, 10
4, 4
3, 3
2, 0
12, 6
50, 31
39, 34
10, 7
21, 5
14, 10
14, 4
11, 2
5, 3
14, 9
11, 14
35, 19
71, 5
57, 8
10, 43
10, 49
11, 22
22, 18
16, 15
17, 10
8, 14
24, 40
48, 77
20, 17
31, 38
458, 594
2083, 2305
1518, 1402
212, 125
22, 10
28, 18
80, 123
337, 356
209, 214
35, 36
7, 9
17, 13
7, 17
6, 10
11, 5
13, 12
26, 7
16, 11
7, 8
4, 3
7, 2
3, 4
4, 2
0, 2
3, 2
3, 3
8, 9
2, 6
4, 4
4, 4
3, 5
1, 2
4, 4
1, 4
3, 3
4, 1
3, 3
3, 4
4, 3
0, 1
3, 1
4, 0
3, 2
1, 1
2, 2
4, 1
3, 5
3, 0
0, 1
1, 3
1, 2
0, 1
1, 3
0, 3
1, 1
1, 3
2, 2
2, 0
2, 1
1, 9
2, 4
3, 1
1, 2
0, 0
0, 1
1, 1
3, 0
0, 0
1, 0
1, 0
1, 3
1, 1
0, 0
0, 2
2, 1
3, 0
0, 0
0, 3
2, 0
2, 1
2, 0
1, 1
0, 0
2, 3
1, 1
1, 1
1, 1
0, 0
2, 0
0, 1
1, 0
0, 0
1, 0
0, 0
0, 0
0, 0
0, 0
0, 0
0, 0
0, 1
0, 0
0, 0
1, 1
0, 0
0, 0
0, 1
0, 0
1, 0
1, 0
0, 0
0, 0
0, 0
0, 2
0, 0
0, 0
0, 0
0, 1
0, 1
0, 1
1, 1
0, 0
0, 0
0, 0
0, 1
1, 0
0, 1
0, 0
0, 0
0, 1
0, 0
1, 0
0, 0
0, 0
0, 0
0, 0
0, 0
0, 0
0, 0
0, 0
0, 0
0, 0
0, 0
0, 0
0, 0
0, 0
0, 0
0, 0
0, 0
0, 0
0, 0
0, 0
0, 0
0, 0
0, 0
0, 0
0, 0
0, 0
0, 0
0, 0
0, 0
0, 0
0, 0
0, 0
0, 0
0, 0
0, 0
0, 0
0, 0
0, 0
0, 0
0, 0
0, 0
0, 0
0, 0
0, 0
0, 0
0, 0
0, 0
0, 0
0, 0
0, 0
0, 0
0, 0
0, 0
0, 0
0, 0
0, 0
0, 0
0, 0
0, 0
0, 0
0, 0
0, 0
0, 0
0, 0
0, 0
0, 0
0, 0
0, 0
0, 0
0, 0
0, 0
0, 0
0, 0
0, 0
0, 0
0, 0
0, 0
0, 0
0, 0
0, 0
0, 0
0, 0
0, 0
0, 0
0, 0
0, 0
0, 0
0, 0
0, 0
0, 0
0, 0
0, 0
0, 0
0, 0
0, 0
0, 0
0, 0
0, 0
0, 0
0, 0
0, 0
0, 0
0, 0
0, 0
0, 0
0, 0
#ENDOFDATA     end of spectrum data