File: host_upload/06-09-2024/ps_0852/dump3/ps__0852shot_2053.msa
#FORMAT      : EMSA/MAS spectral data file
#VERSION     : TC202v2.0 PIXL
#TITLE       : N/A
#DATE        :       Date in the format DD-MMM-YYYY, for example 07-JUL-2010
#TIME        :             The time of day at which the spectrum was recorded, in 24-hour format
#OWNER       : PIXL Flight Model       (PIXL will use this to indicate which instrument took the data.)
#NPOINTS     : 4096     Number of data points in the spectrum (This can be zero for configuration only files)
#NCOLUMNS    : 2     Number of data columns in the spectrum (This can be zero for configuration only files)
#XUNITS      : eV
#YUNITS      : COUNTS
#DATATYPE    : YY
#XPERCHAN    : 7.862, 7.881   eV per channel (separate by commas if more than one detector)
#OFFSET      : 18.5, -22.4         eV of first channel  (separate by commas if more than one detector
#SIGNALTYPE  : XRF
#YP_TEMP     : 2.267
#LIVETIME    : 8.54829, 8.53803   seconds (separate by commas if more than one detector)
#REALTIME    : 10, 10.0   seconds (separate by commas if more than one detector)
#SPECTRUM    : start of spectrum data
0, 0
0, 0
0, 0
0, 0
0, 0
0, 0
0, 0
0, 0
0, 1
0, 0
2, 1
46, 54
72, 44
5, 7
5, 4
84, 86
442, 394
116, 86
8, 5
2, 1
1, 0
2, 5
4, 3
6, 5
35, 26
25, 21
26, 11
4, 9
5, 2
2, 2
2, 1
1, 4
2, 1
7, 9
16, 10
1, 5
2, 3
9, 8
5, 8
3, 4
3, 4
5, 16
14, 15
18, 12
11, 2
6, 8
4, 2
5, 4
8, 9
13, 21
8, 8
8, 5
9, 20
34, 45
66, 59
19, 14
37, 44
502, 581
2237, 2162
1676, 1268
194, 158
15, 17
15, 23
91, 107
367, 333
263, 186
63, 18
19, 8
14, 9
10, 5
4, 2
6, 2
3, 6
4, 3
4, 4
7, 10
4, 5
4, 3
4, 4
7, 11
8, 3
9, 5
22, 3
10, 1
5, 5
8, 5
4, 6
4, 5
1, 3
2, 8
3, 8
3, 17
4, 7
1, 4
5, 4
0, 8
4, 5
5, 2
2, 0
1, 3
2, 1
4, 3
1, 3
5, 1
3, 0
1, 3
2, 4
2, 1
3, 2
1, 0
1, 0
2, 3
1, 1
0, 0
3, 2
4, 5
0, 3
2, 2
0, 4
1, 3
0, 1
2, 3
1, 1
0, 0
0, 2
3, 3
0, 0
1, 1
1, 1
1, 0
2, 0
2, 0
0, 2
2, 1
1, 1
1, 1
1, 1
1, 0
0, 0
1, 0
1, 0
0, 1
0, 0
1, 0
0, 0
1, 1
0, 2
2, 1
0, 0
0, 0
2, 1
2, 0
0, 0
1, 0
0, 0
2, 1
1, 0
0, 0
1, 1
0, 1
0, 0
0, 0
0, 0
0, 0
0, 0
0, 1
0, 0
1, 0
0, 0
0, 1
0, 0
0, 0
0, 0
1, 0
1, 0
1, 0
1, 0
1, 0
1, 0
0, 0
0, 0
0, 0
0, 0
0, 0
0, 0
0, 0
0, 1
0, 0
0, 0
0, 0
0, 0
0, 1
0, 0
0, 0
0, 0
0, 0
0, 0
0, 0
0, 0
0, 0
0, 0
0, 0
0, 0
0, 0
0, 0
0, 0
0, 1
0, 0
0, 0
0, 0
0, 0
0, 0
0, 1
0, 0
0, 0
0, 0
0, 0
0, 0
0, 0
0, 0
0, 0
0, 0
0, 0
0, 0
0, 0
0, 0
0, 0
0, 0
0, 0
0, 0
0, 0
0, 0
0, 0
0, 0
0, 0
0, 0
0, 0
0, 0
0, 0
0, 0
0, 0
0, 0
0, 0
0, 0
0, 0
0, 0
0, 0
0, 0
0, 0
0, 0
0, 0
0, 0
0, 0
0, 0
0, 0
0, 0
0, 0
0, 0
0, 0
0, 0
0, 0
0, 0
0, 0
0, 0
0, 0
0, 0
0, 0
0, 0
0, 0
0, 0
0, 0
0, 0
0, 0
0, 0
0, 0
0, 0
0, 0
0, 0
0, 0
0, 0
0, 0
0, 0
0, 0
0, 0
0, 0
0, 0
0, 0
0, 0
0, 0
0, 0
0, 0
0, 0
0, 0
0, 0
#ENDOFDATA     end of spectrum data