File: host_upload/06-09-2024/ps_0852/dump3/ps__0852shot_2367.msa
#FORMAT      : EMSA/MAS spectral data file
#VERSION     : TC202v2.0 PIXL
#TITLE       : N/A
#DATE        :       Date in the format DD-MMM-YYYY, for example 07-JUL-2010
#TIME        :             The time of day at which the spectrum was recorded, in 24-hour format
#OWNER       : PIXL Flight Model       (PIXL will use this to indicate which instrument took the data.)
#NPOINTS     : 4096     Number of data points in the spectrum (This can be zero for configuration only files)
#NCOLUMNS    : 2     Number of data columns in the spectrum (This can be zero for configuration only files)
#XUNITS      : eV
#YUNITS      : COUNTS
#DATATYPE    : YY
#XPERCHAN    : 7.862, 7.881   eV per channel (separate by commas if more than one detector)
#OFFSET      : 18.5, -22.4         eV of first channel  (separate by commas if more than one detector
#SIGNALTYPE  : XRF
#YP_TEMP     : 2.524
#LIVETIME    : 8.5591, 8.55021   seconds (separate by commas if more than one detector)
#REALTIME    : 10, 10.0   seconds (separate by commas if more than one detector)
#SPECTRUM    : start of spectrum data
0, 0
0, 0
0, 0
0, 0
0, 0
0, 0
0, 0
0, 0
5, 2
5, 3
1, 2
55, 44
66, 58
6, 4
0, 3
109, 93
394, 423
104, 88
5, 4
2, 1
1, 0
2, 5
4, 2
12, 3
198, 37
286, 68
55, 24
17, 14
5, 3
1, 1
1, 1
2, 5
4, 2
31, 19
40, 27
11, 7
5, 8
28, 8
41, 7
18, 6
12, 7
9, 10
17, 25
14, 60
5, 84
13, 21
6, 11
6, 3
11, 8
14, 29
37, 22
34, 11
16, 10
29, 43
58, 43
20, 33
41, 61
482, 555
2178, 2252
1615, 1276
198, 140
28, 15
70, 23
153, 104
350, 310
225, 196
33, 16
7, 10
14, 16
8, 14
6, 5
4, 5
4, 3
6, 4
16, 6
66, 7
39, 5
22, 6
4, 4
3, 4
5, 4
3, 2
4, 3
2, 6
5, 8
3, 7
4, 5
2, 9
4, 5
4, 4
3, 5
5, 4
5, 7
6, 2
4, 2
5, 1
3, 3
5, 3
1, 7
3, 5
5, 1
6, 5
2, 2
7, 1
2, 2
2, 1
3, 0
2, 2
1, 2
5, 1
3, 2
3, 5
1, 2
6, 2
2, 3
5, 2
3, 5
3, 1
6, 3
1, 1
0, 2
0, 0
1, 4
1, 1
1, 1
1, 0
1, 1
0, 4
0, 0
1, 1
1, 0
0, 1
1, 2
2, 1
0, 1
3, 2
0, 1
5, 0
1, 1
0, 0
1, 1
0, 1
0, 2
0, 0
0, 1
1, 0
1, 0
0, 0
0, 1
0, 1
1, 0
0, 3
0, 0
0, 0
0, 0
0, 0
0, 0
0, 2
0, 0
0, 0
0, 0
0, 1
0, 0
0, 0
0, 0
0, 1
0, 0
1, 0
0, 0
1, 0
0, 1
0, 1
0, 0
0, 0
0, 0
0, 0
0, 0
0, 0
0, 0
0, 0
0, 1
0, 0
0, 0
0, 0
0, 1
0, 0
0, 1
0, 0
0, 0
0, 0
0, 0
0, 1
0, 0
0, 0
0, 0
0, 0
0, 0
0, 0
0, 0
1, 0
0, 0
0, 0
0, 0
0, 0
0, 0
0, 0
0, 0
0, 0
0, 0
0, 0
0, 0
0, 0
0, 0
0, 0
0, 0
0, 0
0, 0
0, 0
0, 0
0, 0
0, 0
0, 0
0, 1
0, 0
0, 0
0, 0
0, 0
0, 0
0, 0
0, 0
0, 0
0, 0
0, 0
0, 0
0, 0
0, 0
0, 0
0, 0
0, 0
0, 0
0, 0
0, 0
0, 0
0, 0
0, 0
0, 0
0, 0
0, 0
0, 0
0, 0
0, 0
0, 0
0, 0
0, 0
0, 0
0, 0
0, 0
0, 0
0, 0
0, 0
0, 0
0, 0
0, 0
0, 0
0, 0
0, 0
0, 0
0, 0
0, 0
0, 0
0, 0
0, 0
0, 0
0, 0
0, 0
0, 0
0, 0
0, 0
0, 0
0, 0
0, 0
0, 0
0, 0
0, 0
0, 0
0, 0
0, 0
0, 0
0, 0
0, 0
0, 0
0, 0
0, 0
0, 0
#ENDOFDATA     end of spectrum data