File: host_upload/06-09-2024/ps_0852/dump3/ps__0852shot_2421.msa
#FORMAT      : EMSA/MAS spectral data file
#VERSION     : TC202v2.0 PIXL
#TITLE       : N/A
#DATE        :       Date in the format DD-MMM-YYYY, for example 07-JUL-2010
#TIME        :             The time of day at which the spectrum was recorded, in 24-hour format
#OWNER       : PIXL Flight Model       (PIXL will use this to indicate which instrument took the data.)
#NPOINTS     : 4096     Number of data points in the spectrum (This can be zero for configuration only files)
#NCOLUMNS    : 2     Number of data columns in the spectrum (This can be zero for configuration only files)
#XUNITS      : eV
#YUNITS      : COUNTS
#DATATYPE    : YY
#XPERCHAN    : 7.862, 7.881   eV per channel (separate by commas if more than one detector)
#OFFSET      : 18.5, -22.4         eV of first channel  (separate by commas if more than one detector
#SIGNALTYPE  : XRF
#YP_TEMP     : 2.364
#LIVETIME    : 8.52198, 8.34663   seconds (separate by commas if more than one detector)
#REALTIME    : 10, 10.0   seconds (separate by commas if more than one detector)
#SPECTRUM    : start of spectrum data
0, 0
0, 0
0, 0
0, 0
0, 0
0, 0
0, 0
0, 0
0, 2
0, 1
4, 3
42, 35
60, 61
9, 13
8, 11
80, 104
468, 441
106, 113
7, 9
6, 5
1, 2
6, 4
6, 2
17, 10
55, 67
35, 38
29, 25
10, 14
5, 4
3, 3
7, 4
8, 2
3, 8
25, 18
22, 17
7, 4
5, 6
8, 8
5, 13
6, 2
2, 5
17, 8
89, 17
103, 9
54, 9
12, 10
5, 4
5, 3
5, 8
21, 11
26, 15
15, 15
8, 13
26, 32
52, 69
26, 14
45, 56
439, 579
2133, 2293
1501, 1345
187, 115
22, 13
22, 36
95, 134
333, 347
199, 212
28, 21
3, 4
22, 17
9, 7
3, 3
6, 4
3, 2
10, 5
3, 15
4, 18
9, 10
3, 5
4, 3
2, 3
7, 4
9, 16
11, 9
7, 3
15, 4
13, 9
3, 4
7, 3
4, 4
2, 5
4, 4
1, 3
3, 3
5, 2
5, 5
3, 7
2, 2
5, 7
2, 3
4, 1
1, 3
6, 2
1, 1
2, 1
3, 0
1, 3
5, 4
3, 2
0, 2
4, 1
1, 1
4, 2
2, 2
0, 7
3, 3
2, 3
2, 5
8, 0
1, 4
0, 2
1, 0
0, 6
0, 1
0, 1
1, 1
0, 0
0, 2
1, 2
1, 3
0, 0
2, 2
0, 0
1, 1
1, 1
1, 0
0, 0
1, 0
0, 2
1, 1
1, 2
0, 2
1, 0
0, 0
1, 0
3, 0
2, 0
1, 0
0, 0
0, 0
0, 1
0, 0
0, 0
0, 1
0, 0
2, 0
0, 1
0, 0
0, 0
1, 0
0, 1
1, 0
0, 0
0, 0
2, 0
0, 0
0, 0
1, 0
1, 0
0, 0
0, 1
0, 0
0, 0
0, 0
0, 0
0, 0
0, 0
0, 0
0, 0
0, 0
0, 0
0, 0
0, 0
0, 0
0, 0
0, 0
0, 0
0, 0
0, 0
0, 0
0, 0
0, 0
0, 0
0, 0
0, 0
0, 0
0, 0
0, 0
0, 0
0, 0
1, 0
0, 0
0, 0
1, 0
0, 0
0, 0
0, 0
0, 0
0, 0
0, 0
0, 0
0, 0
0, 0
0, 0
0, 0
0, 0
0, 0
0, 0
0, 0
0, 0
0, 0
0, 0
0, 0
0, 0
0, 0
0, 0
0, 0
0, 0
0, 0
0, 0
0, 0
0, 0
0, 0
0, 0
0, 0
0, 0
0, 0
0, 0
0, 0
0, 0
0, 0
0, 0
0, 0
0, 0
0, 0
0, 0
0, 0
0, 0
0, 0
0, 0
0, 0
0, 0
0, 0
0, 0
0, 0
0, 0
0, 0
0, 0
0, 0
0, 0
0, 0
0, 0
0, 0
0, 0
0, 0
0, 0
0, 0
0, 0
0, 0
0, 0
0, 0
0, 0
0, 0
0, 0
0, 0
0, 0
0, 0
0, 0
0, 0
0, 0
0, 0
0, 0
0, 0
0, 0
0, 0
0, 0
0, 0
0, 0
0, 0
0, 0
0, 0
0, 0
0, 0
0, 0
0, 0
#ENDOFDATA     end of spectrum data